* Measurement data measured by REW V5.31
* Source: EXCL: Microphone (USB Sound Device        ), MICROPHONE (Master Volume), R, volume: 0.390
* Format: 256k Log Swept Sine, 1 sweep at -5.0 dBFS with no timing reference
* Dated: Dec 5, 2024 1:25:22 AM
* REW Settings:
*  C-weighting compensation: Off
*  Target level: 75.0 dB
* Note: 
* Measurement: R Dec 5
* Smoothing: 1/12 octave
* Frequency Step: 96 ppo
* Start Frequency: 0.36621094 Hz
*
* Freq(Hz) SPL(dB) Phase(degrees)
0.366211 94.037 162.4000
0.368865 94.031 162.3817
0.371538 94.022 162.3543
0.374230 94.011 162.3199
0.376942 93.998 162.2802
0.379673 93.985 162.2365
0.382424 93.970 162.1898
0.385196 93.956 162.1405
0.387987 93.941 162.0889
0.390798 93.926 162.0353
0.393630 93.911 161.9796
0.396483 93.895 161.9219
0.399356 93.880 161.8622
0.402250 93.864 161.8005
0.405165 93.848 161.7368
0.408101 93.833 161.6711
0.411058 93.817 161.6033
0.414037 93.801 161.5335
0.417037 93.785 161.4616
0.420059 93.768 161.3875
0.423103 93.752 161.3114
0.426169 93.735 161.2331
0.429257 93.719 161.1527
0.432368 93.702 161.0700
0.435501 93.685 160.9852
0.438656 93.668 160.8982
0.441835 93.651 160.8089
0.445037 93.634 160.7174
0.448262 93.616 160.6237
0.451510 93.599 160.5276
0.454782 93.581 160.4293
0.458077 93.563 160.3286
0.461397 93.546 160.2256
0.464740 93.528 160.1203
0.468108 93.509 160.0127
0.471500 93.491 159.9026
0.474917 93.473 159.7902
0.478358 93.454 159.6754
0.481825 93.436 159.5582
0.485316 93.417 159.4386
0.488833 93.398 159.3166
0.492375 93.379 159.1922
0.495943 93.360 159.0653
0.499537 93.340 158.9360
0.503157 93.321 158.8042
0.506803 93.301 158.6700
0.510475 93.281 158.5334
0.514175 93.261 158.3943
0.517900 93.241 158.2528
0.521653 93.221 158.1088
0.525434 93.201 157.9624
0.529241 93.180 157.8136
0.533076 93.159 157.6623
0.536939 93.139 157.5086
0.540830 93.118 157.3525
0.544749 93.097 157.1940
0.548696 93.075 157.0331
0.552673 93.054 156.8699
0.556677 93.032 156.7043
0.560711 93.011 156.5365
0.564774 92.989 156.3663
0.568867 92.967 156.1938
0.572989 92.945 156.0191
0.577141 92.922 155.8423
0.581324 92.900 155.6632
0.585536 92.877 155.4821
0.589779 92.854 155.2988
0.594053 92.831 155.1135
0.598358 92.808 154.9263
0.602694 92.785 154.7371
0.607061 92.761 154.5460
0.611460 92.737 154.3531
0.615891 92.713 154.1585
0.620354 92.689 153.9622
0.624849 92.665 153.7644
0.629377 92.641 153.5650
0.633938 92.616 153.3642
0.638532 92.591 153.1621
0.643159 92.567 152.9588
0.647819 92.541 152.7544
0.652514 92.516 152.5489
0.657242 92.491 152.3426
0.662005 92.465 152.1355
0.666802 92.439 151.9277
0.671634 92.413 151.7195
0.676501 92.387 151.5110
0.681403 92.361 151.3023
0.686341 92.334 151.0935
0.691314 92.307 150.8849
0.696324 92.280 150.6766
0.701370 92.253 150.4688
0.706452 92.225 150.2615
0.711571 92.196 150.0548
0.716728 92.167 149.8488
0.721921 92.136 149.6432
0.727153 92.104 149.4377
0.732422 92.070 149.2315
0.737729 92.033 149.0240
0.743075 91.994 148.8143
0.748460 91.954 148.6016
0.753883 91.912 148.3853
0.759346 91.869 148.1650
0.764849 91.826 147.9405
0.770391 91.781 147.7115
0.775974 91.737 147.4780
0.781597 91.692 147.2398
0.787261 91.647 146.9968
0.792966 91.601 146.7491
0.798712 91.554 146.4964
0.804500 91.507 146.2389
0.810329 91.460 145.9763
0.816201 91.412 145.7088
0.822116 91.363 145.4363
0.828073 91.314 145.1586
0.834074 91.264 144.8759
0.840118 91.213 144.5880
0.846206 91.162 144.2950
0.852338 91.109 143.9967
0.858514 91.056 143.6933
0.864735 91.001 143.3847
0.871001 90.946 143.0709
0.877313 90.889 142.7518
0.883670 90.832 142.4276
0.890074 90.773 142.0983
0.896524 90.712 141.7638
0.903020 90.651 141.4242
0.909564 90.588 141.0796
0.916155 90.523 140.7301
0.922794 90.457 140.3756
0.929481 90.389 140.0164
0.936216 90.319 139.6525
0.943000 90.248 139.2840
0.949834 90.175 138.9112
0.956717 90.099 138.5341
0.963649 90.022 138.1529
0.970632 89.942 137.7679
0.977666 89.860 137.3793
0.984750 89.776 136.9873
0.991886 89.689 136.5923
0.999074 89.599 136.1945
1.006314 89.507 135.7944
1.013606 89.412 135.3923
1.020951 89.314 134.9886
1.028349 89.212 134.5838
1.035801 89.108 134.1785
1.043307 89.000 133.7731
1.050867 88.889 133.3682
1.058482 88.774 132.9645
1.066152 88.655 132.5625
1.073878 88.532 132.1628
1.081660 88.404 131.7657
1.089498 88.272 131.3716
1.097393 88.135 130.9803
1.105345 87.991 130.5916
1.113355 87.841 130.2048
1.121423 87.684 129.8195
1.129549 87.520 129.4350
1.137734 87.349 129.0508
1.145979 87.171 128.6664
1.154283 86.985 128.2814
1.162647 86.793 127.8954
1.171072 86.594 127.5081
1.179558 86.388 127.1191
1.188106 86.176 126.7278
1.196715 85.959 126.3340
1.205387 85.735 125.9371
1.214122 85.507 125.5366
1.222920 85.273 125.1320
1.231782 85.035 124.7226
1.240708 84.793 124.3079
1.249699 84.548 123.8871
1.258754 84.299 123.4595
1.267876 84.047 123.0242
1.277063 83.793 122.5804
1.286318 83.537 122.1270
1.295639 83.280 121.6629
1.305027 83.022 121.1870
1.314484 82.764 120.6978
1.324009 82.506 120.1940
1.333604 82.250 119.6738
1.343268 81.995 119.1355
1.353002 81.743 118.5770
1.362806 81.494 117.9961
1.372681 81.249 117.3903
1.382628 81.009 116.7567
1.392647 80.774 116.0922
1.402739 80.545 115.3933
1.412904 80.324 114.6562
1.423142 80.110 113.8765
1.433455 79.905 113.0494
1.443843 79.709 112.1698
1.454305 79.520 111.2316
1.464844 79.340 110.2281
1.475459 79.166 109.1513
1.486150 78.997 107.9907
1.496920 78.833 106.7328
1.507767 78.672 105.3601
1.518693 78.515 103.8497
1.529698 78.360 102.1718
1.540783 78.209 100.2878
1.551948 78.061 98.1467
1.563194 77.916 95.6805
1.574521 77.776 92.7979
1.585931 77.641 89.3741
1.597423 77.511 85.2382
1.608999 77.387 80.1569
1.620658 77.269 73.8212
1.632402 77.159 65.8541
1.644232 77.056 55.8910
1.656146 76.962 43.8132
1.668147 76.877 30.1193
1.680235 76.802 16.0645
1.692411 76.738 3.1095
1.704675 76.685 -7.8648
1.717028 76.645 -16.7285
1.729470 76.618 -23.7695
1.742003 76.605 -29.3768
1.754626 76.608 -33.8964
1.767341 76.627 -37.5975
1.780147 76.664 -40.6805
1.793047 76.721 -43.2925
1.806040 76.799 -45.5429
1.819128 76.900 -47.5143
1.832310 77.027 -49.2700
1.845587 77.182 -50.8588
1.858961 77.367 -52.3174
1.872432 77.582 -53.6726
1.886001 77.826 -54.9431
1.899667 78.099 -56.1424
1.913433 78.398 -57.2799
1.927299 78.722 -58.3626
1.941265 79.069 -59.3958
1.955332 79.435 -60.3835
1.969501 79.817 -61.3290
1.983773 80.214 -62.2349
1.998148 80.621 -63.1033
2.012627 81.037 -63.9359
2.027212 81.457 -64.7341
2.041902 81.878 -65.4993
2.056698 82.298 -66.2324
2.071602 82.713 -66.9343
2.086614 83.120 -67.6057
2.101734 83.516 -68.2473
2.116964 83.897 -68.8602
2.132304 84.260 -69.4452
2.147756 84.605 -70.0038
2.163320 84.928 -70.5383
2.178996 85.229 -71.0515
2.194786 85.508 -71.5474
2.210690 85.767 -72.0306
2.226710 86.007 -72.5054
2.242845 86.231 -72.9753
2.259098 86.440 -73.4422
2.275468 86.636 -73.9072
2.291957 86.820 -74.3704
2.308566 86.992 -74.8312
2.325295 87.154 -75.2887
2.342145 87.307 -75.7419
2.359117 87.451 -76.1896
2.376212 87.587 -76.6306
2.393431 87.718 -77.0636
2.410775 87.842 -77.4872
2.428244 87.962 -77.9003
2.445840 88.079 -78.3014
2.463564 88.193 -78.6895
2.481416 88.306 -79.0635
2.499397 88.419 -79.4225
2.517509 88.531 -79.7663
2.535752 88.644 -80.0948
2.554127 88.757 -80.4090
2.572635 88.869 -80.7104
2.591277 88.980 -81.0010
2.610055 89.088 -81.2826
2.628968 89.192 -81.5567
2.648019 89.293 -81.8242
2.667208 89.390 -82.0856
2.686535 89.484 -82.3412
2.706003 89.574 -82.5907
2.725612 89.661 -82.8341
2.745363 89.746 -83.0710
2.765257 89.827 -83.3009
2.785295 89.907 -83.5234
2.805478 89.986 -83.7380
2.825808 90.063 -83.9442
2.846285 90.140 -84.1414
2.866910 90.216 -84.3292
2.887685 90.292 -84.5070
2.908611 90.368 -84.6747
2.929688 90.444 -84.8322
2.950917 90.518 -84.9794
2.972301 90.592 -85.1169
2.993839 90.665 -85.2450
3.015534 90.736 -85.3645
3.037386 90.806 -85.4757
3.059396 90.875 -85.5796
3.081565 90.943 -85.6765
3.103896 91.009 -85.7673
3.126388 91.075 -85.8525
3.149043 91.141 -85.9327
3.171862 91.206 -86.0084
3.194847 91.271 -86.0801
3.217998 91.337 -86.1481
3.241317 91.403 -86.2125
3.264805 91.469 -86.2733
3.288463 91.537 -86.3298
3.312293 91.604 -86.3817
3.336295 91.673 -86.4283
3.360471 91.741 -86.4696
3.384822 91.810 -86.5058
3.409350 91.879 -86.5378
3.434056 91.948 -86.5666
3.458940 92.017 -86.5938
3.484005 92.086 -86.6208
3.509252 92.156 -86.6491
3.534681 92.225 -86.6805
3.560295 92.295 -86.7162
3.586094 92.365 -86.7576
3.612081 92.436 -86.8055
3.638255 92.506 -86.8605
3.664620 92.577 -86.9226
3.691175 92.649 -86.9912
3.717923 92.720 -87.0658
3.744864 92.792 -87.1460
3.772001 92.865 -87.2317
3.799335 92.937 -87.3230
3.826866 93.009 -87.4202
3.854597 93.082 -87.5239
3.882529 93.154 -87.6346
3.910664 93.225 -87.7529
3.939002 93.296 -87.8796
3.967546 93.366 -88.0151
3.996296 93.436 -88.1599
4.025255 93.505 -88.3145
4.054423 93.573 -88.4788
4.083804 93.640 -88.6527
4.113396 93.707 -88.8361
4.143204 93.772 -89.0284
4.173227 93.837 -89.2292
4.203468 93.901 -89.4379
4.233928 93.964 -89.6540
4.264609 94.026 -89.8772
4.295512 94.086 -90.1071
4.326639 94.146 -90.3436
4.357992 94.203 -90.5867
4.389572 94.259 -90.8367
4.421380 94.313 -91.0940
4.453419 94.366 -91.3589
4.485691 94.417 -91.6312
4.518196 94.467 -91.9104
4.550936 94.514 -92.1956
4.583914 94.561 -92.4857
4.617131 94.605 -92.7794
4.650589 94.648 -93.0756
4.684289 94.690 -93.3733
4.718233 94.730 -93.6717
4.752424 94.769 -93.9707
4.786862 94.805 -94.2704
4.821549 94.841 -94.5712
4.856488 94.874 -94.8732
4.891680 94.906 -95.1762
4.927127 94.936 -95.4798
4.962831 94.965 -95.7831
4.998794 94.993 -96.0854
5.035017 95.020 -96.3856
5.071503 95.045 -96.6830
5.108253 95.070 -96.9770
5.145270 95.095 -97.2674
5.182555 95.118 -97.5543
5.220110 95.140 -97.8379
5.257937 95.162 -98.1185
5.296038 95.183 -98.3965
5.334415 95.203 -98.6719
5.373071 95.223 -98.9450
5.412006 95.244 -99.2157
5.451224 95.264 -99.4839
5.490725 95.284 -99.7494
5.530514 95.305 -100.0124
5.570590 95.326 -100.2728
5.610957 95.347 -100.5311
5.651616 95.369 -100.7881
5.692570 95.391 -101.0448
5.733821 95.414 -101.3020
5.775370 95.437 -101.5606
5.817221 95.461 -101.8215
5.859375 95.486 -102.0849
5.901834 95.512 -102.3511
5.944602 95.538 -102.6204
5.987679 95.566 -102.8930
6.031068 95.594 -103.1698
6.074771 95.623 -103.4516
6.118792 95.653 -103.7394
6.163131 95.683 -104.0341
6.207792 95.714 -104.3366
6.252776 95.746 -104.6471
6.298086 95.778 -104.9658
6.343725 95.811 -105.2927
6.389694 95.844 -105.6276
6.435996 95.878 -105.9708
6.482634 95.912 -106.3220
6.529610 95.945 -106.6816
6.576926 95.979 -107.0496
6.624585 96.013 -107.4262
6.672590 96.047 -107.8110
6.720942 96.080 -108.2039
6.769645 96.114 -108.6040
6.818700 96.147 -109.0105
6.868111 96.179 -109.4227
6.917881 96.212 -109.8399
6.968010 96.244 -110.2616
7.018504 96.275 -110.6875
7.069362 96.306 -111.1171
7.120590 96.336 -111.5497
7.172189 96.366 -111.9843
7.224161 96.396 -112.4198
7.276511 96.426 -112.8552
7.329239 96.455 -113.2897
7.382350 96.484 -113.7230
7.435845 96.512 -114.1545
7.489729 96.541 -114.5840
7.544002 96.570 -115.0108
7.598669 96.599 -115.4344
7.653732 96.628 -115.8542
7.709194 96.657 -116.2699
7.765058 96.687 -116.6811
7.821327 96.718 -117.0880
7.878004 96.749 -117.4906
7.935091 96.781 -117.8891
7.992592 96.813 -118.2836
8.050510 96.847 -118.6742
8.108847 96.881 -119.0610
8.167607 96.917 -119.4443
8.226793 96.953 -119.8244
8.286408 96.990 -120.2018
8.346454 97.029 -120.5770
8.406936 97.068 -120.9504
8.467856 97.108 -121.3224
8.529218 97.149 -121.6932
8.591024 97.191 -122.0630
8.653278 97.234 -122.4320
8.715983 97.278 -122.8006
8.779143 97.321 -123.1688
8.842760 97.366 -123.5369
8.906839 97.410 -123.9047
8.971381 97.455 -124.2720
9.036392 97.500 -124.6386
9.101873 97.546 -125.0043
9.167829 97.591 -125.3686
9.234263 97.636 -125.7315
9.301178 97.680 -126.0924
9.368578 97.725 -126.4508
9.436467 97.769 -126.8062
9.504847 97.812 -127.1580
9.573723 97.855 -127.5059
9.643099 97.897 -127.8494
9.712976 97.937 -128.1881
9.783361 97.976 -128.5216
9.854255 98.012 -128.8495
9.925663 98.046 -129.1716
9.997588 98.077 -129.4876
10.070035 98.105 -129.7975
10.143007 98.131 -130.1013
10.216507 98.155 -130.3991
10.290540 98.178 -130.6908
10.365109 98.199 -130.9767
10.440219 98.219 -131.2571
10.515873 98.238 -131.5322
10.592076 98.256 -131.8025
10.668830 98.274 -132.0683
10.746141 98.291 -132.3299
10.824012 98.309 -132.5878
10.902447 98.325 -132.8424
10.981451 98.341 -133.0942
11.061027 98.357 -133.3434
11.141180 98.373 -133.5905
11.221913 98.387 -133.8356
11.303232 98.401 -134.0793
11.385140 98.415 -134.3216
11.467641 98.428 -134.5628
11.550741 98.440 -134.8031
11.634442 98.451 -135.0427
11.718750 98.463 -135.2817
11.803669 98.473 -135.5203
11.889203 98.483 -135.7586
11.975357 98.493 -135.9966
12.062136 98.502 -136.2345
12.149543 98.511 -136.4725
12.237583 98.519 -136.7106
12.326262 98.526 -136.9490
12.415583 98.533 -137.1878
12.505552 98.539 -137.4272
12.596172 98.544 -137.6673
12.687449 98.548 -137.9083
12.779387 98.551 -138.1505
12.871992 98.553 -138.3939
12.965268 98.555 -138.6388
13.059220 98.557 -138.8854
13.153852 98.557 -139.1339
13.249170 98.558 -139.3846
13.345179 98.558 -139.6376
13.441884 98.558 -139.8933
13.539289 98.558 -140.1520
13.637401 98.558 -140.4139
13.736223 98.558 -140.6793
13.835761 98.557 -140.9485
13.936021 98.556 -141.2218
14.037007 98.556 -141.4996
14.138725 98.554 -141.7821
14.241180 98.553 -142.0695
14.344377 98.552 -142.3621
14.448323 98.550 -142.6599
14.553021 98.549 -142.9631
14.658478 98.547 -143.2716
14.764700 98.545 -143.5853
14.871691 98.543 -143.9042
14.979457 98.542 -144.2278
15.088005 98.540 -144.5559
15.197339 98.539 -144.8881
15.307465 98.538 -145.2239
15.418389 98.537 -145.5629
15.530117 98.537 -145.9047
15.642655 98.536 -146.2487
15.756008 98.536 -146.5946
15.870182 98.537 -146.9419
15.985184 98.537 -147.2903
16.101019 98.538 -147.6396
16.217694 98.540 -147.9894
16.335214 98.543 -148.3397
16.453586 98.546 -148.6903
16.572815 98.550 -149.0410
16.692909 98.555 -149.3917
16.813872 98.561 -149.7422
16.935713 98.568 -150.0923
17.058436 98.575 -150.4418
17.182048 98.584 -150.7902
17.306556 98.593 -151.1374
17.431967 98.602 -151.4827
17.558286 98.612 -151.8258
17.685521 98.622 -152.1661
17.813677 98.632 -152.5033
17.942762 98.642 -152.8368
18.072783 98.653 -153.1664
18.203746 98.663 -153.4915
18.335658 98.673 -153.8121
18.468526 98.684 -154.1279
18.602356 98.694 -154.4388
18.737156 98.704 -154.7450
18.872934 98.715 -155.0463
19.009695 98.725 -155.3430
19.147447 98.735 -155.6352
19.286197 98.745 -155.9232
19.425953 98.755 -156.2072
19.566721 98.765 -156.4875
19.708510 98.773 -156.7645
19.851326 98.782 -157.0385
19.995177 98.789 -157.3099
20.140070 98.796 -157.5790
20.286013 98.802 -157.8465
20.433014 98.808 -158.1125
20.581080 98.812 -158.3777
20.730219 98.816 -158.6425
20.880439 98.819 -158.9072
21.031747 98.821 -159.1723
21.184152 98.823 -159.4381
21.337661 98.824 -159.7050
21.492282 98.824 -159.9734
21.648024 98.824 -160.2436
21.804895 98.823 -160.5160
21.962902 98.822 -160.7908
22.122054 98.819 -161.0685
22.282360 98.817 -161.3494
22.443827 98.814 -161.6339
22.606464 98.810 -161.9224
22.770280 98.806 -162.2151
22.935283 98.802 -162.5122
23.101481 98.797 -162.8139
23.268884 98.793 -163.1201
23.437500 98.788 -163.4307
23.607338 98.782 -163.7456
23.778406 98.777 -164.0645
23.950714 98.771 -164.3870
24.124271 98.766 -164.7127
24.299086 98.760 -165.0414
24.475167 98.755 -165.3725
24.652524 98.750 -165.7058
24.831166 98.746 -166.0407
25.011103 98.741 -166.3768
25.192344 98.737 -166.7136
25.374898 98.734 -167.0505
25.558775 98.730 -167.3870
25.743984 98.728 -167.7223
25.930536 98.725 -168.0558
26.118439 98.723 -168.3870
26.307704 98.720 -168.7154
26.498341 98.719 -169.0405
26.690359 98.717 -169.3622
26.883768 98.715 -169.6801
27.078579 98.714 -169.9943
27.274801 98.712 -170.3047
27.472446 98.710 -170.6112
27.671522 98.708 -170.9138
27.872042 98.706 -171.2126
28.074014 98.703 -171.5075
28.277450 98.700 -171.7987
28.482360 98.696 -172.0863
28.688755 98.691 -172.3708
28.896645 98.686 -172.6525
29.106042 98.680 -172.9323
29.316957 98.674 -173.2106
29.529400 98.667 -173.4884
29.743382 98.660 -173.7662
29.958915 98.652 -174.0446
30.176009 98.643 -174.3240
30.394677 98.634 -174.6049
30.614929 98.625 -174.8876
30.836778 98.615 -175.1726
31.060234 98.605 -175.4604
31.285309 98.595 -175.7518
31.512015 98.585 -176.0473
31.740364 98.574 -176.3477
31.970368 98.563 -176.6531
32.202039 98.552 -176.9638
32.435388 98.541 -177.2793
32.670428 98.529 -177.5987
32.907171 98.517 -177.9211
33.145630 98.505 -178.2451
33.385817 98.493 -178.5698
33.627745 98.481 -178.8943
33.871425 98.469 -179.2180
34.116871 98.457 -179.5407
34.364096 98.446 -179.8624
34.613113 98.434 179.8171
34.863934 98.423 179.4980
35.116572 98.412 179.1808
35.371041 98.401 178.8660
35.627354 98.389 178.5540
35.885525 98.378 178.2453
36.145566 98.366 177.9399
36.407492 98.354 177.6375
36.671316 98.341 177.3378
36.937051 98.329 177.0404
37.204712 98.315 176.7452
37.474313 98.301 176.4523
37.745867 98.286 176.1620
38.019389 98.271 175.8743
38.294893 98.255 175.5893
38.572394 98.239 175.3063
38.851905 98.222 175.0245
39.133442 98.205 174.7427
39.417019 98.187 174.4601
39.702651 98.169 174.1761
39.990353 98.150 173.8909
40.280140 98.131 173.6054
40.572026 98.112 173.3206
40.866028 98.092 173.0375
41.162160 98.072 172.7565
41.460438 98.052 172.4772
41.760877 98.033 172.1985
42.063494 98.014 171.9189
42.368303 97.996 171.6368
42.675322 97.978 171.3516
42.984565 97.960 171.0631
43.296048 97.941 170.7725
43.609789 97.922 170.4811
43.925804 97.903 170.1906
44.244108 97.883 169.9022
44.564719 97.863 169.6163
44.887654 97.843 169.3329
45.212928 97.823 169.0511
45.540560 97.803 168.7705
45.870565 97.783 168.4901
46.202962 97.762 168.2097
46.537768 97.741 167.9291
46.875000 97.720 167.6484
47.214676 97.698 167.3682
47.556813 97.676 167.0892
47.901429 97.654 166.8123
48.248542 97.631 166.5382
48.598171 97.608 166.2673
48.950334 97.586 165.9993
49.305048 97.563 165.7336
49.662333 97.540 165.4695
50.022206 97.517 165.2061
50.384688 97.494 164.9433
50.749796 97.471 164.6810
51.117550 97.447 164.4193
51.487969 97.423 164.1588
51.861072 97.398 163.8998
52.236879 97.373 163.6433
52.615409 97.347 163.3903
52.996681 97.321 163.1412
53.380717 97.295 162.8961
53.767536 97.269 162.6544
54.157158 97.243 162.4145
54.549603 97.218 162.1751
54.944892 97.193 161.9348
55.343045 97.168 161.6928
55.744084 97.143 161.4487
56.148028 97.118 161.2023
56.554900 97.094 160.9542
56.964720 97.069 160.7044
57.377510 97.044 160.4532
57.793291 97.020 160.2006
58.212085 96.995 159.9459
58.633914 96.969 159.6890
59.058799 96.943 159.4305
59.486764 96.916 159.1721
59.917829 96.887 158.9158
60.352019 96.857 158.6635
60.789354 96.827 158.4160
61.229859 96.796 158.1732
61.673556 96.764 157.9343
62.120468 96.732 157.6987
62.570618 96.700 157.4653
63.024031 96.668 157.2334
63.480729 96.635 157.0022
63.940736 96.602 156.7715
64.404077 96.568 156.5422
64.870776 96.534 156.3159
65.340856 96.500 156.0941
65.814343 96.465 155.8768
66.291261 96.431 155.6628
66.771635 96.397 155.4497
67.255489 96.364 155.2362
67.742850 96.330 155.0221
68.233743 96.295 154.8087
68.728193 96.260 154.5973
69.226226 96.225 154.3887
69.727867 96.189 154.1826
70.233144 96.153 153.9781
70.742083 96.117 153.7748
71.254709 96.081 153.5723
71.771050 96.044 153.3711
72.291132 96.008 153.1716
72.814984 95.972 152.9745
73.342631 95.935 152.7805
73.874102 95.899 152.5907
74.409424 95.863 152.4061
74.948626 95.827 152.2274
75.491734 95.792 152.0537
76.038779 95.758 151.8828
76.589787 95.724 151.7112
77.144788 95.691 151.5356
77.703811 95.659 151.3538
78.266885 95.626 151.1644
78.834039 95.593 150.9672
79.405303 95.558 150.7628
79.980706 95.523 150.5529
80.560280 95.486 150.3390
81.144053 95.448 150.1230
81.732056 95.409 149.9062
82.324320 95.369 149.6899
82.920876 95.328 149.4745
83.521755 95.286 149.2601
84.126988 95.243 149.0471
84.736607 95.198 148.8374
85.350643 95.153 148.6340
85.969129 95.106 148.4399
86.592097 95.058 148.2577
87.219579 95.011 148.0878
