* Measurement data measured by REW V5.31
* Source: EXCL: Microphone (USB Sound Device        ), MICROPHONE (Master Volume), L, volume: 0.250
* Format: 256k Log Swept Sine, 1 sweep at -4.0 dBFS with no timing reference
* Dated: Jul 6, 2024 12:00:28 AM
* REW Settings:
*  C-weighting compensation: Off
*  Target level: 75.0 dB
* Note: 7HZ Aero L
* Measurement: L 7HZ Aero
* Smoothing: 1/12 octave
* Frequency Step: 96 ppo
* Start Frequency: 0.36621094 Hz
*
* Freq(Hz) SPL(dB) Phase(degrees)
0.366211 75.541 -134.8908
0.368865 75.552 -134.9053
0.371538 75.569 -134.9269
0.374230 75.590 -134.9538
0.376942 75.614 -134.9845
0.379673 75.639 -135.0177
0.382424 75.665 -135.0528
0.385196 75.693 -135.0893
0.387987 75.720 -135.1269
0.390798 75.748 -135.1655
0.393630 75.776 -135.2050
0.396483 75.804 -135.2453
0.399356 75.833 -135.2865
0.402250 75.862 -135.3284
0.405165 75.891 -135.3712
0.408101 75.920 -135.4147
0.411058 75.950 -135.4591
0.414037 75.979 -135.5042
0.417037 76.009 -135.5501
0.420059 76.039 -135.5968
0.423103 76.069 -135.6443
0.426169 76.100 -135.6926
0.429257 76.131 -135.7416
0.432368 76.162 -135.7914
0.435501 76.193 -135.8419
0.438656 76.224 -135.8932
0.441835 76.256 -135.9452
0.445037 76.288 -135.9980
0.448262 76.320 -136.0515
0.451510 76.352 -136.1057
0.454782 76.385 -136.1607
0.458077 76.418 -136.2163
0.461397 76.451 -136.2727
0.464740 76.484 -136.3298
0.468108 76.518 -136.3876
0.471500 76.551 -136.4461
0.474917 76.585 -136.5052
0.478358 76.620 -136.5651
0.481825 76.654 -136.6256
0.485316 76.689 -136.6868
0.488833 76.724 -136.7486
0.492375 76.759 -136.8111
0.495943 76.795 -136.8743
0.499537 76.831 -136.9380
0.503157 76.867 -137.0024
0.506803 76.903 -137.0675
0.510475 76.940 -137.1331
0.514175 76.976 -137.1994
0.517900 77.014 -137.2663
0.521653 77.051 -137.3338
0.525434 77.089 -137.4019
0.529241 77.126 -137.4706
0.533076 77.165 -137.5399
0.536939 77.203 -137.6098
0.540830 77.242 -137.6802
0.544749 77.281 -137.7513
0.548696 77.320 -137.8229
0.552673 77.360 -137.8952
0.556677 77.400 -137.9680
0.560711 77.440 -138.0414
0.564774 77.480 -138.1153
0.568867 77.521 -138.1899
0.572989 77.562 -138.2650
0.577141 77.604 -138.3408
0.581324 77.645 -138.4171
0.585536 77.687 -138.4940
0.589779 77.729 -138.5715
0.594053 77.772 -138.6496
0.598358 77.815 -138.7284
0.602694 77.858 -138.8077
0.607061 77.902 -138.8877
0.611460 77.945 -138.9684
0.615891 77.989 -139.0496
0.620354 78.034 -139.1316
0.624849 78.079 -139.2142
0.629377 78.124 -139.2975
0.633938 78.169 -139.3815
0.638532 78.215 -139.4663
0.643159 78.261 -139.5518
0.647819 78.308 -139.6381
0.652514 78.354 -139.7251
0.657242 78.401 -139.8130
0.662005 78.449 -139.9017
0.666802 78.497 -139.9913
0.671634 78.545 -140.0818
0.676501 78.593 -140.1733
0.681403 78.642 -140.2657
0.686341 78.691 -140.3591
0.691314 78.740 -140.4536
0.696324 78.790 -140.5492
0.701370 78.840 -140.6460
0.706452 78.889 -140.7441
0.711571 78.939 -140.8436
0.716728 78.987 -140.9447
0.721921 79.033 -141.0476
0.727153 79.077 -141.1528
0.732422 79.118 -141.2606
0.737729 79.154 -141.3716
0.743075 79.187 -141.4862
0.748460 79.217 -141.6048
0.753883 79.244 -141.7278
0.759346 79.270 -141.8551
0.764849 79.295 -141.9868
0.770391 79.319 -142.1230
0.775974 79.342 -142.2635
0.781597 79.364 -142.4083
0.787261 79.386 -142.5573
0.792966 79.407 -142.7103
0.798712 79.427 -142.8671
0.804500 79.447 -143.0278
0.810329 79.465 -143.1921
0.816201 79.484 -143.3600
0.822116 79.501 -143.5312
0.828073 79.517 -143.7056
0.834074 79.533 -143.8831
0.840118 79.548 -144.0635
0.846206 79.562 -144.2467
0.852338 79.575 -144.4324
0.858514 79.588 -144.6205
0.864735 79.599 -144.8109
0.871001 79.609 -145.0034
0.877313 79.619 -145.1977
0.883670 79.627 -145.3936
0.890074 79.634 -145.5911
0.896524 79.640 -145.7898
0.903020 79.645 -145.9896
0.909564 79.649 -146.1902
0.916155 79.652 -146.3914
0.922794 79.653 -146.5931
0.929481 79.654 -146.7949
0.936216 79.652 -146.9966
0.943000 79.650 -147.1980
0.949834 79.646 -147.3988
0.956717 79.641 -147.5988
0.963649 79.634 -147.7976
0.970632 79.626 -147.9950
0.977666 79.616 -148.1908
0.984750 79.605 -148.3844
0.991886 79.592 -148.5758
0.999074 79.578 -148.7645
1.006314 79.561 -148.9502
1.013606 79.543 -149.1326
1.020951 79.523 -149.3113
1.028349 79.502 -149.4859
1.035801 79.478 -149.6560
1.043307 79.452 -149.8212
1.050867 79.425 -149.9813
1.058482 79.395 -150.1359
1.066152 79.363 -150.2848
1.073878 79.329 -150.4281
1.081660 79.293 -150.5660
1.089498 79.254 -150.6994
1.097393 79.212 -150.8294
1.105345 79.167 -150.9577
1.113355 79.119 -151.0861
1.121423 79.067 -151.2161
1.129549 79.012 -151.3487
1.137734 78.953 -151.4846
1.145979 78.890 -151.6241
1.154283 78.824 -151.7671
1.162647 78.754 -151.9136
1.171072 78.680 -152.0633
1.179558 78.603 -152.2157
1.188106 78.523 -152.3705
1.196715 78.439 -152.5272
1.205387 78.352 -152.6853
1.214122 78.261 -152.8441
1.222920 78.168 -153.0029
1.231782 78.072 -153.1612
1.240708 77.972 -153.3180
1.249699 77.870 -153.4725
1.258754 77.766 -153.6237
1.267876 77.659 -153.7705
1.277063 77.549 -153.9118
1.286318 77.438 -154.0463
1.295639 77.324 -154.1726
1.305027 77.208 -154.2891
1.314484 77.091 -154.3940
1.324009 76.972 -154.4855
1.333604 76.852 -154.5614
1.343268 76.731 -154.6194
1.353002 76.609 -154.6570
1.362806 76.486 -154.6713
1.372681 76.362 -154.6593
1.382628 76.238 -154.6177
1.392647 76.115 -154.5426
1.402739 75.991 -154.4303
1.412904 75.867 -154.2764
1.423142 75.744 -154.0767
1.433455 75.621 -153.8267
1.443843 75.497 -153.5222
1.454305 75.372 -153.1594
1.464844 75.245 -152.7350
1.475459 75.113 -152.2461
1.486150 74.976 -151.6895
1.496920 74.832 -151.0611
1.507767 74.681 -150.3559
1.518693 74.522 -149.5672
1.529698 74.356 -148.6873
1.540783 74.183 -147.7071
1.551948 74.004 -146.6162
1.563194 73.820 -145.4033
1.574521 73.632 -144.0556
1.585931 73.441 -142.5596
1.597423 73.248 -140.9008
1.608999 73.054 -139.0640
1.620658 72.861 -137.0341
1.632402 72.671 -134.7965
1.644232 72.484 -132.3385
1.656146 72.302 -129.6501
1.668147 72.127 -126.7265
1.680235 71.961 -123.5695
1.692411 71.805 -120.1897
1.704675 71.661 -116.6085
1.717028 71.532 -112.8591
1.729470 71.419 -108.9859
1.742003 71.325 -105.0432
1.754626 71.252 -101.0913
1.767341 71.202 -97.1917
1.780147 71.178 -93.4021
1.793047 71.184 -89.7710
1.806040 71.220 -86.3347
1.819128 71.290 -83.1151
1.832310 71.397 -80.1210
1.845587 71.541 -77.3506
1.858961 71.722 -74.7971
1.872432 71.942 -72.4514
1.886001 72.198 -70.3046
1.899667 72.490 -68.3475
1.913433 72.813 -66.5709
1.927299 73.167 -64.9650
1.941265 73.547 -63.5197
1.955332 73.952 -62.2248
1.969501 74.377 -61.0702
1.983773 74.820 -60.0461
1.998148 75.277 -59.1431
2.012627 75.744 -58.3525
2.027212 76.219 -57.6660
2.041902 76.698 -57.0762
2.056698 77.176 -56.5765
2.071602 77.651 -56.1606
2.086614 78.118 -55.8232
2.101734 78.575 -55.5593
2.116964 79.017 -55.3645
2.132304 79.443 -55.2349
2.147756 79.849 -55.1668
2.163320 80.234 -55.1564
2.178996 80.598 -55.2000
2.194786 80.941 -55.2937
2.210690 81.266 -55.4332
2.226710 81.574 -55.6141
2.242845 81.869 -55.8322
2.259098 82.151 -56.0833
2.275468 82.423 -56.3641
2.291957 82.685 -56.6713
2.308566 82.938 -57.0021
2.325295 83.183 -57.3540
2.342145 83.420 -57.7248
2.359117 83.651 -58.1126
2.376212 83.874 -58.5157
2.393431 84.092 -58.9328
2.410775 84.305 -59.3625
2.428244 84.513 -59.8041
2.445840 84.717 -60.2566
2.463564 84.917 -60.7197
2.481416 85.115 -61.1932
2.499397 85.310 -61.6771
2.517509 85.503 -62.1723
2.535752 85.694 -62.6796
2.554127 85.883 -63.2008
2.572635 86.068 -63.7374
2.591277 86.250 -64.2910
2.610055 86.427 -64.8624
2.628968 86.599 -65.4511
2.648019 86.765 -66.0558
2.667208 86.927 -66.6748
2.686535 87.083 -67.3058
2.706003 87.235 -67.9463
2.725612 87.382 -68.5941
2.745363 87.524 -69.2467
2.765257 87.663 -69.9021
2.785295 87.798 -70.5582
2.805478 87.929 -71.2133
2.825808 88.058 -71.8658
2.846285 88.183 -72.5149
2.866910 88.307 -73.1601
2.887685 88.427 -73.8018
2.908611 88.546 -74.4415
2.929688 88.661 -75.0816
2.950917 88.774 -75.7249
2.972301 88.883 -76.3741
2.993839 88.989 -77.0310
3.015534 89.090 -77.6960
3.037386 89.188 -78.3684
3.059396 89.282 -79.0468
3.081565 89.372 -79.7291
3.103896 89.458 -80.4130
3.126388 89.542 -81.0961
3.149043 89.622 -81.7759
3.171862 89.699 -82.4499
3.194847 89.774 -83.1160
3.217998 89.846 -83.7724
3.241317 89.916 -84.4182
3.264805 89.984 -85.0532
3.288463 90.049 -85.6785
3.312293 90.111 -86.2962
3.336295 90.170 -86.9087
3.360471 90.226 -87.5181
3.384822 90.279 -88.1255
3.409350 90.329 -88.7311
3.434056 90.375 -89.3340
3.458940 90.419 -89.9331
3.484005 90.460 -90.5264
3.509252 90.499 -91.1118
3.534681 90.536 -91.6873
3.560295 90.571 -92.2504
3.586094 90.604 -92.7992
3.612081 90.636 -93.3321
3.638255 90.667 -93.8481
3.664620 90.696 -94.3472
3.691175 90.723 -94.8299
3.717923 90.748 -95.2974
3.744864 90.772 -95.7509
3.772001 90.793 -96.1914
3.799335 90.813 -96.6194
3.826866 90.831 -97.0353
3.854597 90.848 -97.4390
3.882529 90.864 -97.8304
3.910664 90.881 -98.2089
3.939002 90.897 -98.5740
3.967546 90.914 -98.9249
3.996296 90.931 -99.2605
4.025255 90.948 -99.5799
4.054423 90.967 -99.8823
4.083804 90.986 -100.1676
4.113396 91.005 -100.4360
4.143204 91.024 -100.6888
4.173227 91.044 -100.9276
4.203468 91.065 -101.1546
4.233928 91.087 -101.3718
4.264609 91.110 -101.5816
4.295512 91.135 -101.7858
4.326639 91.161 -101.9859
4.357992 91.190 -102.1828
4.389572 91.221 -102.3764
4.421380 91.254 -102.5661
4.453419 91.290 -102.7514
4.485691 91.327 -102.9324
4.518196 91.367 -103.1101
4.550936 91.409 -103.2864
4.583914 91.453 -103.4640
4.617131 91.498 -103.6457
4.650589 91.545 -103.8344
4.684289 91.593 -104.0328
4.718233 91.643 -104.2427
4.752424 91.694 -104.4652
4.786862 91.747 -104.7007
4.821549 91.801 -104.9486
4.856488 91.857 -105.2086
4.891680 91.914 -105.4804
4.927127 91.971 -105.7643
4.962831 92.030 -106.0609
4.998794 92.089 -106.3710
5.035017 92.147 -106.6956
5.071503 92.205 -107.0359
5.108253 92.262 -107.3926
5.145270 92.319 -107.7665
5.182555 92.374 -108.1575
5.220110 92.429 -108.5652
5.257937 92.483 -108.9882
5.296038 92.536 -109.4251
5.334415 92.587 -109.8740
5.373071 92.637 -110.3335
5.412006 92.685 -110.8022
5.451224 92.731 -111.2795
5.490725 92.775 -111.7653
5.530514 92.816 -112.2597
5.570590 92.855 -112.7628
5.610957 92.892 -113.2738
5.651616 92.926 -113.7911
5.692570 92.958 -114.3125
5.733821 92.988 -114.8354
5.775370 93.016 -115.3573
5.817221 93.042 -115.8764
5.859375 93.065 -116.3917
5.901834 93.086 -116.9028
5.944602 93.104 -117.4097
5.987679 93.121 -117.9121
6.031068 93.136 -118.4092
6.074771 93.149 -118.8995
6.118792 93.161 -119.3813
6.163131 93.172 -119.8531
6.207792 93.182 -120.3134
6.252776 93.191 -120.7615
6.298086 93.200 -121.1972
6.343725 93.208 -121.6209
6.389694 93.216 -122.0333
6.435996 93.224 -122.4348
6.482634 93.233 -122.8261
6.529610 93.242 -123.2075
6.576926 93.252 -123.5791
6.624585 93.264 -123.9409
6.672590 93.277 -124.2934
6.720942 93.291 -124.6376
6.769645 93.307 -124.9751
6.818700 93.324 -125.3081
6.868111 93.343 -125.6387
6.917881 93.364 -125.9687
6.968010 93.386 -126.2994
7.018504 93.411 -126.6316
7.069362 93.437 -126.9660
7.120590 93.465 -127.3038
7.172189 93.495 -127.6465
7.224161 93.526 -127.9958
7.276511 93.558 -128.3531
7.329239 93.591 -128.7198
7.382350 93.624 -129.0963
7.435845 93.658 -129.4826
7.489729 93.693 -129.8787
7.544002 93.728 -130.2840
7.598669 93.762 -130.6985
7.653732 93.796 -131.1218
7.709194 93.829 -131.5537
7.765058 93.861 -131.9939
7.821327 93.893 -132.4414
7.878004 93.923 -132.8947
7.935091 93.952 -133.3521
7.992592 93.979 -133.8119
8.050510 94.005 -134.2728
8.108847 94.030 -134.7336
8.167607 94.053 -135.1933
8.226793 94.075 -135.6507
8.286408 94.095 -136.1042
8.346454 94.114 -136.5523
8.406936 94.133 -136.9935
8.467856 94.150 -137.4268
8.529218 94.166 -137.8517
8.591024 94.182 -138.2678
8.653278 94.198 -138.6749
8.715983 94.213 -139.0728
8.779143 94.229 -139.4613
8.842760 94.244 -139.8405
8.906839 94.260 -140.2109
8.971381 94.277 -140.5732
9.036392 94.294 -140.9285
9.101873 94.313 -141.2780
9.167829 94.332 -141.6227
9.234263 94.351 -141.9634
9.301178 94.372 -142.3013
9.368578 94.394 -142.6374
9.436467 94.416 -142.9731
9.504847 94.439 -143.3093
9.573723 94.462 -143.6470
9.643099 94.484 -143.9866
9.712976 94.506 -144.3286
9.783361 94.527 -144.6730
9.854255 94.545 -145.0200
9.925663 94.561 -145.3696
9.997588 94.574 -145.7214
10.070035 94.584 -146.0750
10.143007 94.591 -146.4294
10.216507 94.596 -146.7839
10.290540 94.598 -147.1377
10.365109 94.598 -147.4901
10.440219 94.596 -147.8402
10.515873 94.593 -148.1873
10.592076 94.588 -148.5304
10.668830 94.583 -148.8691
10.746141 94.576 -149.2029
10.824012 94.569 -149.5318
10.902447 94.561 -149.8556
10.981451 94.553 -150.1745
11.061027 94.544 -150.4887
11.141180 94.536 -150.7987
11.221913 94.527 -151.1051
11.303232 94.518 -151.4088
11.385140 94.509 -151.7103
11.467641 94.500 -152.0104
11.550741 94.492 -152.3099
11.634442 94.483 -152.6094
11.718750 94.474 -152.9095
11.803669 94.466 -153.2107
11.889203 94.457 -153.5132
11.975357 94.449 -153.8171
12.062136 94.440 -154.1223
12.149543 94.431 -154.4288
12.237583 94.421 -154.7363
12.326262 94.411 -155.0444
12.415583 94.401 -155.3528
12.505552 94.390 -155.6609
12.596172 94.378 -155.9685
12.687449 94.365 -156.2753
12.779387 94.352 -156.5812
12.871992 94.339 -156.8860
12.965268 94.325 -157.1900
13.059220 94.311 -157.4933
13.153852 94.298 -157.7963
13.249170 94.284 -158.0995
13.345179 94.271 -158.4034
13.441884 94.257 -158.7085
13.539289 94.245 -159.0153
13.637401 94.232 -159.3242
13.736223 94.220 -159.6357
13.835761 94.207 -159.9497
13.936021 94.194 -160.2665
14.037007 94.181 -160.5858
14.138725 94.168 -160.9075
14.241180 94.154 -161.2310
14.344377 94.140 -161.5561
14.448323 94.126 -161.8821
14.553021 94.111 -162.2087
14.658478 94.096 -162.5355
14.764700 94.081 -162.8622
14.871691 94.067 -163.1886
14.979457 94.052 -163.5147
15.088005 94.038 -163.8408
15.197339 94.024 -164.1671
15.307465 94.011 -164.4939
15.418389 93.998 -164.8217
15.530117 93.986 -165.1507
15.642655 93.973 -165.4813
15.756008 93.961 -165.8134
15.870182 93.949 -166.1472
15.985184 93.937 -166.4821
16.101019 93.925 -166.8176
16.217694 93.912 -167.1532
16.335214 93.900 -167.4879
16.453586 93.887 -167.8209
16.572815 93.875 -168.1512
16.692909 93.862 -168.4781
16.813872 93.850 -168.8011
16.935713 93.838 -169.1197
17.058436 93.827 -169.4340
17.182048 93.817 -169.7442
17.306556 93.808 -170.0509
17.431967 93.799 -170.3547
17.558286 93.790 -170.6565
17.685521 93.782 -170.9572
17.813677 93.775 -171.2574
17.942762 93.767 -171.5578
18.072783 93.760 -171.8588
18.203746 93.753 -172.1602
18.335658 93.745 -172.4618
18.468526 93.736 -172.7630
18.602356 93.728 -173.0629
18.737156 93.718 -173.3607
18.872934 93.708 -173.6553
19.009695 93.698 -173.9459
19.147447 93.687 -174.2319
19.286197 93.676 -174.5128
19.425953 93.665 -174.7886
19.566721 93.653 -175.0596
19.708510 93.641 -175.3264
19.851326 93.630 -175.5898
19.995177 93.618 -175.8511
20.140070 93.606 -176.1112
20.286013 93.594 -176.3714
20.433014 93.581 -176.6326
20.581080 93.569 -176.8955
20.730219 93.555 -177.1607
20.880439 93.542 -177.4282
21.031747 93.527 -177.6979
21.184152 93.512 -177.9691
21.337661 93.496 -178.2410
21.492282 93.479 -178.5123
21.648024 93.461 -178.7818
21.804895 93.442 -179.0482
21.962902 93.422 -179.3102
22.122054 93.402 -179.5670
22.282360 93.382 -179.8180
22.443827 93.361 179.9366
22.606464 93.342 179.6964
22.770280 93.322 179.4601
22.935283 93.304 179.2259
23.101481 93.287 178.9918
23.268884 93.271 178.7557
23.437500 93.256 178.5155
23.607338 93.241 178.2696
23.778406 93.228 178.0168
23.950714 93.214 177.7570
24.124271 93.200 177.4905
24.299086 93.186 177.2183
24.475167 93.172 176.9419
24.652524 93.157 176.6629
24.831166 93.141 176.3829
25.011103 93.126 176.1032
25.192344 93.110 175.8248
25.374898 93.094 175.5480
25.558775 93.078 175.2729
25.743984 93.062 174.9995
25.930536 93.046 174.7274
26.118439 93.030 174.4567
26.307704 93.014 174.1876
26.498341 92.998 173.9204
26.690359 92.981 173.6559
26.883768 92.964 173.3946
27.078579 92.946 173.1373
27.274801 92.929 172.8841
27.472446 92.911 172.6351
27.671522 92.892 172.3899
27.872042 92.874 172.1480
28.074014 92.855 171.9086
28.277450 92.837 171.6711
28.482360 92.817 171.4351
28.688755 92.797 171.2001
28.896645 92.777 170.9662
29.106042 92.756 170.7334
29.316957 92.735 170.5018
29.529400 92.713 170.2717
29.743382 92.690 170.0430
29.958915 92.668 169.8157
30.176009 92.645 169.5898
30.394677 92.621 169.3649
30.614929 92.598 169.1407
30.836778 92.575 168.9169
31.060234 92.552 168.6930
31.285309 92.529 168.4682
31.512015 92.505 168.2422
31.740364 92.482 168.0142
31.970368 92.459 167.7841
32.202039 92.436 167.5518
32.435388 92.413 167.3173
32.670428 92.390 167.0812
32.907171 92.367 166.8439
33.145630 92.343 166.6060
33.385817 92.320 166.3680
33.627745 92.296 166.1302
33.871425 92.273 165.8930
34.116871 92.249 165.6567
34.364096 92.225 165.4218
34.613113 92.201 165.1886
34.863934 92.177 164.9580
35.116572 92.153 164.7306
35.371041 92.128 164.5068
35.627354 92.104 164.2870
35.885525 92.079 164.0710
36.145566 92.054 163.8584
36.407492 92.029 163.6487
36.671316 92.004 163.4411
36.937051 91.979 163.2352
37.204712 91.954 163.0304
37.474313 91.928 162.8267
37.745867 91.902 162.6241
38.019389 91.875 162.4230
38.294893 91.848 162.2234
38.572394 91.821 162.0257
38.851905 91.793 161.8297
39.133442 91.766 161.6351
39.417019 91.738 161.4415
39.702651 91.709 161.2484
39.990353 91.681 161.0557
40.280140 91.652 160.8633
40.572026 91.624 160.6713
40.866028 91.595 160.4797
41.162160 91.566 160.2885
41.460438 91.537 160.0972
41.760877 91.509 159.9055
42.063494 91.480 159.7133
42.368303 91.450 159.5209
42.675322 91.420 159.3292
42.984565 91.390 159.1395
43.296048 91.359 158.9529
43.609789 91.328 158.7703
43.925804 91.297 158.5915
44.244108 91.266 158.4160
44.564719 91.235 158.2428
44.887654 91.205 158.0710
45.212928 91.174 157.8999
45.540560 91.144 157.7292
45.870565 91.113 157.5588
46.202962 91.082 157.3886
46.537768 91.051 157.2189
46.875000 91.019 157.0497
47.214676 90.988 156.8814
47.556813 90.956 156.7144
47.901429 90.924 156.5493
48.248542 90.892 156.3867
48.598171 90.860 156.2267
48.950334 90.828 156.0697
49.305048 90.795 155.9157
49.662333 90.763 155.7649
50.022206 90.730 155.6171
50.384688 90.698 155.4724
50.749796 90.665 155.3305
51.117550 90.633 155.1910
51.487969 90.600 155.0534
51.861072 90.568 154.9170
52.236879 90.535 154.7815
52.615409 90.503 154.6469
52.996681 90.470 154.5137
53.380717 90.437 154.3824
53.767536 90.404 154.2532
54.157158 90.372 154.1257
54.549603 90.340 153.9992
54.944892 90.308 153.8724
55.343045 90.276 153.7445
55.744084 90.245 153.6149
56.148028 90.214 153.4836
56.554900 90.183 153.3506
56.964720 90.153 153.2158
57.377510 90.122 153.0789
57.793291 90.091 152.9402
58.212085 90.060 152.8001
58.633914 90.028 152.6603
59.058799 89.995 152.5225
59.486764 89.962 152.3876
59.917829 89.929 152.2556
60.352019 89.895 152.1257
60.789354 89.860 151.9977
61.229859 89.825 151.8719
61.673556 89.789 151.7491
62.120468 89.753 151.6303
62.570618 89.716 151.5151
63.024031 89.679 151.4030
63.480729 89.641 151.2933
63.940736 89.604 151.1857
64.404077 89.567 151.0802
64.870776 89.530 150.9766
65.340856 89.493 150.8741
65.814343 89.456 150.7719
66.291261 89.419 150.6697
66.771635 89.381 150.5681
67.255489 89.344 150.4683
67.742850 89.306 150.3711
68.233743 89.269 150.2769
68.728193 89.231 150.1854
69.226226 89.193 150.0965
69.727867 89.155 150.0098
70.233144 89.117 149.9254
70.742083 89.079 149.8434
71.254709 89.041 149.7637
71.771050 89.004 149.6866
72.291132 88.966 149.6115
72.814984 88.928 149.5380
73.342631 88.891 149.4659
73.874102 88.854 149.3950
74.409424 88.817 149.3251
74.948626 88.780 149.2556
75.491734 88.744 149.1856
76.038779 88.708 149.1147
76.589787 88.671 149.0435
77.144788 88.635 148.9724
77.703811 88.599 148.9018
78.266885 88.563 148.8311
78.834039 88.528 148.7586
79.405303 88.493 148.6830
79.980706 88.457 148.6028
80.560280 88.422 148.5173
81.144053 88.386 148.4261
81.732056 88.349 148.3296
