* Measurement data measured by REW V5.31
* Source: EXCL: Microphone (USB Sound Device        ), MICROPHONE (Master Volume), R, volume: 0.390
* Format: 256k Log Swept Sine, 1 sweep at -15.0 dBFS with no timing reference
* Dated: Jan 2, 2025 6:32:23 PM
* REW Settings:
*  C-weighting compensation: Off
*  Target level: 75.0 dB
* Note: 7hz Timeless 2 Silver Bullet
* Measurement: L Timeless 2 Silver Bullet
* Smoothing: 1/12 octave
* Frequency Step: 96 ppo
* Start Frequency: 0.36621094 Hz
*
* Freq(Hz) SPL(dB) Phase(degrees)
0.366211 95.184 156.9185
0.368865 95.177 156.8946
0.371538 95.166 156.8587
0.374230 95.154 156.8136
0.376942 95.139 156.7615
0.379673 95.124 156.7042
0.382424 95.108 156.6428
0.385196 95.092 156.5780
0.387987 95.075 156.5101
0.390798 95.058 156.4395
0.393630 95.041 156.3660
0.396483 95.023 156.2899
0.399356 95.006 156.2111
0.402250 94.988 156.1296
0.405165 94.971 156.0454
0.408101 94.953 155.9585
0.411058 94.935 155.8687
0.414037 94.917 155.7762
0.417037 94.899 155.6808
0.420059 94.880 155.5826
0.423103 94.862 155.4815
0.426169 94.843 155.3775
0.429257 94.825 155.2706
0.432368 94.806 155.1606
0.435501 94.787 155.0477
0.438656 94.768 154.9318
0.441835 94.748 154.8129
0.445037 94.729 154.6908
0.448262 94.709 154.5657
0.451510 94.690 154.4374
0.454782 94.670 154.3060
0.458077 94.650 154.1715
0.461397 94.630 154.0337
0.464740 94.609 153.8928
0.468108 94.589 153.7486
0.471500 94.568 153.6011
0.474917 94.548 153.4504
0.478358 94.527 153.2964
0.481825 94.506 153.1391
0.485316 94.485 152.9784
0.488833 94.463 152.8144
0.492375 94.442 152.6471
0.495943 94.420 152.4763
0.499537 94.398 152.3022
0.503157 94.376 152.1248
0.506803 94.354 151.9439
0.510475 94.332 151.7596
0.514175 94.310 151.5719
0.517900 94.287 151.3808
0.521653 94.264 151.1863
0.525434 94.241 150.9884
0.529241 94.218 150.7871
0.533076 94.195 150.5824
0.536939 94.172 150.3743
0.540830 94.148 150.1628
0.544749 94.124 149.9480
0.548696 94.100 149.7298
0.552673 94.076 149.5083
0.556677 94.052 149.2835
0.560711 94.027 149.0554
0.564774 94.003 148.8241
0.568867 93.978 148.5895
0.572989 93.953 148.3519
0.577141 93.928 148.1110
0.581324 93.902 147.8671
0.585536 93.877 147.6202
0.589779 93.851 147.3703
0.594053 93.825 147.1175
0.598358 93.799 146.8619
0.602694 93.773 146.6035
0.607061 93.746 146.3424
0.611460 93.720 146.0787
0.615891 93.693 145.8125
0.620354 93.666 145.5438
0.624849 93.638 145.2729
0.629377 93.611 144.9998
0.633938 93.583 144.7245
0.638532 93.555 144.4473
0.643159 93.527 144.1683
0.647819 93.499 143.8876
0.652514 93.471 143.6054
0.657242 93.442 143.3219
0.662005 93.413 143.0371
0.666802 93.384 142.7513
0.671634 93.355 142.4647
0.676501 93.325 142.1774
0.681403 93.295 141.8897
0.686341 93.265 141.6019
0.691314 93.235 141.3140
0.696324 93.205 141.0264
0.701370 93.174 140.7393
0.706452 93.142 140.4527
0.711571 93.110 140.1668
0.716728 93.077 139.8815
0.721921 93.043 139.5965
0.727153 93.006 139.3114
0.732422 92.967 139.0251
0.737729 92.925 138.7366
0.743075 92.881 138.4446
0.748460 92.834 138.1480
0.753883 92.786 137.8459
0.759346 92.737 137.5379
0.764849 92.686 137.2233
0.770391 92.635 136.9019
0.775974 92.583 136.5736
0.781597 92.531 136.2380
0.787261 92.478 135.8951
0.792966 92.424 135.5448
0.798712 92.370 135.1868
0.804500 92.315 134.8212
0.810329 92.260 134.4477
0.816201 92.203 134.0663
0.822116 92.146 133.6769
0.828073 92.088 133.2794
0.834074 92.029 132.8737
0.840118 91.969 132.4596
0.846206 91.908 132.0371
0.852338 91.847 131.6062
0.858514 91.784 131.1667
0.864735 91.719 130.7186
0.871001 91.654 130.2618
0.877313 91.587 129.7963
0.883670 91.520 129.3220
0.890074 91.450 128.8389
0.896524 91.379 128.3470
0.903020 91.307 127.8464
0.909564 91.233 127.3369
0.916155 91.158 126.8187
0.922794 91.080 126.2918
0.929481 91.001 125.7563
0.936216 90.920 125.2123
0.943000 90.837 124.6598
0.949834 90.752 124.0992
0.956717 90.664 123.5304
0.963649 90.575 122.9538
0.970632 90.483 122.3697
0.977666 90.389 121.7781
0.984750 90.292 121.1796
0.991886 90.192 120.5744
0.999074 90.090 119.9630
1.006314 89.985 119.3458
1.013606 89.877 118.7233
1.020951 89.765 118.0961
1.028349 89.651 117.4648
1.035801 89.533 116.8301
1.043307 89.412 116.1926
1.050867 89.287 115.5532
1.058482 89.158 114.9127
1.066152 89.026 114.2716
1.073878 88.888 113.6306
1.081660 88.746 112.9901
1.089498 88.598 112.3501
1.097393 88.444 111.7099
1.105345 88.283 111.0684
1.113355 88.113 110.4240
1.121423 87.935 109.7751
1.129549 87.747 109.1200
1.137734 87.549 108.4572
1.145979 87.341 107.7851
1.154283 87.123 107.1025
1.162647 86.897 106.4078
1.171072 86.661 105.6996
1.179558 86.418 104.9764
1.188106 86.166 104.2365
1.196715 85.906 103.4782
1.205387 85.640 102.6994
1.214122 85.368 101.8982
1.222920 85.090 101.0722
1.231782 84.806 100.2189
1.240708 84.519 99.3355
1.249699 84.228 98.4192
1.258754 83.934 97.4664
1.267876 83.639 96.4737
1.277063 83.342 95.4369
1.286318 83.045 94.3518
1.295639 82.749 93.2133
1.305027 82.454 92.0161
1.314484 82.162 90.7544
1.324009 81.874 89.4215
1.333604 81.591 88.0104
1.343268 81.314 86.5131
1.353002 81.044 84.9212
1.362806 80.783 83.2254
1.372681 80.532 81.4156
1.382628 80.293 79.4812
1.392647 80.066 77.4109
1.402739 79.854 75.1932
1.412904 79.658 72.8159
1.423142 79.480 70.2671
1.433455 79.321 67.5346
1.443843 79.182 64.6060
1.454305 79.065 61.4683
1.464844 78.970 58.1071
1.475459 78.897 54.5062
1.486150 78.846 50.6491
1.496920 78.816 46.5216
1.507767 78.808 42.1148
1.518693 78.820 37.4295
1.529698 78.851 32.4790
1.540783 78.901 27.2920
1.551948 78.970 21.9138
1.563194 79.055 16.4054
1.574521 79.156 10.8397
1.585931 79.273 5.2959
1.597423 79.405 -0.1483
1.608999 79.550 -5.4233
1.620658 79.707 -10.4726
1.632402 79.876 -15.2560
1.644232 80.055 -19.7493
1.656146 80.242 -23.9425
1.668147 80.438 -27.8372
1.680235 80.640 -31.4433
1.692411 80.848 -34.7762
1.704675 81.059 -37.8544
1.717028 81.272 -40.6980
1.729470 81.487 -43.3272
1.742003 81.701 -45.7617
1.754626 81.914 -48.0204
1.767341 82.123 -50.1208
1.780147 82.329 -52.0800
1.793047 82.530 -53.9143
1.806040 82.727 -55.6399
1.819128 82.920 -57.2731
1.832310 83.110 -58.8301
1.845587 83.300 -60.3263
1.858961 83.492 -61.7749
1.872432 83.687 -63.1855
1.886001 83.886 -64.5645
1.899667 84.090 -65.9155
1.913433 84.298 -67.2406
1.927299 84.510 -68.5404
1.941265 84.727 -69.8149
1.955332 84.946 -71.0637
1.969501 85.168 -72.2862
1.983773 85.392 -73.4817
1.998148 85.617 -74.6492
2.012627 85.842 -75.7880
2.027212 86.066 -76.8972
2.041902 86.289 -77.9760
2.056698 86.510 -79.0235
2.071602 86.727 -80.0390
2.086614 86.940 -81.0217
2.101734 87.148 -81.9713
2.116964 87.350 -82.8875
2.132304 87.544 -83.7705
2.147756 87.731 -84.6212
2.163320 87.910 -85.4417
2.178996 88.080 -86.2354
2.194786 88.240 -87.0070
2.210690 88.392 -87.7626
2.226710 88.535 -88.5081
2.242845 88.670 -89.2484
2.259098 88.797 -89.9865
2.275468 88.916 -90.7240
2.291957 89.029 -91.4611
2.308566 89.134 -92.1974
2.325295 89.234 -92.9316
2.342145 89.328 -93.6622
2.359117 89.416 -94.3876
2.376212 89.499 -95.1057
2.393431 89.578 -95.8144
2.410775 89.653 -96.5117
2.428244 89.724 -97.1954
2.445840 89.792 -97.8630
2.463564 89.858 -98.5125
2.481416 89.921 -99.1419
2.499397 89.982 -99.7494
2.517509 90.042 -100.3340
2.535752 90.100 -100.8956
2.554127 90.157 -101.4352
2.572635 90.211 -101.9551
2.591277 90.262 -102.4585
2.610055 90.310 -102.9482
2.628968 90.354 -103.4267
2.648019 90.394 -103.8956
2.667208 90.430 -104.3556
2.686535 90.462 -104.8070
2.706003 90.491 -105.2494
2.725612 90.517 -105.6823
2.745363 90.540 -106.1047
2.765257 90.561 -106.5155
2.785295 90.579 -106.9136
2.805478 90.597 -107.2973
2.825808 90.612 -107.6653
2.846285 90.627 -108.0158
2.866910 90.642 -108.3472
2.887685 90.656 -108.6581
2.908611 90.670 -108.9472
2.929688 90.684 -109.2136
2.950917 90.696 -109.4570
2.972301 90.707 -109.6776
2.993839 90.717 -109.8760
3.015534 90.725 -110.0532
3.037386 90.732 -110.2103
3.059396 90.737 -110.3483
3.081565 90.741 -110.4685
3.103896 90.745 -110.5722
3.126388 90.749 -110.6606
3.149043 90.752 -110.7350
3.171862 90.757 -110.7964
3.194847 90.763 -110.8458
3.217998 90.771 -110.8840
3.241317 90.781 -110.9111
3.264805 90.793 -110.9266
3.288463 90.808 -110.9295
3.312293 90.825 -110.9181
3.336295 90.845 -110.8907
3.360471 90.867 -110.8467
3.384822 90.891 -110.7865
3.409350 90.917 -110.7118
3.434056 90.944 -110.6253
3.458940 90.974 -110.5301
3.484005 91.005 -110.4300
3.509252 91.039 -110.3290
3.534681 91.074 -110.2309
3.560295 91.111 -110.1397
3.586094 91.151 -110.0584
3.612081 91.192 -109.9897
3.638255 91.236 -109.9347
3.664620 91.283 -109.8936
3.691175 91.332 -109.8653
3.717923 91.385 -109.8485
3.744864 91.439 -109.8423
3.772001 91.497 -109.8467
3.799335 91.556 -109.8623
3.826866 91.618 -109.8904
3.854597 91.680 -109.9327
3.882529 91.743 -109.9910
3.910664 91.807 -110.0675
3.939002 91.871 -110.1639
3.967546 91.934 -110.2822
3.996296 91.996 -110.4237
4.025255 92.058 -110.5895
4.054423 92.119 -110.7798
4.083804 92.179 -110.9942
4.113396 92.239 -111.2318
4.143204 92.299 -111.4913
4.173227 92.357 -111.7711
4.203468 92.415 -112.0696
4.233928 92.471 -112.3852
4.264609 92.526 -112.7165
4.295512 92.578 -113.0627
4.326639 92.627 -113.4231
4.357992 92.674 -113.7981
4.389572 92.717 -114.1883
4.421380 92.758 -114.5950
4.453419 92.795 -115.0189
4.485691 92.829 -115.4598
4.518196 92.860 -115.9164
4.550936 92.888 -116.3863
4.583914 92.913 -116.8663
4.617131 92.935 -117.3531
4.650589 92.954 -117.8434
4.684289 92.969 -118.3345
4.718233 92.981 -118.8245
4.752424 92.990 -119.3128
4.786862 92.995 -119.7999
4.821549 92.996 -120.2868
4.856488 92.994 -120.7739
4.891680 92.988 -121.2608
4.927127 92.979 -121.7458
4.962831 92.967 -122.2264
4.998794 92.953 -122.6999
5.035017 92.936 -123.1630
5.071503 92.917 -123.6130
5.108253 92.896 -124.0478
5.145270 92.874 -124.4663
5.182555 92.849 -124.8684
5.220110 92.822 -125.2544
5.257937 92.794 -125.6249
5.296038 92.765 -125.9802
5.334415 92.735 -126.3205
5.373071 92.704 -126.6454
5.412006 92.675 -126.9545
5.451224 92.646 -127.2468
5.490725 92.618 -127.5212
5.530514 92.592 -127.7771
5.570590 92.568 -128.0143
5.610957 92.545 -128.2341
5.651616 92.524 -128.4387
5.692570 92.505 -128.6311
5.733821 92.489 -128.8146
5.775370 92.476 -128.9923
5.817221 92.466 -129.1665
5.859375 92.460 -129.3388
5.901834 92.458 -129.5096
5.944602 92.460 -129.6797
5.987679 92.466 -129.8507
6.031068 92.475 -130.0251
6.074771 92.488 -130.2066
6.118792 92.504 -130.3990
6.163131 92.523 -130.6060
6.207792 92.544 -130.8301
6.252776 92.569 -131.0730
6.298086 92.596 -131.3352
6.343725 92.625 -131.6166
6.389694 92.657 -131.9174
6.435996 92.690 -132.2378
6.482634 92.724 -132.5784
6.529610 92.759 -132.9399
6.576926 92.793 -133.3230
6.624585 92.828 -133.7279
6.672590 92.862 -134.1543
6.720942 92.895 -134.6007
6.769645 92.928 -135.0646
6.818700 92.959 -135.5435
6.868111 92.989 -136.0346
6.917881 93.017 -136.5358
6.968010 93.043 -137.0457
7.018504 93.067 -137.5632
7.069362 93.088 -138.0870
7.120590 93.108 -138.6145
7.172189 93.125 -139.1427
7.224161 93.140 -139.6680
7.276511 93.154 -140.1872
7.329239 93.166 -140.6979
7.382350 93.176 -141.1984
7.435845 93.184 -141.6879
7.489729 93.191 -142.1649
7.544002 93.198 -142.6281
7.598669 93.203 -143.0756
7.653732 93.209 -143.5057
7.709194 93.215 -143.9172
7.765058 93.221 -144.3095
7.821327 93.228 -144.6828
7.878004 93.237 -145.0381
7.935091 93.246 -145.3765
7.992592 93.258 -145.6990
8.050510 93.271 -146.0067
8.108847 93.287 -146.3002
8.167607 93.305 -146.5811
8.226793 93.326 -146.8510
8.286408 93.349 -147.1125
8.346454 93.375 -147.3683
8.406936 93.403 -147.6206
8.467856 93.433 -147.8712
8.529218 93.466 -148.1214
8.591024 93.501 -148.3725
8.653278 93.537 -148.6259
8.715983 93.574 -148.8829
8.779143 93.613 -149.1448
8.842760 93.651 -149.4122
8.906839 93.691 -149.6852
8.971381 93.730 -149.9632
9.036392 93.769 -150.2455
9.101873 93.807 -150.5315
9.167829 93.844 -150.8201
9.234263 93.879 -151.1106
9.301178 93.914 -151.4016
9.368578 93.946 -151.6916
9.436467 93.978 -151.9787
9.504847 94.007 -152.2612
9.573723 94.034 -152.5378
9.643099 94.059 -152.8074
9.712976 94.082 -153.0689
9.783361 94.102 -153.3213
9.854255 94.119 -153.5636
9.925663 94.132 -153.7952
9.997588 94.142 -154.0158
10.070035 94.150 -154.2258
10.143007 94.154 -154.4254
10.216507 94.157 -154.6152
10.290540 94.158 -154.7960
10.365109 94.157 -154.9685
10.440219 94.156 -155.1338
10.515873 94.153 -155.2932
10.592076 94.150 -155.4481
10.668830 94.146 -155.5996
10.746141 94.143 -155.7487
10.824012 94.138 -155.8964
10.902447 94.133 -156.0436
10.981451 94.128 -156.1912
11.061027 94.121 -156.3396
11.141180 94.114 -156.4893
11.221913 94.106 -156.6404
11.303232 94.096 -156.7930
11.385140 94.086 -156.9471
11.467641 94.074 -157.1027
11.550741 94.061 -157.2595
11.634442 94.047 -157.4176
11.718750 94.032 -157.5768
11.803669 94.016 -157.7370
11.889203 94.000 -157.8985
11.975357 93.982 -158.0616
12.062136 93.965 -158.2266
12.149543 93.946 -158.3939
12.237583 93.928 -158.5641
12.326262 93.908 -158.7380
12.415583 93.888 -158.9161
12.505552 93.867 -159.0991
12.596172 93.846 -159.2877
12.687449 93.824 -159.4823
12.779387 93.801 -159.6833
12.871992 93.777 -159.8909
12.965268 93.752 -160.1054
13.059220 93.727 -160.3265
13.153852 93.701 -160.5541
13.249170 93.675 -160.7879
13.345179 93.648 -161.0275
13.441884 93.621 -161.2725
13.539289 93.594 -161.5226
13.637401 93.567 -161.7775
13.736223 93.540 -162.0372
13.835761 93.513 -162.3017
13.936021 93.487 -162.5711
14.037007 93.461 -162.8459
14.138725 93.436 -163.1266
14.241180 93.411 -163.4139
14.344377 93.388 -163.7082
14.448323 93.365 -164.0103
14.553021 93.343 -164.3205
14.658478 93.322 -164.6392
14.764700 93.303 -164.9663
14.871691 93.284 -165.3015
14.979457 93.265 -165.6441
15.088005 93.248 -165.9932
15.197339 93.231 -166.3476
15.307465 93.216 -166.7057
15.418389 93.200 -167.0659
15.530117 93.186 -167.4267
15.642655 93.172 -167.7865
15.756008 93.159 -168.1439
15.870182 93.147 -168.4978
15.985184 93.136 -168.8474
16.101019 93.127 -169.1923
16.217694 93.119 -169.5323
16.335214 93.113 -169.8677
16.453586 93.109 -170.1988
16.572815 93.107 -170.5261
16.692909 93.106 -170.8500
16.813872 93.107 -171.1709
16.935713 93.109 -171.4887
17.058436 93.112 -171.8032
17.182048 93.116 -172.1138
17.306556 93.121 -172.4196
17.431967 93.125 -172.7194
17.558286 93.129 -173.0118
17.685521 93.133 -173.2954
17.813677 93.136 -173.5688
17.942762 93.139 -173.8310
18.072783 93.141 -174.0810
18.203746 93.143 -174.3185
18.335658 93.144 -174.5435
18.468526 93.146 -174.7565
18.602356 93.147 -174.9583
18.737156 93.148 -175.1501
18.872934 93.148 -175.3331
19.009695 93.149 -175.5087
19.147447 93.149 -175.6785
19.286197 93.149 -175.8435
19.425953 93.148 -176.0049
19.566721 93.146 -176.1637
19.708510 93.143 -176.3204
19.851326 93.138 -176.4758
19.995177 93.132 -176.6304
20.140070 93.124 -176.7847
20.286013 93.115 -176.9390
20.433014 93.104 -177.0941
20.581080 93.091 -177.2504
20.730219 93.077 -177.4086
20.880439 93.062 -177.5694
21.031747 93.045 -177.7332
21.184152 93.028 -177.9008
21.337661 93.009 -178.0727
21.492282 92.990 -178.2495
21.648024 92.969 -178.4316
21.804895 92.948 -178.6195
21.962902 92.927 -178.8139
22.122054 92.905 -179.0150
22.282360 92.882 -179.2233
22.443827 92.859 -179.4391
22.606464 92.837 -179.6624
22.770280 92.814 -179.8933
22.935283 92.791 179.8686
23.101481 92.769 179.6239
23.268884 92.746 179.3734
23.437500 92.725 179.1180
23.607338 92.704 178.8586
23.778406 92.684 178.5962
23.950714 92.665 178.3314
24.124271 92.647 178.0647
24.299086 92.631 177.7965
24.475167 92.616 177.5268
24.652524 92.603 177.2557
24.831166 92.591 176.9833
25.011103 92.581 176.7098
25.192344 92.572 176.4356
25.374898 92.565 176.1616
25.558775 92.558 175.8887
25.743984 92.552 175.6180
25.930536 92.546 175.3511
26.118439 92.540 175.0893
26.307704 92.534 174.8339
26.498341 92.528 174.5861
26.690359 92.522 174.3471
26.883768 92.515 174.1178
27.078579 92.508 173.8987
27.274801 92.499 173.6903
27.472446 92.491 173.4922
27.671522 92.481 173.3040
27.872042 92.471 173.1245
28.074014 92.460 172.9521
28.277450 92.449 172.7849
28.482360 92.437 172.6208
28.688755 92.423 172.4582
28.896645 92.409 172.2952
29.106042 92.393 172.1309
29.316957 92.376 171.9648
29.529400 92.357 171.7966
29.743382 92.337 171.6266
29.958915 92.315 171.4548
30.176009 92.293 171.2811
30.394677 92.269 171.1047
30.614929 92.246 170.9247
30.836778 92.222 170.7399
31.060234 92.198 170.5489
31.285309 92.175 170.3507
31.512015 92.151 170.1449
31.740364 92.127 169.9315
31.970368 92.104 169.7113
32.202039 92.080 169.4854
32.435388 92.057 169.2554
32.670428 92.034 169.0226
32.907171 92.012 168.7885
33.145630 91.990 168.5538
33.385817 91.969 168.3191
33.627745 91.949 168.0847
33.871425 91.930 167.8508
34.116871 91.911 167.6182
34.364096 91.893 167.3878
34.613113 91.874 167.1614
34.863934 91.856 166.9408
35.116572 91.837 166.7280
35.371041 91.818 166.5244
35.627354 91.799 166.3301
35.885525 91.780 166.1439
36.145566 91.761 165.9632
36.407492 91.743 165.7849
36.671316 91.724 165.6063
36.937051 91.705 165.4255
37.204712 91.684 165.2426
37.474313 91.662 165.0588
37.745867 91.638 164.8763
38.019389 91.613 164.6968
38.294893 91.586 164.5209
38.572394 91.560 164.3475
38.851905 91.533 164.1746
39.133442 91.505 164.0000
39.417019 91.478 163.8223
39.702651 91.451 163.6419
39.990353 91.423 163.4601
40.280140 91.394 163.2789
40.572026 91.366 163.0996
40.866028 91.338 162.9226
41.162160 91.312 162.7473
41.460438 91.285 162.5733
41.760877 91.259 162.4008
42.063494 91.233 162.2316
42.368303 91.208 162.0680
42.675322 91.182 161.9114
42.984565 91.158 161.7613
43.296048 91.134 161.6145
43.609789 91.112 161.4664
43.925804 91.089 161.3128
44.244108 91.066 161.1525
44.564719 91.040 160.9876
44.887654 91.013 160.8235
45.212928 90.983 160.6657
45.540560 90.951 160.5178
45.870565 90.919 160.3796
46.202962 90.887 160.2473
46.537768 90.856 160.1156
46.875000 90.825 159.9799
47.214676 90.795 159.8376
47.556813 90.764 159.6885
47.901429 90.734 159.5336
48.248542 90.703 159.3736
48.598171 90.673 159.2087
48.950334 90.642 159.0391
49.305048 90.612 158.8658
49.662333 90.580 158.6915
50.022206 90.547 158.5201
50.384688 90.513 158.3569
50.749796 90.478 158.2075
51.117550 90.442 158.0773
51.487969 90.406 157.9699
51.861072 90.371 157.8858
52.236879 90.338 157.8211
52.615409 90.307 157.7679
52.996681 90.280 157.7166
53.380717 90.254 157.6590
53.767536 90.229 157.5912
54.157158 90.203 157.5138
54.549603 90.176 157.4306
54.944892 90.147 157.3456
55.343045 90.118 157.2613
55.744084 90.088 157.1780
56.148028 90.058 157.0950
56.554900 90.028 157.0117
56.964720 89.997 156.9286
57.377510 89.965 156.8488
57.793291 89.933 156.7765
58.212085 89.901 156.7166
58.633914 89.870 156.6717
59.058799 89.840 156.6397
59.486764 89.814 156.6142
59.917829 89.790 156.5863
60.352019 89.769 156.5480
60.789354 89.749 156.4943
61.229859 89.729 156.4235
61.673556 89.709 156.3362
62.120468 89.688 156.2335
62.570618 89.665 156.1177
63.024031 89.640 155.9918
63.480729 89.614 155.8596
63.940736 89.585 155.7245
64.404077 89.556 155.5887
64.870776 89.525 155.4526
65.340856 89.495 155.3157
65.814343 89.464 155.1768
66.291261 89.433 155.0352
66.771635 89.401 154.8910
67.255489 89.368 154.7461
67.742850 89.334 154.6047
68.233743 89.298 154.4716
68.728193 89.262 154.3514
69.226226 89.225 154.2464
69.727867 89.188 154.1558
70.233144 89.152 154.0771
70.742083 89.116 154.0073
71.254709 89.082 153.9442
71.771050 89.049 153.8861
72.291132 89.018 153.8292
72.814984 88.989 153.7666
73.342631 88.960 153.6909
73.874102 88.932 153.5989
74.409424 88.902 153.4949
74.948626 88.870 153.3877
75.491734 88.837 153.2850
76.038779 88.803 153.1886
76.589787 88.771 153.0959
77.144788 88.739 153.0042
77.703811 88.708 152.9125
78.266885 88.677 152.8211
78.834039 88.647 152.7302
79.405303 88.618 152.6404
79.980706 88.587 152.5538
80.560280 88.557 152.4739
81.144053 88.525 152.4034
81.732056 88.492 152.3440
82.324320 88.459 152.2946
82.920876 88.426 152.2503
83.521755 88.393 152.2022
84.126988 88.359 152.1401
84.736607 88.324 152.0561
85.350643 88.286 151.9459
