* Measurement data measured by REW V5.31
* Source: EXCL: Microphone (USB Sound Device        ), MICROPHONE (Master Volume), R, volume: 0.390
* Format: 256k Log Swept Sine, 1 sweep at -15.0 dBFS with no timing reference
* Dated: Jan 2, 2025 6:27:31 PM
* REW Settings:
*  C-weighting compensation: Off
*  Target level: 75.0 dB
* Note: Timeless 2 Gold Bullet L
* Measurement: L Timeless 2 Gold Bullet
* Smoothing: 1/12 octave
* Frequency Step: 96 ppo
* Start Frequency: 0.36621094 Hz
*
* Freq(Hz) SPL(dB) Phase(degrees)
0.366211 95.287 156.7093
0.368865 95.280 156.6853
0.371538 95.269 156.6492
0.374230 95.256 156.6039
0.376942 95.241 156.5516
0.379673 95.225 156.4941
0.382424 95.209 156.4324
0.385196 95.192 156.3672
0.387987 95.174 156.2990
0.390798 95.157 156.2280
0.393630 95.139 156.1541
0.396483 95.121 156.0776
0.399356 95.103 155.9983
0.402250 95.085 155.9162
0.405165 95.067 155.8315
0.408101 95.048 155.7439
0.411058 95.030 155.6535
0.414037 95.011 155.5603
0.417037 94.992 155.4642
0.420059 94.973 155.3653
0.423103 94.954 155.2634
0.426169 94.935 155.1586
0.429257 94.915 155.0507
0.432368 94.896 154.9399
0.435501 94.876 154.8261
0.438656 94.856 154.7092
0.441835 94.836 154.5891
0.445037 94.816 154.4660
0.448262 94.796 154.3398
0.451510 94.776 154.2104
0.454782 94.755 154.0777
0.458077 94.734 153.9419
0.461397 94.713 153.8029
0.464740 94.692 153.6605
0.468108 94.671 153.5149
0.471500 94.650 153.3660
0.474917 94.629 153.2138
0.478358 94.607 153.0582
0.481825 94.585 152.8993
0.485316 94.563 152.7370
0.488833 94.541 152.5713
0.492375 94.519 152.4021
0.495943 94.496 152.2296
0.499537 94.474 152.0536
0.503157 94.451 151.8742
0.506803 94.428 151.6913
0.510475 94.405 151.5050
0.514175 94.382 151.3152
0.517900 94.359 151.1220
0.521653 94.335 150.9252
0.525434 94.311 150.7250
0.529241 94.287 150.5214
0.533076 94.263 150.3142
0.536939 94.239 150.1037
0.540830 94.215 149.8897
0.544749 94.190 149.6722
0.548696 94.165 149.4514
0.552673 94.140 149.2272
0.556677 94.115 148.9996
0.560711 94.090 148.7686
0.564774 94.064 148.5344
0.568867 94.038 148.2969
0.572989 94.013 148.0562
0.577141 93.987 147.8123
0.581324 93.960 147.5652
0.585536 93.934 147.3151
0.589779 93.907 147.0619
0.594053 93.880 146.8058
0.598358 93.853 146.5468
0.602694 93.826 146.2849
0.607061 93.799 146.0203
0.611460 93.771 145.7531
0.615891 93.743 145.4833
0.620354 93.715 145.2110
0.624849 93.687 144.9363
0.629377 93.658 144.6594
0.633938 93.630 144.3804
0.638532 93.601 144.0994
0.643159 93.572 143.8165
0.647819 93.543 143.5319
0.652514 93.513 143.2458
0.657242 93.484 142.9582
0.662005 93.454 142.6694
0.666802 93.423 142.3797
0.671634 93.393 142.0890
0.676501 93.363 141.7978
0.681403 93.332 141.5061
0.686341 93.301 141.2142
0.691314 93.269 140.9223
0.696324 93.238 140.6308
0.701370 93.206 140.3396
0.706452 93.173 140.0491
0.711571 93.140 139.7593
0.716728 93.106 139.4702
0.721921 93.070 139.1814
0.727153 93.032 138.8924
0.732422 92.991 138.6023
0.737729 92.948 138.3099
0.743075 92.901 138.0139
0.748460 92.852 137.7132
0.753883 92.802 137.4069
0.759346 92.750 137.0944
0.764849 92.697 136.7752
0.770391 92.644 136.4489
0.775974 92.589 136.1154
0.781597 92.534 135.7745
0.787261 92.479 135.4260
0.792966 92.422 135.0697
0.798712 92.365 134.7056
0.804500 92.308 134.3335
0.810329 92.249 133.9533
0.816201 92.190 133.5648
0.822116 92.130 133.1679
0.828073 92.068 132.7626
0.834074 92.006 132.3486
0.840118 91.943 131.9260
0.846206 91.879 131.4945
0.852338 91.814 131.0542
0.858514 91.748 130.6048
0.864735 91.680 130.1464
0.871001 91.611 129.6788
0.877313 91.541 129.2020
0.883670 91.469 128.7159
0.890074 91.396 128.2205
0.896524 91.322 127.7157
0.903020 91.245 127.2016
0.909564 91.168 126.6780
0.916155 91.088 126.1452
0.922794 91.006 125.6030
0.929481 90.923 125.0515
0.936216 90.838 124.4908
0.943000 90.750 123.9211
0.949834 90.660 123.3424
0.956717 90.568 122.7549
0.963649 90.474 122.1588
0.970632 90.377 121.5543
0.977666 90.278 120.9418
0.984750 90.176 120.3214
0.991886 90.072 119.6937
0.999074 89.964 119.0588
1.006314 89.854 118.4174
1.013606 89.740 117.7700
1.020951 89.623 117.1169
1.028349 89.503 116.4590
1.035801 89.379 115.7969
1.043307 89.252 115.1312
1.050867 89.121 114.4628
1.058482 88.986 113.7925
1.066152 88.847 113.1209
1.073878 88.703 112.4486
1.081660 88.554 111.7761
1.089498 88.399 111.1030
1.097393 88.237 110.4289
1.105345 88.067 109.7523
1.113355 87.889 109.0715
1.121423 87.700 108.3845
1.129549 87.501 107.6895
1.137734 87.292 106.9846
1.145979 87.071 106.2681
1.154283 86.840 105.5384
1.162647 86.599 104.7936
1.171072 86.349 104.0320
1.179558 86.089 103.2516
1.188106 85.820 102.4505
1.196715 85.543 101.6263
1.205387 85.259 100.7766
1.214122 84.968 99.8987
1.222920 84.672 98.9896
1.231782 84.369 98.0461
1.240708 84.063 97.0645
1.249699 83.752 96.0409
1.258754 83.439 94.9708
1.267876 83.125 93.8493
1.277063 82.809 92.6708
1.286318 82.493 91.4296
1.295639 82.179 90.1186
1.305027 81.867 88.7304
1.314484 81.558 87.2568
1.324009 81.255 85.6885
1.333604 80.957 84.0152
1.343268 80.667 82.2259
1.353002 80.385 80.3083
1.362806 80.114 78.2491
1.372681 79.855 76.0343
1.382628 79.610 73.6490
1.392647 79.380 71.0780
1.402739 79.167 68.3062
1.412904 78.973 65.3191
1.423142 78.800 62.1038
1.433455 78.650 58.6492
1.443843 78.524 54.9468
1.454305 78.423 50.9907
1.464844 78.350 46.7775
1.475459 78.303 42.3066
1.486150 78.283 37.5832
1.496920 78.291 32.6215
1.507767 78.324 27.4492
1.518693 78.383 22.1087
1.529698 78.466 16.6565
1.540783 78.572 11.1599
1.551948 78.701 5.6916
1.563194 78.851 0.3233
1.574521 79.020 -4.8811
1.585931 79.208 -9.8694
1.597423 79.413 -14.6041
1.608999 79.633 -19.0622
1.620658 79.868 -23.2337
1.632402 80.115 -27.1192
1.644232 80.373 -30.7273
1.656146 80.641 -34.0718
1.668147 80.916 -37.1696
1.680235 81.196 -40.0392
1.692411 81.481 -42.6993
1.704675 81.767 -45.1682
1.717028 82.054 -47.4633
1.729470 82.338 -49.6007
1.742003 82.619 -51.5956
1.754626 82.893 -53.4617
1.767341 83.160 -55.2120
1.780147 83.419 -56.8587
1.793047 83.667 -58.4137
1.806040 83.905 -59.8892
1.819128 84.133 -61.2974
1.832310 84.352 -62.6513
1.845587 84.565 -63.9629
1.858961 84.775 -65.2427
1.872432 84.982 -66.4982
1.886001 85.188 -67.7341
1.899667 85.393 -68.9528
1.913433 85.599 -70.1554
1.927299 85.805 -71.3417
1.941265 86.011 -72.5111
1.955332 86.216 -73.6627
1.969501 86.420 -74.7952
1.983773 86.624 -75.9075
1.998148 86.826 -76.9984
2.012627 87.027 -78.0667
2.027212 87.225 -79.1111
2.041902 87.421 -80.1306
2.056698 87.614 -81.1241
2.071602 87.803 -82.0904
2.086614 87.989 -83.0287
2.101734 88.170 -83.9383
2.116964 88.346 -84.8187
2.132304 88.517 -85.6698
2.147756 88.683 -86.4924
2.163320 88.842 -87.2882
2.178996 88.995 -88.0602
2.194786 89.141 -88.8129
2.210690 89.279 -89.5519
2.226710 89.411 -90.2828
2.242845 89.536 -91.0101
2.259098 89.654 -91.7366
2.275468 89.766 -92.4639
2.291957 89.871 -93.1920
2.308566 89.970 -93.9204
2.325295 90.063 -94.6479
2.342145 90.150 -95.3729
2.359117 90.233 -96.0937
2.376212 90.311 -96.8084
2.393431 90.385 -97.5149
2.410775 90.455 -98.2111
2.428244 90.521 -98.8949
2.445840 90.585 -99.5641
2.463564 90.646 -100.2168
2.481416 90.705 -100.8513
2.499397 90.762 -101.4666
2.517509 90.817 -102.0626
2.535752 90.871 -102.6403
2.554127 90.923 -103.2018
2.572635 90.972 -103.7499
2.591277 91.019 -104.2865
2.610055 91.062 -104.8124
2.628968 91.102 -105.3270
2.648019 91.137 -105.8295
2.667208 91.169 -106.3189
2.686535 91.198 -106.7944
2.706003 91.223 -107.2553
2.725612 91.245 -107.7011
2.745363 91.264 -108.1314
2.765257 91.281 -108.5458
2.785295 91.296 -108.9442
2.805478 91.309 -109.3262
2.825808 91.321 -109.6916
2.846285 91.332 -110.0402
2.866910 91.343 -110.3715
2.887685 91.353 -110.6851
2.908611 91.363 -110.9804
2.929688 91.372 -111.2567
2.950917 91.380 -111.5133
2.972301 91.386 -111.7496
2.993839 91.391 -111.9658
3.015534 91.395 -112.1620
3.037386 91.396 -112.3389
3.059396 91.397 -112.4974
3.081565 91.396 -112.6383
3.103896 91.395 -112.7627
3.126388 91.394 -112.8717
3.149043 91.392 -112.9663
3.171862 91.392 -113.0476
3.194847 91.393 -113.1163
3.217998 91.395 -113.1730
3.241317 91.400 -113.2178
3.264805 91.407 -113.2500
3.288463 91.416 -113.2686
3.312293 91.427 -113.2718
3.336295 91.441 -113.2580
3.360471 91.457 -113.2266
3.384822 91.475 -113.1778
3.409350 91.495 -113.1134
3.434056 91.517 -113.0360
3.458940 91.540 -112.9487
3.484005 91.565 -112.8554
3.509252 91.593 -112.7598
3.534681 91.622 -112.6659
3.560295 91.653 -112.5775
3.586094 91.687 -112.4979
3.612081 91.723 -112.4294
3.638255 91.762 -112.3735
3.664620 91.803 -112.3300
3.691175 91.848 -112.2979
3.717923 91.895 -112.2759
3.744864 91.945 -112.2631
3.772001 91.998 -112.2597
3.799335 92.054 -112.2665
3.826866 92.111 -112.2849
3.854597 92.170 -112.3169
3.882529 92.229 -112.3645
3.910664 92.290 -112.4300
3.939002 92.350 -112.5155
3.967546 92.410 -112.6230
3.996296 92.470 -112.7539
4.025255 92.529 -112.9094
4.054423 92.588 -113.0895
4.083804 92.646 -113.2940
4.113396 92.704 -113.5218
4.143204 92.762 -113.7716
4.173227 92.820 -114.0419
4.203468 92.877 -114.3313
4.233928 92.932 -114.6383
4.264609 92.986 -114.9616
4.295512 93.037 -115.3006
4.326639 93.086 -115.6547
4.357992 93.133 -116.0243
4.389572 93.176 -116.4103
4.421380 93.216 -116.8136
4.453419 93.254 -117.2352
4.485691 93.288 -117.6747
4.518196 93.319 -118.1307
4.550936 93.348 -118.6008
4.583914 93.373 -119.0820
4.617131 93.396 -119.5707
4.650589 93.415 -120.0638
4.684289 93.431 -120.5585
4.718233 93.444 -121.0532
4.752424 93.453 -121.5472
4.786862 93.459 -122.0411
4.821549 93.461 -122.5359
4.856488 93.459 -123.0321
4.891680 93.454 -123.5290
4.927127 93.445 -124.0249
4.962831 93.434 -124.5173
4.998794 93.420 -125.0031
5.035017 93.403 -125.4791
5.071503 93.385 -125.9425
5.108253 93.364 -126.3912
5.145270 93.341 -126.8241
5.182555 93.316 -127.2410
5.220110 93.289 -127.6425
5.257937 93.260 -128.0288
5.296038 93.230 -128.4003
5.334415 93.199 -128.7567
5.373071 93.168 -129.0977
5.412006 93.137 -129.4222
5.451224 93.107 -129.7294
5.490725 93.078 -130.0179
5.530514 93.050 -130.2869
5.570590 93.023 -130.5364
5.610957 92.998 -130.7675
5.651616 92.975 -130.9822
5.692570 92.953 -131.1834
5.733821 92.934 -131.3743
5.775370 92.918 -131.5576
5.817221 92.906 -131.7356
5.859375 92.897 -131.9095
5.901834 92.892 -132.0799
5.944602 92.891 -132.2474
5.987679 92.894 -132.4136
6.031068 92.901 -132.5812
6.074771 92.910 -132.7539
6.118792 92.924 -132.9356
6.163131 92.940 -133.1299
6.207792 92.959 -133.3397
6.252776 92.981 -133.5663
6.298086 93.007 -133.8105
6.343725 93.034 -134.0724
6.389694 93.065 -134.3522
6.435996 93.097 -134.6503
6.482634 93.130 -134.9678
6.529610 93.164 -135.3054
6.576926 93.198 -135.6640
6.624585 93.232 -136.0441
6.672590 93.266 -136.4452
6.720942 93.300 -136.8658
6.769645 93.333 -137.3039
6.818700 93.365 -137.7569
6.868111 93.396 -138.2223
6.917881 93.426 -138.6981
6.968010 93.453 -139.1830
7.018504 93.478 -139.6761
7.069362 93.502 -140.1758
7.120590 93.523 -140.6799
7.172189 93.543 -141.1852
7.224161 93.560 -141.6883
7.276511 93.576 -142.1861
7.329239 93.590 -142.6762
7.382350 93.603 -143.1571
7.435845 93.614 -143.6278
7.489729 93.623 -144.0870
7.544002 93.632 -144.5333
7.598669 93.640 -144.9648
7.653732 93.648 -145.3799
7.709194 93.657 -145.7773
7.765058 93.666 -146.1565
7.821327 93.675 -146.5178
7.878004 93.686 -146.8620
7.935091 93.697 -147.1901
7.992592 93.711 -147.5033
8.050510 93.726 -147.8023
8.108847 93.744 -148.0881
8.167607 93.764 -148.3619
8.226793 93.786 -148.6255
8.286408 93.811 -148.8813
8.346454 93.838 -149.1319
8.406936 93.867 -149.3795
8.467856 93.898 -149.6257
8.529218 93.931 -149.8719
8.591024 93.967 -150.1193
8.653278 94.003 -150.3691
8.715983 94.041 -150.6228
8.779143 94.079 -150.8815
8.842760 94.118 -151.1458
8.906839 94.157 -151.4157
8.971381 94.196 -151.6907
9.036392 94.234 -151.9700
9.101873 94.272 -152.2529
9.167829 94.308 -152.5385
9.234263 94.343 -152.8258
9.301178 94.376 -153.1138
9.368578 94.408 -153.4006
9.436467 94.438 -153.6846
9.504847 94.466 -153.9641
9.573723 94.493 -154.2376
9.643099 94.516 -154.5040
9.712976 94.538 -154.7624
9.783361 94.556 -155.0117
9.854255 94.571 -155.2509
9.925663 94.583 -155.4794
9.997588 94.591 -155.6970
10.070035 94.597 -155.9038
10.143007 94.600 -156.1002
10.216507 94.600 -156.2868
10.290540 94.599 -156.4642
10.365109 94.596 -156.6331
10.440219 94.592 -156.7948
10.515873 94.587 -156.9503
10.592076 94.582 -157.1010
10.668830 94.576 -157.2481
10.746141 94.570 -157.3925
10.824012 94.563 -157.5351
10.902447 94.556 -157.6769
10.981451 94.547 -157.8186
11.061027 94.539 -157.9608
11.141180 94.529 -158.1039
11.221913 94.518 -158.2481
11.303232 94.506 -158.3934
11.385140 94.493 -158.5399
11.467641 94.479 -158.6877
11.550741 94.464 -158.8365
11.634442 94.448 -158.9866
11.718750 94.431 -159.1377
11.803669 94.413 -159.2902
11.889203 94.395 -159.4441
11.975357 94.376 -159.6001
12.062136 94.356 -159.7584
12.149543 94.336 -159.9197
12.237583 94.316 -160.0847
12.326262 94.295 -160.2540
12.415583 94.274 -160.4284
12.505552 94.252 -160.6086
12.596172 94.229 -160.7952
12.687449 94.205 -160.9885
12.779387 94.181 -161.1889
12.871992 94.156 -161.3964
12.965268 94.129 -161.6111
13.059220 94.102 -161.8325
13.153852 94.074 -162.0603
13.249170 94.046 -162.2940
13.345179 94.017 -162.5330
13.441884 93.988 -162.7767
13.539289 93.959 -163.0246
13.637401 93.930 -163.2763
13.736223 93.901 -163.5316
13.835761 93.872 -163.7908
13.936021 93.844 -164.0539
14.037007 93.816 -164.3216
14.138725 93.790 -164.5946
14.241180 93.764 -164.8738
14.344377 93.740 -165.1602
14.448323 93.717 -165.4548
14.553021 93.695 -165.7584
14.658478 93.674 -166.0715
14.764700 93.655 -166.3947
14.871691 93.636 -166.7277
14.979457 93.619 -167.0701
15.088005 93.602 -167.4209
15.197339 93.586 -167.7791
15.307465 93.570 -168.1428
15.418389 93.555 -168.5102
15.530117 93.540 -168.8794
15.642655 93.526 -169.2483
15.756008 93.512 -169.6149
15.870182 93.499 -169.9776
15.985184 93.487 -170.3351
16.101019 93.475 -170.6861
16.217694 93.466 -171.0302
16.335214 93.457 -171.3671
16.453586 93.450 -171.6968
16.572815 93.445 -172.0196
16.692909 93.442 -172.3360
16.813872 93.441 -172.6463
16.935713 93.441 -172.9510
17.058436 93.443 -173.2501
17.182048 93.446 -173.5438
17.306556 93.449 -173.8316
17.431967 93.454 -174.1133
17.558286 93.458 -174.3882
17.685521 93.463 -174.6555
17.813677 93.467 -174.9148
17.942762 93.472 -175.1655
18.072783 93.476 -175.4073
18.203746 93.480 -175.6403
18.335658 93.483 -175.8647
18.468526 93.486 -176.0809
18.602356 93.489 -176.2897
18.737156 93.491 -176.4917
18.872934 93.493 -176.6879
19.009695 93.494 -176.8787
19.147447 93.494 -177.0647
19.286197 93.492 -177.2462
19.425953 93.489 -177.4234
19.566721 93.485 -177.5961
19.708510 93.478 -177.7643
19.851326 93.470 -177.9278
19.995177 93.460 -178.0866
20.140070 93.449 -178.2411
20.286013 93.435 -178.3916
20.433014 93.421 -178.5390
20.581080 93.405 -178.6844
20.730219 93.388 -178.8292
20.880439 93.371 -178.9750
21.031747 93.353 -179.1234
21.184152 93.334 -179.2760
21.337661 93.315 -179.4344
21.492282 93.295 -179.5999
21.648024 93.275 -179.7736
21.804895 93.255 -179.9565
21.962902 93.234 179.8508
22.122054 93.213 179.6480
22.282360 93.191 179.4349
22.443827 93.168 179.2117
22.606464 93.146 178.9785
22.770280 93.123 178.7361
22.935283 93.100 178.4850
23.101481 93.077 178.2263
23.268884 93.054 177.9608
23.437500 93.032 177.6897
23.607338 93.009 177.4139
23.778406 92.988 177.1344
23.950714 92.967 176.8521
24.124271 92.947 176.5679
24.299086 92.928 176.2827
24.475167 92.910 175.9974
24.652524 92.893 175.7131
24.831166 92.877 175.4312
25.011103 92.862 175.1530
25.192344 92.848 174.8802
25.374898 92.836 174.6143
25.558775 92.824 174.3565
25.743984 92.814 174.1078
25.930536 92.805 173.8684
26.118439 92.797 173.6380
26.307704 92.790 173.4160
26.498341 92.784 173.2010
26.690359 92.779 172.9920
26.883768 92.774 172.7878
27.078579 92.769 172.5879
27.274801 92.764 172.3921
27.472446 92.758 172.2006
27.671522 92.750 172.0142
27.872042 92.741 171.8334
28.074014 92.731 171.6587
28.277450 92.719 171.4902
28.482360 92.705 171.3274
28.688755 92.690 171.1695
28.896645 92.674 171.0151
29.106042 92.656 170.8632
29.316957 92.637 170.7125
29.529400 92.617 170.5620
29.743382 92.596 170.4109
29.958915 92.574 170.2585
30.176009 92.551 170.1040
30.394677 92.528 169.9459
30.614929 92.505 169.7825
30.836778 92.482 169.6118
31.060234 92.459 169.4315
31.285309 92.437 169.2396
31.512015 92.414 169.0349
31.740364 92.392 168.8170
31.970368 92.370 168.5867
32.202039 92.346 168.3460
32.435388 92.323 168.0978
32.670428 92.298 167.8456
32.907171 92.274 167.5930
33.145630 92.249 167.3431
33.385817 92.225 167.0986
33.627745 92.201 166.8608
33.871425 92.179 166.6299
34.116871 92.158 166.4053
34.364096 92.138 166.1855
34.613113 92.120 165.9690
34.863934 92.102 165.7547
35.116572 92.085 165.5420
35.371041 92.068 165.3312
35.627354 92.051 165.1236
35.885525 92.033 164.9205
36.145566 92.015 164.7230
36.407492 91.995 164.5317
36.671316 91.975 164.3462
36.937051 91.955 164.1653
37.204712 91.933 163.9872
37.474313 91.911 163.8103
37.745867 91.888 163.6337
38.019389 91.863 163.4573
38.294893 91.837 163.2817
38.572394 91.810 163.1081
38.851905 91.782 162.9369
39.133442 91.753 162.7682
39.417019 91.723 162.6011
39.702651 91.694 162.4344
39.990353 91.664 162.2678
40.280140 91.634 162.1015
40.572026 91.604 161.9375
40.866028 91.573 161.7785
41.162160 91.543 161.6270
41.460438 91.514 161.4839
41.760877 91.486 161.3483
42.063494 91.460 161.2170
42.368303 91.437 161.0862
42.675322 91.414 160.9527
42.984565 91.393 160.8148
43.296048 91.373 160.6723
43.609789 91.353 160.5258
43.925804 91.333 160.3751
44.244108 91.313 160.2180
44.564719 91.294 160.0517
44.887654 91.273 159.8734
45.212928 91.250 159.6830
45.540560 91.225 159.4840
45.870565 91.196 159.2834
46.202962 91.163 159.0897
46.537768 91.128 158.9100
46.875000 91.092 158.7477
47.214676 91.056 158.6020
47.556813 91.021 158.4680
47.901429 90.988 158.3393
48.248542 90.957 158.2100
48.598171 90.927 158.0764
48.950334 90.897 157.9370
49.305048 90.868 157.7926
49.662333 90.838 157.6454
50.022206 90.807 157.4981
50.384688 90.775 157.3540
50.749796 90.742 157.2166
51.117550 90.708 157.0889
51.487969 90.673 156.9735
51.861072 90.638 156.8710
52.236879 90.603 156.7800
52.615409 90.569 156.6970
52.996681 90.536 156.6181
53.380717 90.504 156.5402
53.767536 90.473 156.4613
54.157158 90.442 156.3799
54.549603 90.413 156.2945
54.944892 90.385 156.2019
55.343045 90.358 156.0981
55.744084 90.332 155.9794
56.148028 90.307 155.8441
56.554900 90.281 155.6932
56.964720 90.254 155.5303
57.377510 90.226 155.3609
57.793291 90.196 155.1917
58.212085 90.165 155.0288
58.633914 90.133 154.8772
59.058799 90.101 154.7389
59.486764 90.070 154.6128
59.917829 90.039 154.4957
60.352019 90.008 154.3849
60.789354 89.978 154.2795
61.229859 89.947 154.1808
61.673556 89.916 154.0897
62.120468 89.885 154.0048
62.570618 89.856 153.9212
63.024031 89.828 153.8325
63.480729 89.799 153.7332
63.940736 89.771 153.6216
64.404077 89.740 153.4998
64.870776 89.708 153.3718
65.340856 89.675 153.2419
65.814343 89.639 153.1136
66.291261 89.602 152.9893
66.771635 89.564 152.8712
67.255489 89.524 152.7615
67.742850 89.484 152.6622
68.233743 89.445 152.5744
68.728193 89.406 152.4973
69.226226 89.369 152.4282
69.727867 89.333 152.3642
70.233144 89.299 152.3033
70.742083 89.265 152.2463
71.254709 89.233 152.1952
71.771050 89.203 152.1506
72.291132 89.173 152.1104
72.814984 89.145 152.0703
73.342631 89.116 152.0264
73.874102 89.086 151.9784
74.409424 89.054 151.9283
74.948626 89.019 151.8782
75.491734 88.981 151.8273
76.038779 88.941 151.7719
76.589787 88.898 151.7077
77.144788 88.852 151.6305
77.703811 88.806 151.5353
78.266885 88.759 151.4160
78.834039 88.712 151.2675
79.405303 88.666 151.0881
79.980706 88.620 150.8777
80.560280 88.575 150.6381
81.144053 88.528 150.3821
81.732056 88.478 150.1429
82.324320 88.426 149.9636
82.920876 88.378 149.8683
83.521755 88.340 149.8421
84.126988 88.311 149.8464
84.736607 88.287 149.8529
85.350643 88.264 149.8585
