* Measurement data measured by REW V5.31
* Source: EXCL: Microphone (USB Sound Device        ), MICROPHONE (Master Volume), R, volume: 0.390
* Format: 256k Log Swept Sine, 1 sweep at -15.0 dBFS with no timing reference
* Dated: Jan 2, 2025 6:21:48 PM
* REW Settings:
*  C-weighting compensation: Off
*  Target level: 75.0 dB
* Note: 7hz Timeless II Silver Flower L
* Measurement: L Timeless 2 Silver Flower
* Smoothing: 1/12 octave
* Frequency Step: 96 ppo
* Start Frequency: 0.36621094 Hz
*
* Freq(Hz) SPL(dB) Phase(degrees)
0.366211 95.224 156.7274
0.368865 95.217 156.7033
0.371538 95.206 156.6672
0.374230 95.193 156.6218
0.376942 95.178 156.5695
0.379673 95.162 156.5118
0.382424 95.146 156.4501
0.385196 95.129 156.3849
0.387987 95.112 156.3166
0.390798 95.094 156.2454
0.393630 95.077 156.1715
0.396483 95.059 156.0949
0.399356 95.041 156.0155
0.402250 95.023 155.9334
0.405165 95.005 155.8485
0.408101 94.986 155.7609
0.411058 94.968 155.6705
0.414037 94.949 155.5772
0.417037 94.930 155.4810
0.420059 94.912 155.3820
0.423103 94.892 155.2800
0.426169 94.873 155.1752
0.429257 94.854 155.0673
0.432368 94.835 154.9564
0.435501 94.815 154.8425
0.438656 94.795 154.7255
0.441835 94.775 154.6054
0.445037 94.755 154.4823
0.448262 94.735 154.3560
0.451510 94.715 154.2265
0.454782 94.695 154.0938
0.458077 94.674 153.9579
0.461397 94.653 153.8188
0.464740 94.632 153.6765
0.468108 94.611 153.5308
0.471500 94.590 153.3819
0.474917 94.569 153.2296
0.478358 94.547 153.0740
0.481825 94.526 152.9150
0.485316 94.504 152.7526
0.488833 94.482 152.5869
0.492375 94.460 152.4177
0.495943 94.437 152.2452
0.499537 94.415 152.0691
0.503157 94.392 151.8897
0.506803 94.370 151.7068
0.510475 94.347 151.5204
0.514175 94.323 151.3306
0.517900 94.300 151.1373
0.521653 94.277 150.9406
0.525434 94.253 150.7403
0.529241 94.229 150.5366
0.533076 94.205 150.3295
0.536939 94.181 150.1189
0.540830 94.157 149.9049
0.544749 94.132 149.6874
0.548696 94.108 149.4666
0.552673 94.083 149.2423
0.556677 94.058 149.0147
0.560711 94.033 148.7837
0.564774 94.007 148.5495
0.568867 93.982 148.3120
0.572989 93.956 148.0712
0.577141 93.930 147.8273
0.581324 93.904 147.5802
0.585536 93.878 147.3300
0.589779 93.851 147.0769
0.594053 93.824 146.8207
0.598358 93.798 146.5616
0.602694 93.770 146.2997
0.607061 93.743 146.0351
0.611460 93.716 145.7678
0.615891 93.688 145.4979
0.620354 93.660 145.2256
0.624849 93.632 144.9509
0.629377 93.604 144.6739
0.633938 93.575 144.3948
0.638532 93.547 144.1137
0.643159 93.518 143.8307
0.647819 93.489 143.5460
0.652514 93.459 143.2597
0.657242 93.430 142.9721
0.662005 93.400 142.6832
0.666802 93.370 142.3932
0.671634 93.340 142.1024
0.676501 93.309 141.8109
0.681403 93.279 141.5190
0.686341 93.248 141.2269
0.691314 93.217 140.9348
0.696324 93.185 140.6429
0.701370 93.153 140.3515
0.706452 93.121 140.0607
0.711571 93.088 139.7705
0.716728 93.054 139.4810
0.721921 93.018 139.1918
0.727153 92.981 138.9023
0.732422 92.940 138.6117
0.737729 92.897 138.3188
0.743075 92.851 138.0223
0.748460 92.802 137.7210
0.753883 92.752 137.4141
0.759346 92.700 137.1010
0.764849 92.648 136.7811
0.770391 92.594 136.4543
0.775974 92.540 136.1202
0.781597 92.485 135.7786
0.787261 92.430 135.4294
0.792966 92.374 135.0725
0.798712 92.317 134.7077
0.804500 92.260 134.3349
0.810329 92.201 133.9539
0.816201 92.142 133.5647
0.822116 92.082 133.1671
0.828073 92.021 132.7611
0.834074 91.959 132.3464
0.840118 91.896 131.9230
0.846206 91.832 131.4908
0.852338 91.767 131.0497
0.858514 91.701 130.5996
0.864735 91.634 130.1404
0.871001 91.565 129.6720
0.877313 91.495 129.1945
0.883670 91.424 128.7076
0.890074 91.351 128.2114
0.896524 91.277 127.7059
0.903020 91.201 127.1910
0.909564 91.123 126.6667
0.916155 91.044 126.1331
0.922794 90.963 125.5901
0.929481 90.880 125.0379
0.936216 90.795 124.4765
0.943000 90.708 123.9060
0.949834 90.619 123.3266
0.956717 90.528 122.7384
0.963649 90.434 122.1416
0.970632 90.338 121.5364
0.977666 90.240 120.9231
0.984750 90.139 120.3021
0.991886 90.035 119.6736
0.999074 89.929 119.0380
1.006314 89.819 118.3959
1.013606 89.707 117.7476
1.020951 89.591 117.0939
1.028349 89.473 116.4351
1.035801 89.350 115.7722
1.043307 89.225 115.1056
1.050867 89.095 114.4363
1.058482 88.962 113.7650
1.066152 88.825 113.0923
1.073878 88.683 112.4189
1.081660 88.536 111.7451
1.089498 88.384 111.0707
1.097393 88.224 110.3950
1.105345 88.058 109.7168
1.113355 87.882 109.0342
1.121423 87.697 108.3453
1.129549 87.502 107.6482
1.137734 87.296 106.9412
1.145979 87.080 106.2224
1.154283 86.854 105.4902
1.162647 86.618 104.7429
1.171072 86.372 103.9787
1.179558 86.118 103.1957
1.188106 85.855 102.3918
1.196715 85.584 101.5649
1.205387 85.307 100.7125
1.214122 85.022 99.8319
1.222920 84.732 98.9203
1.231782 84.437 97.9744
1.240708 84.137 96.9907
1.249699 83.833 95.9653
1.258754 83.528 94.8939
1.267876 83.220 93.7717
1.277063 82.911 92.5934
1.286318 82.603 91.3531
1.295639 82.295 90.0445
1.305027 81.990 88.6601
1.314484 81.689 87.1922
1.324009 81.392 85.6320
1.333604 81.101 83.9697
1.343268 80.817 82.1949
1.353002 80.542 80.2962
1.362806 80.276 78.2610
1.372681 80.023 76.0765
1.382628 79.782 73.7289
1.392647 79.556 71.2044
1.402739 79.347 68.4893
1.412904 79.156 65.5706
1.423142 78.986 62.4367
1.433455 78.837 59.0780
1.443843 78.712 55.4868
1.454305 78.611 51.6576
1.464844 78.536 47.5868
1.475459 78.487 43.2729
1.486150 78.464 38.7187
1.496920 78.467 33.9351
1.507767 78.495 28.9444
1.518693 78.547 23.7822
1.529698 78.623 18.4974
1.540783 78.721 13.1497
1.551948 78.841 7.8054
1.563194 78.981 2.5317
1.574521 79.139 -2.6090
1.585931 79.316 -7.5638
1.597423 79.509 -12.2921
1.608999 79.717 -16.7665
1.620658 79.939 -20.9724
1.632402 80.174 -24.9056
1.644232 80.419 -28.5705
1.656146 80.673 -31.9773
1.668147 80.934 -35.1401
1.680235 81.202 -38.0753
1.692411 81.473 -40.8001
1.704675 81.747 -43.3317
1.717028 82.020 -45.6868
1.729470 82.293 -47.8813
1.742003 82.562 -49.9299
1.754626 82.826 -51.8465
1.767341 83.083 -53.6438
1.780147 83.331 -55.3344
1.793047 83.571 -56.9303
1.806040 83.801 -58.4436
1.819128 84.023 -59.8871
1.832310 84.236 -61.2736
1.845587 84.445 -62.6156
1.858961 84.650 -63.9236
1.872432 84.854 -65.2054
1.886001 85.057 -66.4658
1.899667 85.261 -67.7075
1.913433 85.465 -68.9315
1.927299 85.670 -70.1378
1.941265 85.875 -71.3260
1.955332 86.080 -72.4950
1.969501 86.286 -73.6440
1.983773 86.490 -74.7717
1.998148 86.694 -75.8770
2.012627 86.896 -76.9588
2.027212 87.096 -78.0159
2.041902 87.294 -79.0472
2.056698 87.489 -80.0517
2.071602 87.681 -81.0284
2.086614 87.869 -81.9764
2.101734 88.052 -82.8950
2.116964 88.231 -83.7838
2.132304 88.404 -84.6427
2.147756 88.571 -85.4725
2.163320 88.732 -86.2750
2.178996 88.886 -87.0531
2.194786 89.033 -87.8114
2.210690 89.173 -88.5555
2.226710 89.306 -89.2910
2.242845 89.432 -90.0224
2.259098 89.551 -90.7526
2.275468 89.663 -91.4830
2.291957 89.769 -92.2139
2.308566 89.869 -92.9446
2.325295 89.963 -93.6740
2.342145 90.051 -94.4006
2.359117 90.135 -95.1227
2.376212 90.214 -95.8384
2.393431 90.289 -96.5457
2.410775 90.360 -97.2424
2.428244 90.427 -97.9265
2.445840 90.492 -98.5959
2.463564 90.554 -99.2485
2.481416 90.614 -99.8829
2.499397 90.672 -100.4979
2.517509 90.728 -101.0935
2.535752 90.783 -101.6707
2.554127 90.836 -102.2316
2.572635 90.887 -102.7788
2.591277 90.935 -103.3145
2.610055 90.979 -103.8391
2.628968 91.020 -104.3523
2.648019 91.057 -104.8530
2.667208 91.090 -105.3404
2.686535 91.120 -105.8137
2.706003 91.146 -106.2721
2.725612 91.170 -106.7153
2.745363 91.190 -107.1429
2.765257 91.209 -107.5547
2.785295 91.225 -107.9507
2.805478 91.240 -108.3305
2.825808 91.253 -108.6943
2.846285 91.266 -109.0416
2.866910 91.278 -109.3724
2.887685 91.290 -109.6859
2.908611 91.301 -109.9816
2.929688 91.312 -110.2584
2.950917 91.321 -110.5156
2.972301 91.329 -110.7526
2.993839 91.336 -110.9694
3.015534 91.341 -111.1663
3.037386 91.345 -111.3440
3.059396 91.347 -111.5035
3.081565 91.348 -111.6456
3.103896 91.349 -111.7714
3.126388 91.349 -111.8820
3.149043 91.350 -111.9786
3.171862 91.351 -112.0620
3.194847 91.353 -112.1330
3.217998 91.358 -112.1924
3.241317 91.364 -112.2400
3.264805 91.372 -112.2755
3.288463 91.383 -112.2976
3.312293 91.396 -112.3046
3.336295 91.411 -112.2951
3.360471 91.429 -112.2683
3.384822 91.448 -112.2246
3.409350 91.469 -112.1656
3.434056 91.492 -112.0939
3.458940 91.517 -112.0127
3.484005 91.543 -111.9255
3.509252 91.572 -111.8362
3.534681 91.602 -111.7488
3.560295 91.634 -111.6667
3.586094 91.669 -111.5933
3.612081 91.706 -111.5309
3.638255 91.745 -111.4808
3.664620 91.788 -111.4430
3.691175 91.832 -111.4164
3.717923 91.880 -111.3997
3.744864 91.931 -111.3922
3.772001 91.984 -111.3938
3.799335 92.040 -111.4054
3.826866 92.097 -111.4284
3.854597 92.156 -111.4646
3.882529 92.215 -111.5161
3.910664 92.276 -111.5850
3.939002 92.336 -111.6735
3.967546 92.396 -111.7833
3.996296 92.455 -111.9160
4.025255 92.514 -112.0726
4.054423 92.573 -112.2533
4.083804 92.631 -112.4577
4.113396 92.690 -112.6848
4.143204 92.747 -112.9334
4.173227 92.805 -113.2021
4.203468 92.861 -113.4893
4.233928 92.916 -113.7937
4.264609 92.970 -114.1141
4.295512 93.021 -114.4496
4.326639 93.070 -114.8001
4.357992 93.117 -115.1656
4.389572 93.160 -115.5471
4.421380 93.200 -115.9455
4.453419 93.238 -116.3617
4.485691 93.272 -116.7954
4.518196 93.304 -117.2452
4.550936 93.333 -117.7087
4.583914 93.359 -118.1830
4.617131 93.382 -118.6648
4.650589 93.401 -119.1508
4.684289 93.418 -119.6385
4.718233 93.431 -120.1261
4.752424 93.441 -120.6130
4.786862 93.448 -121.1000
4.821549 93.451 -121.5878
4.856488 93.450 -122.0768
4.891680 93.446 -122.5667
4.927127 93.438 -123.0556
4.962831 93.428 -123.5411
4.998794 93.416 -124.0203
5.035017 93.401 -124.4902
5.071503 93.383 -124.9479
5.108253 93.364 -125.3914
5.145270 93.343 -125.8198
5.182555 93.320 -126.2330
5.220110 93.295 -126.6312
5.257937 93.268 -127.0150
5.296038 93.239 -127.3846
5.334415 93.210 -127.7400
5.373071 93.181 -128.0806
5.412006 93.152 -128.4058
5.451224 93.124 -128.7145
5.490725 93.097 -129.0057
5.530514 93.071 -129.2785
5.570590 93.046 -129.5330
5.610957 93.023 -129.7701
5.651616 93.001 -129.9920
5.692570 92.981 -130.2014
5.733821 92.964 -130.4013
5.775370 92.950 -130.5946
5.817221 92.938 -130.7833
5.859375 92.931 -130.9687
5.901834 92.927 -131.1512
5.944602 92.926 -131.3316
5.987679 92.930 -131.5113
6.031068 92.937 -131.6929
6.074771 92.947 -131.8799
6.118792 92.960 -132.0760
6.163131 92.976 -132.2846
6.207792 92.995 -132.5085
6.252776 93.017 -132.7490
6.298086 93.041 -133.0068
6.343725 93.068 -133.2819
6.389694 93.097 -133.5744
6.435996 93.128 -133.8850
6.482634 93.160 -134.2142
6.529610 93.193 -134.5631
6.576926 93.225 -134.9322
6.624585 93.258 -135.3221
6.672590 93.291 -135.7322
6.720942 93.323 -136.1613
6.769645 93.355 -136.6073
6.818700 93.385 -137.0675
6.868111 93.415 -137.5397
6.917881 93.443 -138.0220
6.968010 93.469 -138.5130
7.018504 93.493 -139.0117
7.069362 93.515 -139.5167
7.120590 93.535 -140.0259
7.172189 93.553 -140.5361
7.224161 93.570 -141.0442
7.276511 93.584 -141.5470
7.329239 93.597 -142.0423
7.382350 93.609 -142.5286
7.435845 93.619 -143.0049
7.489729 93.628 -143.4700
7.544002 93.636 -143.9225
7.598669 93.644 -144.3607
7.653732 93.651 -144.7829
7.709194 93.659 -145.1879
7.765058 93.667 -145.5753
7.821327 93.676 -145.9453
7.878004 93.686 -146.2987
7.935091 93.697 -146.6365
7.992592 93.710 -146.9598
8.050510 93.725 -147.2694
8.108847 93.742 -147.5661
8.167607 93.761 -147.8511
8.226793 93.783 -148.1261
8.286408 93.806 -148.3934
8.346454 93.832 -148.6555
8.406936 93.860 -148.9145
8.467856 93.891 -149.1720
8.529218 93.923 -149.4292
8.591024 93.957 -149.6871
8.653278 93.992 -149.9472
8.715983 94.029 -150.2106
8.779143 94.066 -150.4783
8.842760 94.104 -150.7510
8.906839 94.142 -151.0286
8.971381 94.179 -151.3105
9.036392 94.216 -151.5961
9.101873 94.253 -151.8846
9.167829 94.288 -152.1749
9.234263 94.322 -152.4663
9.301178 94.355 -152.7576
9.368578 94.386 -153.0471
9.436467 94.415 -153.3332
9.504847 94.443 -153.6141
9.573723 94.469 -153.8885
9.643099 94.493 -154.1555
9.712976 94.514 -154.4140
9.783361 94.532 -154.6631
9.854255 94.548 -154.9019
9.925663 94.560 -155.1299
9.997588 94.570 -155.3468
10.070035 94.576 -155.5531
10.143007 94.580 -155.7491
10.216507 94.582 -155.9355
10.290540 94.582 -156.1130
10.365109 94.581 -156.2826
10.440219 94.579 -156.4454
10.515873 94.576 -156.6026
10.592076 94.572 -156.7558
10.668830 94.568 -156.9060
10.746141 94.564 -157.0543
10.824012 94.560 -157.2018
10.902447 94.555 -157.3493
10.981451 94.549 -157.4977
11.061027 94.543 -157.6474
11.141180 94.536 -157.7990
11.221913 94.527 -157.9525
11.303232 94.518 -158.1078
11.385140 94.507 -158.2651
11.467641 94.495 -158.4243
11.550741 94.482 -158.5850
11.634442 94.468 -158.7472
11.718750 94.453 -158.9108
11.803669 94.437 -159.0755
11.889203 94.420 -159.2416
11.975357 94.403 -159.4092
12.062136 94.385 -159.5787
12.149543 94.367 -159.7503
12.237583 94.347 -159.9247
12.326262 94.328 -160.1023
12.415583 94.307 -160.2839
12.505552 94.286 -160.4700
12.596172 94.265 -160.6613
12.687449 94.242 -160.8581
12.779387 94.219 -161.0608
12.871992 94.194 -161.2697
12.965268 94.170 -161.4849
13.059220 94.144 -161.7062
13.153852 94.118 -161.9335
13.249170 94.092 -162.1666
13.345179 94.065 -162.4050
13.441884 94.038 -162.6484
13.539289 94.011 -162.8965
13.637401 93.984 -163.1491
13.736223 93.957 -163.4062
13.835761 93.930 -163.6677
13.936021 93.904 -163.9340
14.037007 93.879 -164.2056
14.138725 93.854 -164.4828
14.241180 93.830 -164.7666
14.344377 93.807 -165.0576
14.448323 93.785 -165.3565
14.553021 93.764 -165.6637
14.658478 93.744 -165.9798
14.764700 93.725 -166.3048
14.871691 93.707 -166.6385
14.979457 93.690 -166.9803
15.088005 93.673 -167.3294
15.197339 93.657 -167.6846
15.307465 93.642 -168.0445
15.418389 93.627 -168.4074
15.530117 93.613 -168.7717
15.642655 93.599 -169.1357
15.756008 93.586 -169.4979
15.870182 93.573 -169.8568
15.985184 93.562 -170.2115
16.101019 93.551 -170.5610
16.217694 93.542 -170.9050
16.335214 93.535 -171.2431
16.453586 93.528 -171.5755
16.572815 93.524 -171.9023
16.692909 93.521 -172.2236
16.813872 93.519 -172.5397
16.935713 93.519 -172.8505
17.058436 93.520 -173.1561
17.182048 93.522 -173.4560
17.306556 93.524 -173.7499
17.431967 93.527 -174.0369
17.558286 93.531 -174.3164
17.685521 93.534 -174.5875
17.813677 93.537 -174.8497
17.942762 93.540 -175.1022
18.072783 93.542 -175.3448
18.203746 93.544 -175.5773
18.335658 93.546 -175.7999
18.468526 93.548 -176.0130
18.602356 93.549 -176.2170
18.737156 93.550 -176.4128
18.872934 93.551 -176.6010
19.009695 93.551 -176.7824
19.147447 93.551 -176.9580
19.286197 93.550 -177.1283
19.425953 93.548 -177.2942
19.566721 93.545 -177.4565
19.708510 93.541 -177.6158
19.851326 93.536 -177.7731
19.995177 93.529 -177.9292
20.140070 93.521 -178.0851
20.286013 93.511 -178.2419
20.433014 93.500 -178.4003
20.581080 93.488 -178.5612
20.730219 93.474 -178.7252
20.880439 93.459 -178.8928
21.031747 93.442 -179.0641
21.184152 93.424 -179.2392
21.337661 93.404 -179.4179
21.492282 93.384 -179.6002
21.648024 93.363 -179.7861
21.804895 93.341 -179.9757
21.962902 93.318 179.8302
22.122054 93.296 179.6310
22.282360 93.273 179.4255
22.443827 93.251 179.2126
22.606464 93.229 178.9910
22.770280 93.208 178.7599
22.935283 93.187 178.5188
23.101481 93.166 178.2675
23.268884 93.145 178.0066
23.437500 93.125 177.7369
23.607338 93.105 177.4598
23.778406 93.086 177.1767
23.950714 93.067 176.8891
24.124271 93.048 176.5984
24.299086 93.030 176.3062
24.475167 93.013 176.0135
24.652524 92.997 175.7215
24.831166 92.982 175.4315
25.011103 92.967 175.1446
25.192344 92.954 174.8623
25.374898 92.942 174.5857
25.558775 92.931 174.3160
25.743984 92.921 174.0539
25.930536 92.912 173.7994
26.118439 92.904 173.5521
26.307704 92.897 173.3109
26.498341 92.891 173.0745
26.690359 92.885 172.8415
26.883768 92.879 172.6111
27.078579 92.873 172.3833
27.274801 92.865 172.1592
27.472446 92.856 171.9407
27.671522 92.844 171.7306
27.872042 92.831 171.5316
28.074014 92.815 171.3457
28.277450 92.798 171.1741
28.482360 92.781 171.0162
28.688755 92.762 170.8695
28.896645 92.744 170.7303
29.106042 92.727 170.5939
29.316957 92.709 170.4555
29.529400 92.691 170.3108
29.743382 92.673 170.1571
29.958915 92.654 169.9929
30.176009 92.634 169.8185
30.394677 92.612 169.6353
30.614929 92.589 169.4449
30.836778 92.564 169.2494
31.060234 92.539 169.0500
31.285309 92.513 168.8477
31.512015 92.486 168.6425
31.740364 92.460 168.4344
31.970368 92.434 168.2229
32.202039 92.409 168.0082
32.435388 92.384 167.7905
32.670428 92.360 167.5705
32.907171 92.336 167.3489
33.145630 92.313 167.1266
33.385817 92.292 166.9043
33.627745 92.271 166.6824
33.871425 92.251 166.4616
34.116871 92.232 166.2426
34.364096 92.214 166.0260
34.613113 92.196 165.8133
34.863934 92.179 165.6055
35.116572 92.161 165.4036
35.371041 92.144 165.2082
35.627354 92.127 165.0188
35.885525 92.111 164.8344
36.145566 92.094 164.6533
36.407492 92.078 164.4739
36.671316 92.061 164.2946
36.937051 92.043 164.1147
37.204712 92.024 163.9339
37.474313 92.004 163.7528
37.745867 91.982 163.5719
38.019389 91.959 163.3919
38.294893 91.935 163.2130
38.572394 91.910 163.0349
38.851905 91.885 162.8571
39.133442 91.858 162.6792
39.417019 91.831 162.5005
39.702651 91.804 162.3209
39.990353 91.776 162.1399
40.280140 91.749 161.9579
40.572026 91.721 161.7750
40.866028 91.693 161.5917
41.162160 91.666 161.4085
41.460438 91.638 161.2259
41.760877 91.611 161.0443
42.063494 91.584 160.8644
42.368303 91.557 160.6867
42.675322 91.529 160.5119
42.984565 91.502 160.3409
43.296048 91.474 160.1743
43.609789 91.447 160.0120
43.925804 91.419 159.8535
44.244108 91.392 159.6970
44.564719 91.365 159.5406
44.887654 91.337 159.3830
45.212928 91.308 159.2239
45.540560 91.279 159.0641
45.870565 91.249 158.9050
46.202962 91.218 158.7477
46.537768 91.187 158.5921
46.875000 91.156 158.4371
47.214676 91.125 158.2808
47.556813 91.095 158.1216
47.901429 91.064 157.9592
48.248542 91.033 157.7943
48.598171 91.002 157.6291
48.950334 90.969 157.4666
49.305048 90.937 157.3100
49.662333 90.904 157.1625
50.022206 90.871 157.0261
50.384688 90.838 156.9010
50.749796 90.806 156.7858
51.117550 90.775 156.6780
51.487969 90.745 156.5750
51.861072 90.715 156.4758
52.236879 90.685 156.3800
52.615409 90.656 156.2882
52.996681 90.626 156.2001
53.380717 90.597 156.1140
53.767536 90.569 156.0273
54.157158 90.541 155.9370
54.549603 90.514 155.8405
54.944892 90.487 155.7360
55.343045 90.461 155.6215
55.744084 90.435 155.4960
56.148028 90.409 155.3597
56.554900 90.383 155.2151
56.964720 90.355 155.0662
57.377510 90.327 154.9174
57.793291 90.299 154.7708
58.212085 90.271 154.6267
58.633914 90.242 154.4836
59.058799 90.214 154.3409
59.486764 90.185 154.2000
59.917829 90.154 154.0637
60.352019 90.123 153.9343
60.789354 90.091 153.8117
61.229859 90.058 153.6935
61.673556 90.026 153.5762
62.120468 89.992 153.4572
62.570618 89.957 153.3359
63.024031 89.922 153.2136
63.480729 89.885 153.0917
63.940736 89.847 152.9716
64.404077 89.809 152.8543
64.870776 89.770 152.7401
65.340856 89.732 152.6296
65.814343 89.693 152.5227
66.291261 89.656 152.4189
66.771635 89.619 152.3174
67.255489 89.582 152.2186
67.742850 89.545 152.1235
68.233743 89.508 152.0337
68.728193 89.472 151.9498
69.226226 89.436 151.8708
69.727867 89.400 151.7950
70.233144 89.363 151.7211
70.742083 89.327 151.6488
71.254709 89.291 151.5786
71.771050 89.254 151.5107
72.291132 89.217 151.4444
72.814984 89.180 151.3784
73.342631 89.144 151.3117
73.874102 89.107 151.2444
74.409424 89.070 151.1772
74.948626 89.032 151.1106
75.491734 88.995 151.0449
76.038779 88.958 150.9800
76.589787 88.921 150.9165
77.144788 88.885 150.8541
77.703811 88.850 150.7910
78.266885 88.816 150.7236
78.834039 88.782 150.6486
79.405303 88.749 150.5651
79.980706 88.716 150.4737
80.560280 88.683 150.3758
81.144053 88.649 150.2728
81.732056 88.614 150.1664
82.324320 88.577 150.0602
82.920876 88.538 149.9580
83.521755 88.496 149.8640
84.126988 88.453 149.7811
84.736607 88.408 149.7109
85.350643 88.361 149.6530
