* Measurement data measured by REW V5.31
* Source: EXCL: Microphone (USB Sound Device        ), MICROPHONE (Master Volume), R, volume: 0.390
* Format: 256k Log Swept Sine, 1 sweep at -15.0 dBFS with no timing reference
* Dated: Dec 31, 2024 7:04:22 PM
* REW Settings:
*  C-weighting compensation: Off
*  Target level: 75.0 dB
* Note: L Timeless 2 Gold Flower
* Measurement: L Timeless 2 Gold Flower
* Smoothing: 1/12 octave
* Frequency Step: 96 ppo
* Start Frequency: 0.36621094 Hz
*
* Freq(Hz) SPL(dB) Phase(degrees)
0.366211 94.955 157.0235
0.368865 94.948 156.9999
0.371538 94.937 156.9645
0.374230 94.924 156.9199
0.376942 94.909 156.8685
0.379673 94.893 156.8120
0.382424 94.876 156.7513
0.385196 94.858 156.6873
0.387987 94.841 156.6202
0.390798 94.823 156.5502
0.393630 94.805 156.4776
0.396483 94.786 156.4023
0.399356 94.768 156.3242
0.402250 94.750 156.2435
0.405165 94.731 156.1601
0.408101 94.712 156.0739
0.411058 94.693 155.9849
0.414037 94.674 155.8932
0.417037 94.655 155.7986
0.420059 94.635 155.7011
0.423103 94.616 155.6008
0.426169 94.596 155.4975
0.429257 94.577 155.3914
0.432368 94.557 155.2822
0.435501 94.537 155.1701
0.438656 94.516 155.0549
0.441835 94.496 154.9367
0.445037 94.476 154.8154
0.448262 94.455 154.6910
0.451510 94.434 154.5635
0.454782 94.413 154.4328
0.458077 94.392 154.2990
0.461397 94.371 154.1620
0.464740 94.349 154.0217
0.468108 94.328 153.8782
0.471500 94.306 153.7314
0.474917 94.284 153.5814
0.478358 94.262 153.4281
0.481825 94.240 153.2714
0.485316 94.218 153.1114
0.488833 94.195 152.9480
0.492375 94.172 152.7813
0.495943 94.150 152.6112
0.499537 94.127 152.4377
0.503157 94.103 152.2608
0.506803 94.080 152.0805
0.510475 94.057 151.8968
0.514175 94.033 151.7097
0.517900 94.009 151.5191
0.521653 93.985 151.3251
0.525434 93.961 151.1277
0.529241 93.936 150.9268
0.533076 93.912 150.7225
0.536939 93.887 150.5148
0.540830 93.862 150.3038
0.544749 93.837 150.0893
0.548696 93.812 149.8715
0.552673 93.786 149.6503
0.556677 93.761 149.4258
0.560711 93.735 149.1980
0.564774 93.709 148.9669
0.568867 93.683 148.7326
0.572989 93.656 148.4951
0.577141 93.630 148.2545
0.581324 93.603 148.0108
0.585536 93.576 147.7640
0.589779 93.549 147.5142
0.594053 93.521 147.2614
0.598358 93.494 147.0058
0.602694 93.466 146.7475
0.607061 93.438 146.4864
0.611460 93.410 146.2226
0.615891 93.382 145.9564
0.620354 93.353 145.6877
0.624849 93.324 145.4166
0.629377 93.295 145.1434
0.633938 93.266 144.8680
0.638532 93.237 144.5907
0.643159 93.207 144.3115
0.647819 93.177 144.0306
0.652514 93.147 143.7482
0.657242 93.117 143.4645
0.662005 93.086 143.1795
0.666802 93.056 142.8935
0.671634 93.025 142.6067
0.676501 92.993 142.3193
0.681403 92.962 142.0315
0.686341 92.930 141.7436
0.691314 92.898 141.4556
0.696324 92.866 141.1680
0.701370 92.834 140.8808
0.706452 92.800 140.5943
0.711571 92.767 140.3085
0.716728 92.732 140.0234
0.721921 92.695 139.7387
0.727153 92.656 139.4538
0.732422 92.615 139.1678
0.737729 92.570 138.8795
0.743075 92.522 138.5878
0.748460 92.472 138.2913
0.753883 92.420 137.9893
0.759346 92.367 137.6811
0.764849 92.313 137.3662
0.770391 92.258 137.0444
0.775974 92.202 136.7154
0.781597 92.145 136.3790
0.787261 92.088 136.0350
0.792966 92.030 135.6833
0.798712 91.972 135.3238
0.804500 91.913 134.9563
0.810329 91.853 134.5807
0.816201 91.792 134.1968
0.822116 91.730 133.8046
0.828073 91.667 133.4039
0.834074 91.603 132.9946
0.840118 91.539 132.5766
0.846206 91.473 132.1498
0.852338 91.406 131.7140
0.858514 91.338 131.2693
0.864735 91.268 130.8153
0.871001 91.197 130.3522
0.877313 91.125 129.8798
0.883670 91.051 129.3981
0.890074 90.976 128.9069
0.896524 90.900 128.4063
0.903020 90.821 127.8962
0.909564 90.741 127.3765
0.916155 90.659 126.8474
0.922794 90.575 126.3089
0.929481 90.489 125.7609
0.936216 90.401 125.2035
0.943000 90.311 124.6368
0.949834 90.218 124.0610
0.956717 90.123 123.4761
0.963649 90.026 122.8824
0.970632 89.926 122.2801
0.977666 89.824 121.6693
0.984750 89.718 121.0505
0.991886 89.610 120.4239
0.999074 89.499 119.7899
1.006314 89.385 119.1490
1.013606 89.267 118.5016
1.020951 89.146 117.8483
1.028349 89.022 117.1897
1.035801 88.893 116.5264
1.043307 88.761 115.8592
1.050867 88.626 115.1888
1.058482 88.485 114.5159
1.066152 88.341 113.8413
1.073878 88.191 113.1656
1.081660 88.036 112.4891
1.089498 87.875 111.8116
1.097393 87.707 111.1324
1.105345 87.530 110.4502
1.113355 87.343 109.7631
1.121423 87.146 109.0690
1.129549 86.938 108.3660
1.137734 86.718 107.6522
1.145979 86.486 106.9257
1.154283 86.244 106.1847
1.162647 85.990 105.4273
1.171072 85.726 104.6515
1.179558 85.452 103.8551
1.188106 85.168 103.0359
1.196715 84.876 102.1914
1.205387 84.576 101.3187
1.214122 84.269 100.4149
1.222920 83.955 99.4764
1.231782 83.636 98.4996
1.240708 83.312 97.4802
1.249699 82.985 96.4135
1.258754 82.654 95.2944
1.267876 82.321 94.1169
1.277063 81.988 92.8746
1.286318 81.655 91.5600
1.295639 81.324 90.1649
1.305027 80.995 88.6800
1.314484 80.671 87.0950
1.324009 80.352 85.3982
1.333604 80.039 83.5768
1.343268 79.736 81.6162
1.353002 79.442 79.5007
1.362806 79.159 77.2131
1.372681 78.890 74.7348
1.382628 78.637 72.0464
1.392647 78.400 69.1283
1.402739 78.183 65.9613
1.412904 77.986 62.5279
1.423142 77.813 58.8140
1.433455 77.666 54.8100
1.443843 77.545 50.5128
1.454305 77.454 45.9259
1.464844 77.392 41.0608
1.475459 77.361 35.9370
1.486150 77.361 30.5852
1.496920 77.392 25.0499
1.507767 77.453 19.3907
1.518693 77.542 13.6800
1.529698 77.660 7.9973
1.540783 77.804 2.4211
1.551948 77.973 -2.9776
1.563194 78.166 -8.1414
1.574521 78.381 -13.0299
1.585931 78.617 -17.6190
1.597423 78.872 -21.8995
1.608999 79.144 -25.8738
1.620658 79.432 -29.5531
1.632402 79.733 -32.9538
1.644232 80.045 -36.0954
1.656146 80.367 -38.9988
1.668147 80.696 -41.6848
1.680235 81.031 -44.1733
1.692411 81.368 -46.4833
1.704675 81.707 -48.6319
1.717028 82.043 -50.6349
1.729470 82.376 -52.5066
1.742003 82.703 -54.2599
1.754626 83.021 -55.9066
1.767341 83.329 -57.4574
1.780147 83.624 -58.9225
1.793047 83.906 -60.3121
1.806040 84.174 -61.6363
1.819128 84.428 -62.9056
1.832310 84.670 -64.1309
1.845587 84.902 -65.3227
1.858961 85.127 -66.4900
1.872432 85.346 -67.6391
1.886001 85.561 -68.7739
1.899667 85.773 -69.8963
1.913433 85.982 -71.0067
1.927299 86.189 -72.1049
1.941265 86.393 -73.1899
1.955332 86.595 -74.2607
1.969501 86.794 -75.3161
1.983773 86.991 -76.3547
1.998148 87.184 -77.3753
2.012627 87.375 -78.3766
2.027212 87.563 -79.3574
2.041902 87.747 -80.3166
2.056698 87.928 -81.2529
2.071602 88.106 -82.1654
2.086614 88.280 -83.0531
2.101734 88.450 -83.9151
2.116964 88.616 -84.7511
2.132304 88.777 -85.5609
2.147756 88.934 -86.3451
2.163320 89.086 -87.1052
2.178996 89.234 -87.8440
2.194786 89.375 -88.5657
2.210690 89.511 -89.2753
2.226710 89.641 -89.9781
2.242845 89.764 -90.6781
2.259098 89.881 -91.3781
2.275468 89.992 -92.0791
2.291957 90.097 -92.7815
2.308566 90.196 -93.4844
2.325295 90.290 -94.1869
2.342145 90.378 -94.8873
2.359117 90.462 -95.5841
2.376212 90.541 -96.2754
2.393431 90.616 -96.9592
2.410775 90.688 -97.6336
2.428244 90.756 -98.2964
2.445840 90.821 -98.9455
2.463564 90.884 -99.5790
2.481416 90.945 -100.1950
2.499397 91.004 -100.7918
2.517509 91.062 -101.3687
2.535752 91.118 -101.9254
2.554127 91.172 -102.4629
2.572635 91.225 -102.9835
2.591277 91.274 -103.4899
2.610055 91.320 -103.9850
2.628968 91.363 -104.4710
2.648019 91.402 -104.9492
2.667208 91.438 -105.4202
2.686535 91.470 -105.8843
2.706003 91.499 -106.3411
2.725612 91.525 -106.7899
2.745363 91.549 -107.2298
2.765257 91.570 -107.6598
2.785295 91.589 -108.0785
2.805478 91.607 -108.4846
2.825808 91.623 -108.8766
2.846285 91.639 -109.2529
2.866910 91.654 -109.6120
2.887685 91.668 -109.9525
2.908611 91.682 -110.2733
2.929688 91.695 -110.5738
2.950917 91.708 -110.8538
2.972301 91.719 -111.1136
2.993839 91.728 -111.3540
3.015534 91.736 -111.5757
3.037386 91.742 -111.7798
3.059396 91.747 -111.9672
3.081565 91.750 -112.1388
3.103896 91.753 -112.2958
3.126388 91.756 -112.4390
3.149043 91.759 -112.5693
3.171862 91.762 -112.6875
3.194847 91.766 -112.7943
3.217998 91.772 -112.8901
3.241317 91.779 -112.9748
3.264805 91.789 -113.0480
3.288463 91.800 -113.1084
3.312293 91.813 -113.1547
3.336295 91.828 -113.1854
3.360471 91.845 -113.1998
3.384822 91.863 -113.1984
3.409350 91.882 -113.1826
3.434056 91.904 -113.1548
3.458940 91.926 -113.1177
3.484005 91.950 -113.0745
3.509252 91.976 -113.0288
3.534681 92.004 -112.9839
3.560295 92.033 -112.9432
3.586094 92.065 -112.9093
3.612081 92.098 -112.8846
3.638255 92.134 -112.8700
3.664620 92.172 -112.8654
3.691175 92.213 -112.8699
3.717923 92.256 -112.8823
3.744864 92.302 -112.9019
3.772001 92.350 -112.9286
3.799335 92.400 -112.9635
3.826866 92.452 -113.0078
3.854597 92.506 -113.0634
3.882529 92.560 -113.1323
3.910664 92.614 -113.2166
3.939002 92.669 -113.3184
3.967546 92.724 -113.4394
3.996296 92.779 -113.5812
4.025255 92.833 -113.7446
4.054423 92.887 -113.9298
4.083804 92.941 -114.1365
4.113396 92.994 -114.3639
4.143204 93.048 -114.6107
4.173227 93.101 -114.8759
4.203468 93.154 -115.1581
4.233928 93.205 -115.4562
4.264609 93.256 -115.7694
4.295512 93.304 -116.0970
4.326639 93.350 -116.4388
4.357992 93.394 -116.7951
4.389572 93.435 -117.1666
4.421380 93.473 -117.5545
4.453419 93.509 -117.9593
4.485691 93.542 -118.3809
4.518196 93.573 -118.8178
4.550936 93.600 -119.2679
4.583914 93.626 -119.7285
4.617131 93.648 -120.1965
4.650589 93.668 -120.6691
4.684289 93.685 -121.1438
4.718233 93.699 -121.6191
4.752424 93.709 -122.0946
4.786862 93.717 -122.5707
4.821549 93.721 -123.0483
4.856488 93.721 -123.5278
4.891680 93.719 -124.0086
4.927127 93.714 -124.4892
4.962831 93.706 -124.9670
4.998794 93.695 -125.4395
5.035017 93.682 -125.9036
5.071503 93.668 -126.3569
5.108253 93.651 -126.7975
5.145270 93.633 -127.2244
5.182555 93.612 -127.6375
5.220110 93.590 -128.0373
5.257937 93.566 -128.4241
5.296038 93.540 -128.7981
5.334415 93.514 -129.1591
5.373071 93.488 -129.5066
5.412006 93.461 -129.8397
5.451224 93.436 -130.1575
5.490725 93.411 -130.4590
5.530514 93.387 -130.7433
5.570590 93.365 -131.0104
5.610957 93.343 -131.2614
5.651616 93.323 -131.4979
5.692570 93.305 -131.7227
5.733821 93.289 -131.9382
5.775370 93.276 -132.1471
5.817221 93.265 -132.3510
5.859375 93.258 -132.5512
5.901834 93.254 -132.7479
5.944602 93.253 -132.9418
5.987679 93.256 -133.1342
6.031068 93.262 -133.3276
6.074771 93.271 -133.5252
6.118792 93.283 -133.7303
6.163131 93.298 -133.9464
6.207792 93.316 -134.1756
6.252776 93.336 -134.4196
6.298086 93.358 -134.6786
6.343725 93.384 -134.9530
6.389694 93.411 -135.2429
6.435996 93.440 -135.5489
6.482634 93.470 -135.8718
6.529610 93.501 -136.2125
6.576926 93.532 -136.5719
6.624585 93.563 -136.9502
6.672590 93.594 -137.3472
6.720942 93.624 -137.7616
6.769645 93.655 -138.1915
6.818700 93.684 -138.6346
6.868111 93.712 -139.0888
6.917881 93.739 -139.5524
6.968010 93.764 -140.0241
7.018504 93.787 -140.5030
7.069362 93.809 -140.9878
7.120590 93.828 -141.4765
7.172189 93.846 -141.9660
7.224161 93.862 -142.4533
7.276511 93.877 -142.9354
7.329239 93.890 -143.4102
7.382350 93.901 -143.8763
7.435845 93.911 -144.3326
7.489729 93.919 -144.7781
7.544002 93.927 -145.2111
7.598669 93.934 -145.6300
7.653732 93.941 -146.0331
7.709194 93.948 -146.4192
7.765058 93.956 -146.7879
7.821327 93.964 -147.1392
7.878004 93.972 -147.4738
7.935091 93.982 -147.7926
7.992592 93.994 -148.0965
8.050510 94.007 -148.3863
8.108847 94.022 -148.6626
8.167607 94.040 -148.9266
8.226793 94.059 -149.1800
8.286408 94.081 -149.4250
8.346454 94.105 -149.6639
8.406936 94.131 -149.8988
8.467856 94.160 -150.1314
8.529218 94.190 -150.3628
8.591024 94.222 -150.5943
8.653278 94.255 -150.8273
8.715983 94.290 -151.0631
8.779143 94.326 -151.3030
8.842760 94.362 -151.5477
8.906839 94.398 -151.7972
8.971381 94.434 -152.0513
9.036392 94.470 -152.3093
9.101873 94.506 -152.5709
9.167829 94.540 -152.8352
9.234263 94.574 -153.1016
9.301178 94.606 -153.3689
9.368578 94.636 -153.6358
9.436467 94.665 -153.9006
9.504847 94.692 -154.1619
9.573723 94.718 -154.4183
9.643099 94.741 -154.6689
9.712976 94.762 -154.9127
9.783361 94.780 -155.1486
9.854255 94.794 -155.3757
9.925663 94.806 -155.5934
9.997588 94.814 -155.8014
10.070035 94.819 -155.9998
10.143007 94.821 -156.1888
10.216507 94.821 -156.3690
10.290540 94.819 -156.5407
10.365109 94.816 -156.7047
10.440219 94.812 -156.8618
10.515873 94.806 -157.0134
10.592076 94.800 -157.1604
10.668830 94.793 -157.3040
10.746141 94.786 -157.4451
10.824012 94.778 -157.5847
10.902447 94.770 -157.7235
10.981451 94.761 -157.8625
11.061027 94.752 -158.0022
11.141180 94.742 -158.1431
11.221913 94.730 -158.2854
11.303232 94.718 -158.4294
11.385140 94.704 -158.5751
11.467641 94.690 -158.7227
11.550741 94.674 -158.8721
11.634442 94.658 -159.0234
11.718750 94.641 -159.1765
11.803669 94.623 -159.3317
11.889203 94.604 -159.4890
11.975357 94.585 -159.6489
12.062136 94.565 -159.8115
12.149543 94.545 -159.9775
12.237583 94.524 -160.1473
12.326262 94.503 -160.3214
12.415583 94.481 -160.5004
12.505552 94.458 -160.6849
12.596172 94.434 -160.8753
12.687449 94.410 -161.0721
12.779387 94.385 -161.2753
12.871992 94.359 -161.4852
12.965268 94.332 -161.7018
13.059220 94.305 -161.9249
13.153852 94.277 -162.1541
13.249170 94.248 -162.3892
13.345179 94.220 -162.6297
13.441884 94.191 -162.8754
13.539289 94.162 -163.1257
13.637401 94.133 -163.3806
13.736223 94.104 -163.6400
13.835761 94.076 -163.9040
13.936021 94.049 -164.1729
14.037007 94.022 -164.4472
14.138725 93.996 -164.7273
14.241180 93.970 -165.0142
14.344377 93.946 -165.3085
14.448323 93.923 -165.6110
14.553021 93.901 -165.9220
14.658478 93.880 -166.2422
14.764700 93.860 -166.5714
14.871691 93.841 -166.9094
14.979457 93.823 -167.2557
15.088005 93.806 -167.6093
15.197339 93.790 -167.9690
15.307465 93.774 -168.3332
15.418389 93.758 -168.7001
15.530117 93.744 -169.0681
15.642655 93.729 -169.4354
15.756008 93.716 -169.8004
15.870182 93.703 -170.1615
15.985184 93.692 -170.5179
16.101019 93.681 -170.8685
16.217694 93.672 -171.2131
16.335214 93.665 -171.5515
16.453586 93.659 -171.8838
16.572815 93.655 -172.2103
16.692909 93.652 -172.5314
16.813872 93.652 -172.8475
16.935713 93.652 -173.1587
17.058436 93.654 -173.4651
17.182048 93.657 -173.7664
17.306556 93.661 -174.0621
17.431967 93.665 -174.3517
17.558286 93.669 -174.6343
17.685521 93.673 -174.9090
17.813677 93.676 -175.1748
17.942762 93.680 -175.4311
18.072783 93.683 -175.6774
18.203746 93.685 -175.9132
18.335658 93.687 -176.1386
18.468526 93.688 -176.3540
18.602356 93.690 -176.5596
18.737156 93.690 -176.7564
18.872934 93.691 -176.9451
19.009695 93.690 -177.1266
19.147447 93.690 -177.3018
19.286197 93.688 -177.4714
19.425953 93.685 -177.6364
19.566721 93.682 -177.7973
19.708510 93.677 -177.9551
19.851326 93.670 -178.1103
19.995177 93.663 -178.2638
20.140070 93.654 -178.4164
20.286013 93.643 -178.5690
20.433014 93.631 -178.7226
20.581080 93.618 -178.8780
20.730219 93.603 -179.0360
20.880439 93.587 -179.1974
21.031747 93.570 -179.3626
21.184152 93.551 -179.5321
21.337661 93.532 -179.7061
21.492282 93.511 -179.8849
21.648024 93.490 179.9314
21.804895 93.468 179.7423
21.962902 93.446 179.5475
22.122054 93.423 179.3462
22.282360 93.401 179.1375
22.443827 93.378 178.9205
22.606464 93.356 178.6942
22.770280 93.334 178.4580
22.935283 93.312 178.2114
23.101481 93.291 177.9545
23.268884 93.270 177.6880
23.437500 93.249 177.4133
23.607338 93.228 177.1318
23.778406 93.207 176.8457
23.950714 93.186 176.5569
24.124271 93.166 176.2676
24.299086 93.147 175.9793
24.475167 93.128 175.6931
24.652524 93.112 175.4097
24.831166 93.096 175.1294
25.011103 93.082 174.8519
25.192344 93.070 174.5771
25.374898 93.059 174.3047
25.558775 93.050 174.0348
25.743984 93.041 173.7679
25.930536 93.032 173.5050
26.118439 93.024 173.2474
26.307704 93.016 172.9968
26.498341 93.008 172.7548
26.690359 92.999 172.5231
26.883768 92.989 172.3027
27.078579 92.980 172.0940
27.274801 92.970 171.8969
27.472446 92.959 171.7102
27.671522 92.949 171.5325
27.872042 92.937 171.3619
28.074014 92.926 171.1966
28.277450 92.913 171.0350
28.482360 92.899 170.8761
28.688755 92.883 170.7194
28.896645 92.866 170.5651
29.106042 92.847 170.4134
29.316957 92.827 170.2646
29.529400 92.806 170.1183
29.743382 92.784 169.9735
29.958915 92.761 169.8287
30.176009 92.739 169.6813
30.394677 92.716 169.5290
30.614929 92.694 169.3696
30.836778 92.671 169.2017
31.060234 92.649 169.0247
31.285309 92.626 168.8388
31.512015 92.603 168.6447
31.740364 92.581 168.4428
31.970368 92.559 168.2336
32.202039 92.537 168.0167
32.435388 92.517 167.7913
32.670428 92.497 167.5569
32.907171 92.477 167.3134
33.145630 92.458 167.0621
33.385817 92.438 166.8053
33.627745 92.418 166.5464
33.871425 92.397 166.2894
34.116871 92.376 166.0373
34.364096 92.355 165.7927
34.613113 92.334 165.5566
34.863934 92.313 165.3293
35.116572 92.291 165.1105
35.371041 92.270 164.9003
35.627354 92.248 164.6995
35.885525 92.225 164.5092
36.145566 92.202 164.3307
36.407492 92.179 164.1644
36.671316 92.156 164.0089
36.937051 92.133 163.8613
37.204712 92.111 163.7172
37.474313 92.089 163.5722
37.745867 92.068 163.4225
38.019389 92.046 163.2665
38.294893 92.023 163.1043
38.572394 91.999 162.9377
38.851905 91.973 162.7690
39.133442 91.947 162.5997
39.417019 91.921 162.4300
39.702651 91.895 162.2584
39.990353 91.869 162.0826
40.280140 91.844 161.9003
40.572026 91.818 161.7106
40.866028 91.793 161.5142
41.162160 91.766 161.3134
41.460438 91.739 161.1117
41.760877 91.712 160.9123
42.063494 91.683 160.7175
42.368303 91.655 160.5284
42.675322 91.627 160.3453
42.984565 91.598 160.1682
43.296048 91.569 159.9973
43.609789 91.540 159.8337
43.925804 91.510 159.6790
44.244108 91.480 159.5340
44.564719 91.451 159.3983
44.887654 91.421 159.2701
45.212928 91.393 159.1466
45.540560 91.365 159.0243
45.870565 91.337 158.9006
46.202962 91.309 158.7740
46.537768 91.280 158.6443
46.875000 91.252 158.5119
47.214676 91.223 158.3774
47.556813 91.194 158.2417
47.901429 91.164 158.1051
48.248542 91.135 157.9685
48.598171 91.105 157.8330
48.950334 91.075 157.7002
49.305048 91.046 157.5712
49.662333 91.017 157.4463
50.022206 90.989 157.3242
50.384688 90.962 157.2021
50.749796 90.935 157.0771
51.117550 90.910 156.9464
51.487969 90.883 156.8093
51.861072 90.856 156.6675
52.236879 90.828 156.5245
52.615409 90.798 156.3842
52.996681 90.767 156.2494
53.380717 90.735 156.1209
53.767536 90.704 155.9974
54.157158 90.673 155.8762
54.549603 90.643 155.7548
54.944892 90.613 155.6312
55.343045 90.584 155.5045
55.744084 90.555 155.3747
56.148028 90.526 155.2416
56.554900 90.497 155.1058
56.964720 90.468 154.9686
57.377510 90.438 154.8322
57.793291 90.408 154.6995
58.212085 90.377 154.5726
58.633914 90.346 154.4526
59.058799 90.315 154.3386
59.486764 90.283 154.2294
59.917829 90.251 154.1231
60.352019 90.219 154.0185
60.789354 90.186 153.9142
61.229859 90.152 153.8090
61.673556 90.117 153.7023
62.120468 90.081 153.5942
62.570618 90.045 153.4852
63.024031 90.008 153.3765
63.480729 89.970 153.2691
63.940736 89.932 153.1641
64.404077 89.895 153.0626
64.870776 89.858 152.9650
65.340856 89.823 152.8706
65.814343 89.788 152.7769
66.291261 89.755 152.6812
66.771635 89.722 152.5837
67.255489 89.688 152.4875
67.742850 89.653 152.3975
68.233743 89.618 152.3175
68.728193 89.583 152.2478
69.226226 89.548 152.1858
69.727867 89.513 152.1273
70.233144 89.479 152.0686
70.742083 89.445 152.0073
71.254709 89.411 151.9424
71.771050 89.376 151.8739
72.291132 89.341 151.8031
72.814984 89.305 151.7316
73.342631 89.269 151.6612
73.874102 89.234 151.5933
74.409424 89.199 151.5282
74.948626 89.164 151.4650
75.491734 89.131 151.4019
76.038779 89.097 151.3373
76.589787 89.064 151.2711
77.144788 89.031 151.2041
77.703811 88.998 151.1371
78.266885 88.965 151.0699
78.834039 88.932 151.0016
79.405303 88.899 150.9306
79.980706 88.866 150.8541
80.560280 88.833 150.7701
81.144053 88.800 150.6782
81.732056 88.766 150.5807
82.324320 88.730 150.4818
82.920876 88.693 150.3854
83.521755 88.654 150.2934
84.126988 88.615 150.2062
84.736607 88.575 150.1240
85.350643 88.534 150.0483
