* Measurement data measured by REW V5.31
* Source: EXCL: Microphone (USB Sound Device        ), MICROPHONE (Master Volume), L, volume: 0.390
* Format: 256k Log Swept Sine, 1 sweep at -18.0 dBFS with no timing reference
* Dated: Oct 17, 2024 12:21:32 AM
* REW Settings:
*  C-weighting compensation: Off
*  Target level: 75.0 dB
* Note: AFUL Cantor L
* Measurement: L AFUL Cantor
* Smoothing: 1/12 octave
* Frequency Step: 96 ppo
* Start Frequency: 0.36621094 Hz
*
* Freq(Hz)	SPL(dB)	Phase(degrees)
0.366211	84.008	149.4307
0.368865	84.005	149.3994
0.371538	84.000	149.3526
0.374230	83.993	149.2938
0.376942	83.986	149.2260
0.379673	83.979	149.1516
0.382424	83.971	149.0720
0.385196	83.962	148.9881
0.387987	83.954	148.9004
0.390798	83.945	148.8092
0.393630	83.937	148.7147
0.396483	83.928	148.6168
0.399356	83.920	148.5157
0.402250	83.911	148.4112
0.405165	83.902	148.3035
0.408101	83.893	148.1923
0.411058	83.884	148.0778
0.414037	83.875	147.9599
0.417037	83.866	147.8386
0.420059	83.857	147.7137
0.423103	83.848	147.5854
0.426169	83.839	147.4536
0.429257	83.829	147.3183
0.432368	83.820	147.1793
0.435501	83.810	147.0368
0.438656	83.801	146.8906
0.441835	83.791	146.7408
0.445037	83.781	146.5873
0.448262	83.772	146.4301
0.451510	83.762	146.2692
0.454782	83.752	146.1045
0.458077	83.742	145.9361
0.461397	83.732	145.7640
0.464740	83.722	145.5880
0.468108	83.712	145.4082
0.471500	83.701	145.2247
0.474917	83.691	145.0373
0.478358	83.681	144.8460
0.481825	83.670	144.6510
0.485316	83.660	144.4520
0.488833	83.649	144.2492
0.492375	83.638	144.0426
0.495943	83.627	143.8321
0.499537	83.617	143.6178
0.503157	83.606	143.3996
0.506803	83.595	143.1775
0.510475	83.584	142.9517
0.514175	83.572	142.7220
0.517900	83.561	142.4885
0.521653	83.550	142.2513
0.525434	83.538	142.0103
0.529241	83.527	141.7655
0.533076	83.515	141.5171
0.536939	83.503	141.2650
0.540830	83.492	141.0093
0.544749	83.480	140.7500
0.548696	83.468	140.4872
0.552673	83.456	140.2208
0.556677	83.444	139.9511
0.560711	83.432	139.6779
0.564774	83.419	139.4015
0.568867	83.407	139.1218
0.572989	83.394	138.8389
0.577141	83.382	138.5530
0.581324	83.369	138.2640
0.585536	83.357	137.9721
0.589779	83.344	137.6774
0.594053	83.331	137.3800
0.598358	83.318	137.0800
0.602694	83.305	136.7775
0.607061	83.291	136.4726
0.611460	83.278	136.1655
0.615891	83.265	135.8563
0.620354	83.251	135.5451
0.624849	83.238	135.2321
0.629377	83.224	134.9174
0.633938	83.210	134.6013
0.638532	83.196	134.2838
0.643159	83.182	133.9652
0.647819	83.168	133.6456
0.652514	83.154	133.3253
0.657242	83.140	133.0045
0.662005	83.125	132.6833
0.666802	83.111	132.3620
0.671634	83.096	132.0408
0.676501	83.081	131.7200
0.681403	83.067	131.3998
0.686341	83.052	131.0805
0.691314	83.036	130.7624
0.696324	83.021	130.4456
0.701370	83.006	130.1305
0.706452	82.990	129.8171
0.711571	82.974	129.5057
0.716728	82.958	129.1962
0.721921	82.941	128.8884
0.727153	82.923	128.5816
0.732422	82.904	128.2752
0.737729	82.884	127.9680
0.743075	82.863	127.6588
0.748460	82.841	127.3466
0.753883	82.818	127.0307
0.759346	82.794	126.7106
0.764849	82.770	126.3859
0.770391	82.745	126.0565
0.775974	82.719	125.7222
0.781597	82.693	125.3830
0.787261	82.667	125.0389
0.792966	82.640	124.6898
0.798712	82.613	124.3358
0.804500	82.585	123.9769
0.810329	82.557	123.6132
0.816201	82.528	123.2446
0.822116	82.499	122.8713
0.828073	82.469	122.4934
0.834074	82.439	122.1107
0.840118	82.409	121.7236
0.846206	82.378	121.3320
0.852338	82.346	120.9362
0.858514	82.314	120.5361
0.864735	82.282	120.1319
0.871001	82.249	119.7239
0.877313	82.216	119.3121
0.883670	82.182	118.8967
0.890074	82.147	118.4780
0.896524	82.113	118.0561
0.903020	82.077	117.6313
0.909564	82.041	117.2038
0.916155	82.005	116.7740
0.922794	81.968	116.3420
0.929481	81.931	115.9083
0.936216	81.893	115.4732
0.943000	81.855	115.0370
0.949834	81.816	114.6001
0.956717	81.777	114.1630
0.963649	81.737	113.7260
0.970632	81.697	113.2897
0.977666	81.656	112.8546
0.984750	81.615	112.4212
0.991886	81.573	111.9900
0.999074	81.531	111.5617
1.006314	81.489	111.1369
1.013606	81.445	110.7162
1.020951	81.402	110.3004
1.028349	81.358	109.8902
1.035801	81.313	109.4864
1.043307	81.268	109.0897
1.050867	81.223	108.7011
1.058482	81.177	108.3213
1.066152	81.130	107.9511
1.073878	81.083	107.5914
1.081660	81.035	107.2429
1.089498	80.987	106.9060
1.097393	80.937	106.5810
1.105345	80.887	106.2681
1.113355	80.835	105.9669
1.121423	80.782	105.6772
1.129549	80.727	105.3989
1.137734	80.671	105.1317
1.145979	80.613	104.8755
1.154283	80.553	104.6301
1.162647	80.492	104.3954
1.171072	80.430	104.1715
1.179558	80.366	103.9582
1.188106	80.301	103.7556
1.196715	80.234	103.5637
1.205387	80.167	103.3823
1.214122	80.098	103.2117
1.222920	80.029	103.0516
1.231782	79.959	102.9023
1.240708	79.888	102.7636
1.249699	79.817	102.6356
1.258754	79.745	102.5184
1.267876	79.673	102.4119
1.277063	79.601	102.3162
1.286318	79.529	102.2312
1.295639	79.458	102.1571
1.305027	79.386	102.0937
1.314484	79.315	102.0410
1.324009	79.245	101.9991
1.333604	79.176	101.9678
1.343268	79.107	101.9470
1.353002	79.040	101.9366
1.362806	78.975	101.9366
1.372681	78.911	101.9466
1.382628	78.849	101.9665
1.392647	78.789	101.9961
1.402739	78.731	102.0352
1.412904	78.676	102.0837
1.423142	78.624	102.1417
1.433455	78.575	102.2097
1.443843	78.528	102.2886
1.454305	78.484	102.3803
1.464844	78.444	102.4874
1.475459	78.405	102.6131
1.486150	78.369	102.7608
1.496920	78.335	102.9331
1.507767	78.303	103.1318
1.518693	78.272	103.3578
1.529698	78.243	103.6114
1.540783	78.216	103.8921
1.551948	78.191	104.1992
1.563194	78.168	104.5317
1.574521	78.147	104.8883
1.585931	78.128	105.2674
1.597423	78.111	105.6674
1.608999	78.097	106.0864
1.620658	78.085	106.5223
1.632402	78.076	106.9728
1.644232	78.070	107.4355
1.656146	78.067	107.9079
1.668147	78.067	108.3872
1.680235	78.071	108.8705
1.692411	78.078	109.3548
1.704675	78.089	109.8369
1.717028	78.103	110.3137
1.729470	78.122	110.7818
1.742003	78.145	111.2381
1.754626	78.172	111.6795
1.767341	78.205	112.1031
1.780147	78.242	112.5067
1.793047	78.284	112.8889
1.806040	78.333	113.2493
1.819128	78.387	113.5894
1.832310	78.449	113.9120
1.845587	78.517	114.2211
1.858961	78.593	114.5205
1.872432	78.677	114.8127
1.886001	78.768	115.0989
1.899667	78.867	115.3784
1.913433	78.974	115.6499
1.927299	79.087	115.9115
1.941265	79.207	116.1606
1.955332	79.333	116.3948
1.969501	79.465	116.6115
1.983773	79.602	116.8084
1.998148	79.743	116.9830
2.012627	79.888	117.1330
2.027212	80.037	117.2563
2.041902	80.188	117.3508
2.056698	80.341	117.4145
2.071602	80.495	117.4456
2.086614	80.651	117.4422
2.101734	80.806	117.4028
2.116964	80.960	117.3258
2.132304	81.113	117.2100
2.147756	81.265	117.0545
2.163320	81.414	116.8589
2.178996	81.562	116.6237
2.194786	81.708	116.3501
2.210690	81.852	116.0403
2.226710	81.997	115.6973
2.242845	82.141	115.3239
2.259098	82.286	114.9228
2.275468	82.432	114.4964
2.291957	82.579	114.0466
2.308566	82.726	113.5752
2.325295	82.874	113.0835
2.342145	83.023	112.5728
2.359117	83.171	112.0442
2.376212	83.319	111.4984
2.393431	83.467	110.9360
2.410775	83.614	110.3577
2.428244	83.761	109.7635
2.445840	83.906	109.1536
2.463564	84.049	108.5277
2.481416	84.191	107.8854
2.499397	84.330	107.2258
2.517509	84.468	106.5477
2.535752	84.603	105.8495
2.554127	84.735	105.1293
2.572635	84.865	104.3852
2.591277	84.993	103.6158
2.610055	85.118	102.8207
2.628968	85.241	102.0007
2.648019	85.362	101.1575
2.667208	85.481	100.2937
2.686535	85.597	99.4121
2.706003	85.712	98.5154
2.725612	85.825	97.6067
2.745363	85.935	96.6886
2.765257	86.043	95.7638
2.785295	86.149	94.8343
2.805478	86.253	93.9022
2.825808	86.355	92.9687
2.846285	86.454	92.0348
2.866910	86.552	91.1002
2.887685	86.646	90.1640
2.908611	86.739	89.2238
2.929688	86.829	88.2761
2.950917	86.916	87.3169
2.972301	87.001	86.3426
2.993839	87.083	85.3513
3.015534	87.162	84.3427
3.037386	87.238	83.3181
3.059396	87.311	82.2799
3.081565	87.382	81.2311
3.103896	87.449	80.1752
3.126388	87.514	79.1159
3.149043	87.575	78.0567
3.171862	87.634	77.0009
3.194847	87.690	75.9515
3.217998	87.743	74.9104
3.241317	87.794	73.8786
3.264805	87.841	72.8553
3.288463	87.885	71.8381
3.312293	87.926	70.8230
3.336295	87.964	69.8054
3.360471	87.998	68.7819
3.384822	88.028	67.7509
3.409350	88.056	66.7126
3.434056	88.079	65.6690
3.458940	88.100	64.6229
3.484005	88.116	63.5783
3.509252	88.130	62.5394
3.534681	88.140	61.5106
3.560295	88.146	60.4961
3.586094	88.150	59.4997
3.612081	88.150	58.5238
3.638255	88.146	57.5692
3.664620	88.139	56.6348
3.691175	88.128	55.7177
3.717923	88.113	54.8147
3.744864	88.095	53.9232
3.772001	88.072	53.0420
3.799335	88.045	52.1715
3.826866	88.015	51.3135
3.854597	87.981	50.4707
3.882529	87.944	49.6467
3.910664	87.905	48.8457
3.939002	87.863	48.0722
3.967546	87.818	47.3305
3.996296	87.771	46.6241
4.025255	87.721	45.9555
4.054423	87.669	45.3257
4.083804	87.613	44.7348
4.113396	87.554	44.1819
4.143204	87.492	43.6664
4.173227	87.428	43.1875
4.203468	87.362	42.7452
4.233928	87.296	42.3398
4.264609	87.229	41.9722
4.295512	87.164	41.6440
4.326639	87.100	41.3573
4.357992	87.038	41.1149
4.389572	86.978	40.9203
4.421380	86.921	40.7768
4.453419	86.866	40.6866
4.485691	86.813	40.6503
4.518196	86.762	40.6660
4.550936	86.715	40.7300
4.583914	86.672	40.8373
4.617131	86.633	40.9820
4.650589	86.600	41.1581
4.684289	86.575	41.3603
4.718233	86.557	41.5849
4.752424	86.547	41.8301
4.786862	86.547	42.0958
4.821549	86.555	42.3823
4.856488	86.572	42.6880
4.891680	86.598	43.0087
4.927127	86.631	43.3379
4.962831	86.671	43.6673
4.998794	86.719	43.9879
5.035017	86.772	44.2911
5.071503	86.832	44.5699
5.108253	86.897	44.8194
5.145270	86.969	45.0374
5.182555	87.047	45.2235
5.220110	87.131	45.3782
5.257937	87.220	45.5015
5.296038	87.313	45.5928
5.334415	87.410	45.6507
5.373071	87.508	45.6735
5.412006	87.607	45.6594
5.451224	87.706	45.6069
5.490725	87.804	45.5150
5.530514	87.901	45.3838
5.570590	87.997	45.2145
5.610957	88.091	45.0098
5.651616	88.184	44.7732
5.692570	88.275	44.5089
5.733821	88.364	44.2209
5.775370	88.449	43.9124
5.817221	88.530	43.5858
5.859375	88.608	43.2423
5.901834	88.681	42.8823
5.944602	88.750	42.5067
5.987679	88.815	42.1177
6.031068	88.876	41.7186
6.074771	88.932	41.3139
6.118792	88.985	40.9081
6.163131	89.035	40.5054
6.207792	89.080	40.1085
6.252776	89.122	39.7189
6.298086	89.161	39.3372
6.343725	89.195	38.9636
6.389694	89.227	38.5993
6.435996	89.256	38.2460
6.482634	89.283	37.9057
6.529610	89.309	37.5807
6.576926	89.333	37.2728
6.624585	89.356	36.9829
6.672590	89.379	36.7108
6.720942	89.401	36.4558
6.769645	89.422	36.2162
6.818700	89.444	35.9905
6.868111	89.467	35.7769
6.917881	89.491	35.5743
6.968010	89.516	35.3817
7.018504	89.543	35.1982
7.069362	89.571	35.0223
7.120590	89.602	34.8515
7.172189	89.634	34.6826
7.224161	89.667	34.5121
7.276511	89.703	34.3370
7.329239	89.740	34.1548
7.382350	89.778	33.9641
7.435845	89.818	33.7636
7.489729	89.859	33.5522
7.544002	89.901	33.3283
7.598669	89.943	33.0902
7.653732	89.984	32.8365
7.709194	90.025	32.5661
7.765058	90.065	32.2787
7.821327	90.105	31.9750
7.878004	90.142	31.6560
7.935091	90.178	31.3232
7.992592	90.212	30.9778
8.050510	90.243	30.6210
8.108847	90.272	30.2538
8.167607	90.297	29.8775
8.226793	90.320	29.4942
8.286408	90.340	29.1066
8.346454	90.357	28.7172
8.406936	90.370	28.3287
8.467856	90.381	27.9428
8.529218	90.389	27.5609
8.591024	90.395	27.1844
8.653278	90.398	26.8151
8.715983	90.399	26.4546
8.779143	90.399	26.1044
8.842760	90.397	25.7656
8.906839	90.394	25.4383
8.971381	90.391	25.1222
9.036392	90.387	24.8169
9.101873	90.383	24.5215
9.167829	90.380	24.2354
9.234263	90.378	23.9577
9.301178	90.376	23.6869
9.368578	90.375	23.4210
9.436467	90.376	23.1577
9.504847	90.378	22.8950
9.573723	90.380	22.6308
9.643099	90.384	22.3638
9.712976	90.388	22.0922
9.783361	90.391	21.8144
9.854255	90.394	21.5287
9.925663	90.394	21.2342
9.997588	90.393	20.9301
10.070035	90.390	20.6163
10.143007	90.385	20.2929
10.216507	90.378	19.9604
10.290540	90.369	19.6190
10.365109	90.358	19.2697
10.440219	90.346	18.9135
10.515873	90.331	18.5518
10.592076	90.316	18.1861
10.668830	90.300	17.8177
10.746141	90.282	17.4479
10.824012	90.264	17.0777
10.902447	90.245	16.7083
10.981451	90.226	16.3408
11.061027	90.207	15.9759
11.141180	90.187	15.6140
11.221913	90.168	15.2553
11.303232	90.149	14.8999
11.385140	90.131	14.5475
11.467641	90.114	14.1980
11.550741	90.097	13.8508
11.634442	90.082	13.5056
11.718750	90.068	13.1616
11.803669	90.056	12.8185
11.889203	90.045	12.4758
11.975357	90.035	12.1332
12.062136	90.027	11.7906
12.149543	90.020	11.4478
12.237583	90.015	11.1047
12.326262	90.011	10.7615
12.415583	90.008	10.4181
12.505552	90.007	10.0748
12.596172	90.006	9.7313
12.687449	90.007	9.3875
12.779387	90.009	9.0429
12.871992	90.013	8.6972
12.965268	90.018	8.3494
13.059220	90.025	7.9985
13.153852	90.033	7.6435
13.249170	90.043	7.2830
13.345179	90.055	6.9160
13.441884	90.068	6.5413
13.539289	90.082	6.1580
13.637401	90.097	5.7657
13.736223	90.112	5.3642
13.835761	90.126	4.9542
13.936021	90.140	4.5367
14.037007	90.153	4.1132
14.138725	90.164	3.6859
14.241180	90.174	3.2576
14.344377	90.181	2.8313
14.448323	90.186	2.4101
14.553021	90.190	1.9970
14.658478	90.192	1.5951
14.764700	90.193	1.2065
14.871691	90.193	0.8329
14.979457	90.193	0.4750
15.088005	90.194	0.1326
15.197339	90.195	-0.1959
15.307465	90.199	-0.5129
15.418389	90.204	-0.8218
15.530117	90.211	-1.1265
15.642655	90.220	-1.4314
15.756008	90.231	-1.7409
15.870182	90.243	-2.0587
15.985184	90.256	-2.3878
16.101019	90.268	-2.7301
16.217694	90.280	-3.0858
16.335214	90.290	-3.4539
16.453586	90.297	-3.8317
16.572815	90.301	-4.2150
16.692909	90.302	-4.5992
16.813872	90.300	-4.9785
16.935713	90.294	-5.3473
17.058436	90.286	-5.7009
17.182048	90.277	-6.0354
17.306556	90.267	-6.3487
17.431967	90.257	-6.6408
17.558286	90.248	-6.9142
17.685521	90.242	-7.1733
17.813677	90.239	-7.4250
17.942762	90.239	-7.6772
18.072783	90.243	-7.9384
18.203746	90.250	-8.2169
18.335658	90.259	-8.5196
18.468526	90.268	-8.8511
18.602356	90.277	-9.2130
18.737156	90.284	-9.6040
18.872934	90.287	-10.0192
19.009695	90.285	-10.4511
19.147447	90.278	-10.8899
19.286197	90.265	-11.3249
19.425953	90.248	-11.7451
19.566721	90.226	-12.1410
19.708510	90.203	-12.5061
19.851326	90.179	-12.8370
19.995177	90.157	-13.1351
20.140070	90.139	-13.4065
20.286013	90.127	-13.6614
20.433014	90.121	-13.9131
20.581080	90.122	-14.1766
20.730219	90.129	-14.4659
20.880439	90.140	-14.7929
21.031747	90.154	-15.1648
21.184152	90.167	-15.5834
21.337661	90.177	-16.0448
21.492282	90.182	-16.5393
21.648024	90.180	-17.0530
21.804895	90.170	-17.5690
21.962902	90.153	-18.0700
22.122054	90.130	-18.5398
22.282360	90.103	-18.9665
22.443827	90.076	-19.3433
22.606464	90.050	-19.6707
22.770280	90.030	-19.9561
22.935283	90.017	-20.2131
23.101481	90.012	-20.4599
23.268884	90.016	-20.7160
23.437500	90.026	-20.9996
23.607338	90.042	-21.3249
23.778406	90.059	-21.6992
23.950714	90.074	-22.1230
24.124271	90.085	-22.5895
24.299086	90.090	-23.0864
24.475167	90.087	-23.5978
24.652524	90.076	-24.1063
24.831166	90.058	-24.5960
25.011103	90.034	-25.0542
25.192344	90.007	-25.4731
25.374898	89.980	-25.8508
25.558775	89.954	-26.1908
25.743984	89.931	-26.5010
25.930536	89.913	-26.7924
26.118439	89.899	-27.0771
26.307704	89.890	-27.3660
26.498341	89.883	-27.6680
26.690359	89.879	-27.9889
26.883768	89.875	-28.3311
27.078579	89.872	-28.6946
27.274801	89.867	-29.0773
27.472446	89.861	-29.4760
27.671522	89.852	-29.8870
27.872042	89.841	-30.3069
28.074014	89.828	-30.7324
28.277450	89.813	-31.1607
28.482360	89.796	-31.5895
28.688755	89.777	-32.0167
28.896645	89.757	-32.4406
29.106042	89.736	-32.8600
29.316957	89.713	-33.2741
29.529400	89.691	-33.6825
29.743382	89.668	-34.0853
29.958915	89.645	-34.4827
30.176009	89.622	-34.8749
30.394677	89.600	-35.2616
30.614929	89.578	-35.6425
30.836778	89.556	-36.0169
31.060234	89.536	-36.3844
31.285309	89.516	-36.7447
31.512015	89.498	-37.0987
31.740364	89.482	-37.4481
31.970368	89.469	-37.7958
32.202039	89.458	-38.1459
32.435388	89.449	-38.5029
32.670428	89.442	-38.8716
32.907171	89.438	-39.2562
33.145630	89.434	-39.6599
33.385817	89.430	-40.0846
33.627745	89.425	-40.5300
33.871425	89.418	-40.9943
34.116871	89.409	-41.4737
34.364096	89.396	-41.9633
34.613113	89.379	-42.4575
34.863934	89.359	-42.9509
35.116572	89.335	-43.4389
35.371041	89.308	-43.9181
35.627354	89.279	-44.3866
35.885525	89.248	-44.8438
36.145566	89.214	-45.2892
36.407492	89.179	-45.7223
36.671316	89.143	-46.1420
36.937051	89.105	-46.5461
37.204712	89.066	-46.9320
37.474313	89.026	-47.2975
37.745867	88.988	-47.6418
38.019389	88.951	-47.9660
38.294893	88.917	-48.2740
38.572394	88.886	-48.5720
38.851905	88.860	-48.8675
39.133442	88.837	-49.1685
39.417019	88.818	-49.4816
39.702651	88.801	-49.8113
39.990353	88.786	-50.1592
40.280140	88.772	-50.5247
40.572026	88.758	-50.9056
40.866028	88.744	-51.2997
41.162160	88.730	-51.7051
41.460438	88.715	-52.1209
41.760877	88.699	-52.5464
42.063494	88.682	-52.9798
42.368303	88.663	-53.4176
42.675322	88.641	-53.8541
42.984565	88.616	-54.2821
43.296048	88.589	-54.6951
43.609789	88.561	-55.0892
43.925804	88.533	-55.4648
44.244108	88.506	-55.8265
44.564719	88.480	-56.1818
44.887654	88.456	-56.5384
45.212928	88.432	-56.9017
45.540560	88.408	-57.2740
45.870565	88.383	-57.6543
46.202962	88.356	-58.0402
46.537768	88.327	-58.4300
46.875000	88.298	-58.8233
47.214676	88.269	-59.2220
47.556813	88.239	-59.6288
47.901429	88.209	-60.0460
48.248542	88.178	-60.4743
48.598171	88.147	-60.9135
48.950334	88.116	-61.3625
49.305048	88.086	-61.8211
49.662333	88.056	-62.2898
50.022206	88.028	-62.7701
50.384688	88.000	-63.2635
50.749796	87.974	-63.7700
51.117550	87.948	-64.2878
51.487969	87.923	-64.8129
51.861072	87.898	-65.3396
52.236879	87.873	-65.8624
52.615409	87.849	-66.3770
52.996681	87.827	-66.8814
53.380717	87.806	-67.3758
53.767536	87.787	-67.8620
54.157158	87.769	-68.3413
54.549603	87.752	-68.8145
54.944892	87.735	-69.2811
55.343045	87.716	-69.7404
55.744084	87.698	-70.1931
56.148028	87.678	-70.6411
56.554900	87.657	-71.0876
56.964720	87.633	-71.5354
57.377510	87.608	-71.9860
57.793291	87.579	-72.4390
58.212085	87.548	-72.8929
58.633914	87.514	-73.3461
59.058799	87.478	-73.7985
59.486764	87.441	-74.2516
59.917829	87.403	-74.7080
60.352019	87.365	-75.1701
60.789354	87.327	-75.6393
61.229859	87.289	-76.1153
61.673556	87.252	-76.5967
62.120468	87.215	-77.0812
62.570618	87.178	-77.5664
63.024031	87.143	-78.0499
63.480729	87.108	-78.5296
63.940736	87.074	-79.0045
64.404077	87.040	-79.4746
64.870776	87.008	-79.9412
65.340856	86.976	-80.4056
65.814343	86.944	-80.8687
66.291261	86.911	-81.3301
66.771635	86.877	-81.7895
67.255489	86.843	-82.2469
67.742850	86.807	-82.7034
68.233743	86.771	-83.1609
68.728193	86.735	-83.6214
69.226226	86.698	-84.0862
69.727867	86.661	-84.5558
70.233144	86.623	-85.0299
70.742083	86.585	-85.5065
71.254709	86.547	-85.9832
71.771050	86.509	-86.4577
72.291132	86.473	-86.9283
72.814984	86.437	-87.3953
73.342631	86.403	-87.8605
73.874102	86.370	-88.3265
74.409424	86.338	-88.7952
74.948626	86.307	-89.2672
75.491734	86.275	-89.7422
76.038779	86.244	-90.2202
76.589787	86.213	-90.7018
77.144788	86.182	-91.1884
77.703811	86.151	-91.6815
78.266885	86.120	-92.1827
78.834039	86.090	-92.6934
79.405303	86.060	-93.2149
79.980706	86.031	-93.7477
80.560280	86.001	-94.2920
81.144053	85.970	-94.8477
81.732056	85.938	-95.4128
82.324320	85.903	-95.9828
82.920876	85.866	-96.5509
83.521755	85.827	-97.1111
84.126988	85.785	-97.6613
84.736607	85.742	-98.2023
85.350643	85.698	-98.7359
85.969129	85.653	-99.2633
86.592097	85.608	-99.7856
87.219579	85.562	-100.3044
87.851608	85.518	-100.8219
88.488217	85.474	-101.3398
89.129439	85.431	-101.8596
89.775308	85.389	-102.3811
90.425856	85.347	-102.9029
91.081119	85.307	-103.4227
91.741131	85.266	-103.9384
92.405925	85.226	-104.4494
93.075536	85.186	-104.9562
93.750000	85.146	-105.4607
94.429351	85.106	-105.9649
95.113625	85.065	-106.4706
95.802858	85.024	-106.9806
96.497085	84.984	-107.4977
97.196342	84.943	-108.0232
97.900667	84.902	-108.5562
98.610096	84.862	-109.0942
99.324665	84.823	-109.6344
100.044413	84.784	-110.1737
