* Measurement data measured by REW V5.31
* Source: EXCL: Microphone (USB Sound Device        ), MICROPHONE (Master Volume), L, volume: 0.390
* Format: 256k Log Swept Sine, 1 sweep at -18.0 dBFS with no timing reference
* Dated: Oct 17, 2024 12:23:16 AM
* REW Settings:
*  C-weighting compensation: Off
*  Target level: 75.0 dB
* Note: AFUL Cantor R
* Measurement: R AFUL Cantor
* Smoothing: 1/12 octave
* Frequency Step: 96 ppo
* Start Frequency: 0.36621094 Hz
*
* Freq(Hz)	SPL(dB)	Phase(degrees)
0.366211	90.529	160.9208
0.368865	90.524	160.9036
0.371538	90.516	160.8778
0.374230	90.505	160.8453
0.376942	90.494	160.8079
0.379673	90.482	160.7667
0.382424	90.469	160.7226
0.385196	90.455	160.6760
0.387987	90.442	160.6272
0.390798	90.428	160.5764
0.393630	90.414	160.5237
0.396483	90.400	160.4690
0.399356	90.386	160.4123
0.402250	90.372	160.3538
0.405165	90.358	160.2933
0.408101	90.344	160.2309
0.411058	90.329	160.1664
0.414037	90.315	160.1000
0.417037	90.300	160.0316
0.420059	90.285	159.9612
0.423103	90.270	159.8887
0.426169	90.255	159.8142
0.429257	90.240	159.7376
0.432368	90.225	159.6589
0.435501	90.210	159.5781
0.438656	90.194	159.4952
0.441835	90.179	159.4102
0.445037	90.163	159.3230
0.448262	90.147	159.2337
0.451510	90.131	159.1422
0.454782	90.116	159.0485
0.458077	90.099	158.9526
0.461397	90.083	158.8545
0.464740	90.067	158.7542
0.468108	90.050	158.6517
0.471500	90.034	158.5470
0.474917	90.017	158.4399
0.478358	90.000	158.3307
0.481825	89.983	158.2192
0.485316	89.966	158.1055
0.488833	89.949	157.9895
0.492375	89.932	157.8712
0.495943	89.914	157.7507
0.499537	89.897	157.6279
0.503157	89.879	157.5028
0.506803	89.861	157.3755
0.510475	89.843	157.2460
0.514175	89.825	157.1142
0.517900	89.807	156.9801
0.521653	89.789	156.8439
0.525434	89.770	156.7054
0.529241	89.752	156.5647
0.533076	89.733	156.4219
0.536939	89.714	156.2769
0.540830	89.695	156.1297
0.544749	89.676	155.9804
0.548696	89.656	155.8291
0.552673	89.637	155.6757
0.556677	89.617	155.5202
0.560711	89.598	155.3628
0.564774	89.578	155.2034
0.568867	89.558	155.0421
0.572989	89.538	154.8789
0.577141	89.517	154.7139
0.581324	89.497	154.5471
0.585536	89.476	154.3787
0.589779	89.456	154.2085
0.594053	89.435	154.0368
0.598358	89.414	153.8636
0.602694	89.393	153.6890
0.607061	89.371	153.5130
0.611460	89.350	153.3357
0.615891	89.328	153.1573
0.620354	89.306	152.9777
0.624849	89.284	152.7972
0.629377	89.262	152.6158
0.633938	89.240	152.4337
0.638532	89.217	152.2509
0.643159	89.195	152.0676
0.647819	89.172	151.8840
0.652514	89.149	151.7001
0.657242	89.126	151.5161
0.662005	89.103	151.3323
0.666802	89.079	151.1487
0.671634	89.056	150.9655
0.676501	89.032	150.7829
0.681403	89.008	150.6012
0.686341	88.984	150.4205
0.691314	88.959	150.2410
0.696324	88.935	150.0629
0.701370	88.910	149.8865
0.706452	88.885	149.7118
0.711571	88.859	149.5391
0.716728	88.833	149.3684
0.721921	88.806	149.1996
0.727153	88.778	149.0325
0.732422	88.748	148.8665
0.737729	88.717	148.7011
0.743075	88.684	148.5355
0.748460	88.650	148.3692
0.753883	88.614	148.2016
0.759346	88.578	148.0326
0.764849	88.540	147.8619
0.770391	88.501	147.6893
0.775974	88.462	147.5148
0.781597	88.422	147.3384
0.787261	88.381	147.1601
0.792966	88.340	146.9798
0.798712	88.298	146.7975
0.804500	88.255	146.6134
0.810329	88.211	146.4273
0.816201	88.167	146.2393
0.822116	88.122	146.0495
0.828073	88.076	145.8578
0.834074	88.030	145.6644
0.840118	87.983	145.4692
0.846206	87.935	145.2722
0.852338	87.886	145.0737
0.858514	87.837	144.8735
0.864735	87.787	144.6718
0.871001	87.737	144.4686
0.877313	87.686	144.2641
0.883670	87.634	144.0583
0.890074	87.582	143.8514
0.896524	87.529	143.6434
0.903020	87.475	143.4345
0.909564	87.421	143.2248
0.916155	87.366	143.0144
0.922794	87.310	142.8036
0.929481	87.254	142.5925
0.936216	87.198	142.3813
0.943000	87.141	142.1702
0.949834	87.083	141.9594
0.956717	87.025	141.7492
0.963649	86.967	141.5398
0.970632	86.908	141.3316
0.977666	86.848	141.1248
0.984750	86.789	140.9198
0.991886	86.728	140.7169
0.999074	86.668	140.5165
1.006314	86.607	140.3190
1.013606	86.546	140.1249
1.020951	86.484	139.9346
1.028349	86.422	139.7485
1.035801	86.360	139.5673
1.043307	86.298	139.3914
1.050867	86.235	139.2216
1.058482	86.173	139.0585
1.066152	86.110	138.9026
1.073878	86.047	138.7549
1.081660	85.984	138.6162
1.089498	85.920	138.4872
1.097393	85.856	138.3691
1.105345	85.791	138.2628
1.113355	85.725	138.1692
1.121423	85.658	138.0889
1.129549	85.590	138.0224
1.137734	85.521	137.9703
1.145979	85.450	137.9327
1.154283	85.378	137.9097
1.162647	85.305	137.9015
1.171072	85.230	137.9081
1.179558	85.155	137.9295
1.188106	85.078	137.9658
1.196715	85.001	138.0168
1.205387	84.923	138.0825
1.214122	84.843	138.1628
1.222920	84.764	138.2575
1.231782	84.684	138.3665
1.240708	84.603	138.4897
1.249699	84.522	138.6266
1.258754	84.441	138.7769
1.267876	84.360	138.9405
1.277063	84.279	139.1167
1.286318	84.198	139.3050
1.295639	84.117	139.5050
1.305027	84.037	139.7159
1.314484	83.958	139.9371
1.324009	83.879	140.1676
1.333604	83.802	140.4065
1.343268	83.726	140.6529
1.353002	83.651	140.9055
1.362806	83.577	141.1631
1.372681	83.506	141.4244
1.382628	83.436	141.6879
1.392647	83.368	141.9520
1.402739	83.303	142.2151
1.412904	83.241	142.4759
1.423142	83.181	142.7330
1.433455	83.124	142.9855
1.443843	83.071	143.2332
1.454305	83.020	143.4769
1.464844	82.973	143.7187
1.475459	82.929	143.9614
1.486150	82.888	144.2081
1.496920	82.851	144.4615
1.507767	82.816	144.7231
1.518693	82.784	144.9938
1.529698	82.755	145.2735
1.540783	82.729	145.5616
1.551948	82.706	145.8572
1.563194	82.685	146.1591
1.574521	82.667	146.4660
1.585931	82.652	146.7763
1.597423	82.639	147.0884
1.608999	82.629	147.4007
1.620658	82.621	147.7114
1.632402	82.615	148.0186
1.644232	82.612	148.3206
1.656146	82.611	148.6154
1.668147	82.612	148.9011
1.680235	82.615	149.1757
1.692411	82.621	149.4371
1.704675	82.628	149.6833
1.717028	82.637	149.9123
1.729470	82.648	150.1219
1.742003	82.660	150.3103
1.754626	82.674	150.4753
1.767341	82.689	150.6150
1.780147	82.706	150.7278
1.793047	82.724	150.8123
1.806040	82.744	150.8677
1.819128	82.766	150.8937
1.832310	82.790	150.8911
1.845587	82.817	150.8609
1.858961	82.847	150.8050
1.872432	82.880	150.7245
1.886001	82.916	150.6206
1.899667	82.956	150.4939
1.913433	82.999	150.3448
1.927299	83.046	150.1736
1.941265	83.095	149.9801
1.955332	83.148	149.7645
1.969501	83.202	149.5267
1.983773	83.259	149.2665
1.998148	83.318	148.9839
2.012627	83.379	148.6785
2.027212	83.441	148.3502
2.041902	83.504	147.9986
2.056698	83.567	147.6233
2.071602	83.631	147.2237
2.086614	83.694	146.7992
2.101734	83.757	146.3489
2.116964	83.819	145.8718
2.132304	83.880	145.3667
2.147756	83.939	144.8321
2.163320	83.997	144.2659
2.178996	84.053	143.6660
2.194786	84.107	143.0301
2.210690	84.159	142.3558
2.226710	84.211	141.6418
2.242845	84.261	140.8873
2.259098	84.311	140.0930
2.275468	84.360	139.2603
2.291957	84.408	138.3913
2.308566	84.456	137.4883
2.325295	84.504	136.5540
2.342145	84.551	135.5911
2.359117	84.598	134.6022
2.376212	84.644	133.5899
2.393431	84.689	132.5566
2.410775	84.734	131.5046
2.428244	84.779	130.4359
2.445840	84.822	129.3521
2.463564	84.865	128.2544
2.481416	84.907	127.1434
2.499397	84.948	126.0190
2.517509	84.988	124.8797
2.535752	85.027	123.7227
2.554127	85.065	122.5437
2.572635	85.103	121.3373
2.591277	85.139	120.0979
2.610055	85.174	118.8214
2.628968	85.208	117.5059
2.648019	85.241	116.1518
2.667208	85.272	114.7614
2.686535	85.303	113.3380
2.706003	85.333	111.8861
2.725612	85.362	110.4105
2.745363	85.389	108.9165
2.765257	85.416	107.4092
2.785295	85.442	105.8938
2.805478	85.466	104.3752
2.825808	85.490	102.8576
2.846285	85.513	101.3445
2.866910	85.535	99.8377
2.887685	85.557	98.3373
2.908611	85.577	96.8408
2.929688	85.597	95.3429
2.950917	85.616	93.8368
2.972301	85.634	92.3155
2.993839	85.651	90.7740
3.015534	85.667	89.2101
3.037386	85.683	87.6243
3.059396	85.697	86.0193
3.081565	85.710	84.3993
3.103896	85.721	82.7699
3.126388	85.731	81.1374
3.149043	85.740	79.5084
3.171862	85.746	77.8899
3.194847	85.751	76.2884
3.217998	85.754	74.7094
3.241317	85.754	73.1567
3.264805	85.753	71.6316
3.288463	85.749	70.1321
3.312293	85.743	68.6533
3.336295	85.734	67.1886
3.360471	85.724	65.7321
3.384822	85.710	64.2802
3.409350	85.695	62.8322
3.434056	85.677	61.3896
3.458940	85.657	59.9564
3.484005	85.634	58.5380
3.509252	85.609	57.1412
3.534681	85.581	55.7736
3.560295	85.551	54.4433
3.586094	85.517	53.1580
3.612081	85.481	51.9244
3.638255	85.441	50.7470
3.664620	85.398	49.6275
3.691175	85.350	48.5645
3.717923	85.298	47.5551
3.744864	85.242	46.5963
3.772001	85.183	45.6859
3.799335	85.120	44.8232
3.826866	85.055	44.0093
3.854597	84.989	43.2464
3.882529	84.924	42.5386
3.910664	84.859	41.8910
3.939002	84.796	41.3099
3.967546	84.735	40.8022
3.996296	84.678	40.3758
4.025255	84.624	40.0378
4.054423	84.572	39.7944
4.083804	84.523	39.6493
4.113396	84.476	39.6025
4.143204	84.433	39.6512
4.173227	84.393	39.7892
4.203468	84.360	40.0085
4.233928	84.335	40.2995
4.264609	84.319	40.6517
4.295512	84.316	41.0553
4.326639	84.327	41.5018
4.357992	84.354	41.9852
4.389572	84.398	42.5031
4.421380	84.461	43.0552
4.453419	84.541	43.6406
4.485691	84.639	44.2541
4.518196	84.752	44.8851
4.550936	84.880	45.5186
4.583914	85.021	46.1365
4.617131	85.172	46.7204
4.650589	85.333	47.2531
4.684289	85.503	47.7205
4.718233	85.679	48.1130
4.752424	85.863	48.4266
4.786862	86.055	48.6622
4.821549	86.254	48.8242
4.856488	86.461	48.9169
4.891680	86.674	48.9435
4.927127	86.890	48.9056
4.962831	87.108	48.8032
4.998794	87.326	48.6356
5.035017	87.541	48.4014
5.071503	87.751	48.0994
5.108253	87.954	47.7288
5.145270	88.152	47.2904
5.182555	88.343	46.7870
5.220110	88.527	46.2239
5.257937	88.705	45.6085
5.296038	88.877	44.9490
5.334415	89.041	44.2537
5.373071	89.197	43.5295
5.412006	89.344	42.7813
5.451224	89.483	42.0112
5.490725	89.611	41.2192
5.530514	89.730	40.4038
5.570590	89.838	39.5648
5.610957	89.936	38.7048
5.651616	90.025	37.8301
5.692570	90.103	36.9489
5.733821	90.172	36.0705
5.775370	90.231	35.2028
5.817221	90.281	34.3517
5.859375	90.320	33.5195
5.901834	90.349	32.7059
5.944602	90.369	31.9101
5.987679	90.378	31.1332
6.031068	90.378	30.3791
6.074771	90.369	29.6545
6.118792	90.352	28.9671
6.163131	90.328	28.3250
6.207792	90.296	27.7345
6.252776	90.258	27.1995
6.298086	90.212	26.7216
6.343725	90.161	26.3014
6.389694	90.104	25.9392
6.435996	90.043	25.6363
6.482634	89.980	25.3950
6.529610	89.916	25.2182
6.576926	89.852	25.1091
6.624585	89.789	25.0704
6.672590	89.728	25.1024
6.720942	89.670	25.2025
6.769645	89.615	25.3648
6.818700	89.564	25.5814
6.868111	89.520	25.8435
6.917881	89.484	26.1434
6.968010	89.456	26.4749
7.018504	89.438	26.8328
7.069362	89.429	27.2110
7.120590	89.428	27.6008
7.172189	89.436	27.9910
7.224161	89.451	28.3696
7.276511	89.472	28.7253
7.329239	89.501	29.0497
7.382350	89.535	29.3373
7.435845	89.575	29.5853
7.489729	89.618	29.7917
7.544002	89.664	29.9548
7.598669	89.710	30.0729
7.653732	89.755	30.1447
7.709194	89.798	30.1697
7.765058	89.838	30.1492
7.821327	89.875	30.0869
7.878004	89.907	29.9884
7.935091	89.935	29.8606
7.992592	89.957	29.7102
8.050510	89.972	29.5430
8.108847	89.981	29.3633
8.167607	89.983	29.1758
8.226793	89.979	28.9858
8.286408	89.969	28.8002
8.346454	89.955	28.6263
8.406936	89.935	28.4704
8.467856	89.912	28.3369
8.529218	89.886	28.2285
8.591024	89.858	28.1462
8.653278	89.829	28.0905
8.715983	89.800	28.0615
8.779143	89.774	28.0590
8.842760	89.751	28.0812
8.906839	89.732	28.1246
8.971381	89.718	28.1829
9.036392	89.709	28.2480
9.101873	89.707	28.3110
9.167829	89.711	28.3641
9.234263	89.723	28.3997
9.301178	89.742	28.4104
9.368578	89.766	28.3879
9.436467	89.796	28.3235
9.504847	89.830	28.2097
9.573723	89.868	28.0411
9.643099	89.907	27.8147
9.712976	89.947	27.5296
9.783361	89.985	27.1855
9.854255	90.019	26.7830
9.925663	90.048	26.3239
9.997588	90.071	25.8114
10.070035	90.086	25.2512
10.143007	90.094	24.6507
10.216507	90.094	24.0176
10.290540	90.086	23.3594
10.365109	90.068	22.6832
10.440219	90.043	21.9974
10.515873	90.010	21.3116
10.592076	89.971	20.6355
10.668830	89.925	19.9777
10.746141	89.873	19.3451
10.824012	89.818	18.7442
10.902447	89.759	18.1814
10.981451	89.700	17.6623
11.061027	89.640	17.1906
11.141180	89.583	16.7677
11.221913	89.528	16.3932
11.303232	89.479	16.0646
11.385140	89.437	15.7787
11.467641	89.403	15.5304
11.550741	89.378	15.3122
11.634442	89.363	15.1151
11.718750	89.360	14.9291
11.803669	89.367	14.7445
11.889203	89.386	14.5518
11.975357	89.415	14.3411
12.062136	89.454	14.1030
12.149543	89.502	13.8299
12.237583	89.557	13.5160
12.326262	89.618	13.1569
12.415583	89.683	12.7496
12.505552	89.750	12.2929
12.596172	89.818	11.7872
12.687449	89.886	11.2348
12.779387	89.951	10.6392
12.871992	90.013	10.0046
12.965268	90.071	9.3364
13.059220	90.123	8.6411
13.153852	90.169	7.9261
13.249170	90.208	7.1989
13.345179	90.239	6.4674
13.441884	90.263	5.7401
13.539289	90.279	5.0261
13.637401	90.287	4.3339
13.736223	90.287	3.6720
13.835761	90.280	3.0490
13.936021	90.266	2.4732
14.037007	90.247	1.9515
14.138725	90.222	1.4900
14.241180	90.194	1.0936
14.344377	90.164	0.7654
14.448323	90.134	0.5062
14.553021	90.106	0.3143
14.658478	90.081	0.1855
14.764700	90.061	0.1132
14.871691	90.048	0.0879
14.979457	90.042	0.0979
15.088005	90.045	0.1300
15.197339	90.056	0.1705
15.307465	90.076	0.2053
15.418389	90.102	0.2213
15.530117	90.134	0.2072
15.642655	90.170	0.1545
15.756008	90.208	0.0572
15.870182	90.246	-0.0875
15.985184	90.282	-0.2792
16.101019	90.315	-0.5143
16.217694	90.342	-0.7874
16.335214	90.364	-1.0910
16.453586	90.379	-1.4164
16.572815	90.387	-1.7546
16.692909	90.389	-2.0973
16.813872	90.386	-2.4367
16.935713	90.377	-2.7666
17.058436	90.365	-3.0832
17.182048	90.350	-3.3846
17.306556	90.334	-3.6712
17.431967	90.318	-3.9454
17.558286	90.302	-4.2114
17.685521	90.287	-4.4744
17.813677	90.273	-4.7398
17.942762	90.261	-5.0132
18.072783	90.250	-5.2987
18.203746	90.239	-5.5992
18.335658	90.228	-5.9161
18.468526	90.216	-6.2489
18.602356	90.203	-6.5956
18.737156	90.189	-6.9531
18.872934	90.173	-7.3174
19.009695	90.157	-7.6848
19.147447	90.139	-8.0517
19.286197	90.122	-8.4156
19.425953	90.105	-8.7752
19.566721	90.089	-9.1305
19.708510	90.074	-9.4828
19.851326	90.062	-9.8343
19.995177	90.051	-10.1878
20.140070	90.042	-10.5463
20.286013	90.035	-10.9121
20.433014	90.030	-11.2868
20.581080	90.025	-11.6708
20.730219	90.020	-12.0631
20.880439	90.014	-12.4615
21.031747	90.008	-12.8625
21.184152	90.001	-13.2620
21.337661	89.993	-13.6556
21.492282	89.984	-14.0390
21.648024	89.974	-14.4089
21.804895	89.965	-14.7630
21.962902	89.957	-15.1007
22.122054	89.950	-15.4235
22.282360	89.946	-15.7350
22.443827	89.944	-16.0405
22.606464	89.946	-16.3471
22.770280	89.951	-16.6630
22.935283	89.958	-16.9960
23.101481	89.967	-17.3534
23.268884	89.976	-17.7402
23.437500	89.984	-18.1585
23.607338	89.988	-18.6071
23.778406	89.988	-19.0810
23.950714	89.982	-19.5718
24.124271	89.970	-20.0686
24.299086	89.951	-20.5595
24.475167	89.927	-21.0330
24.652524	89.899	-21.4802
24.831166	89.870	-21.8961
25.011103	89.841	-22.2814
25.192344	89.816	-22.6420
25.374898	89.797	-22.9890
25.558775	89.783	-23.3366
25.743984	89.774	-23.6993
25.930536	89.771	-24.0893
26.118439	89.769	-24.5140
26.307704	89.768	-24.9741
26.498341	89.765	-25.4640
26.690359	89.759	-25.9722
26.883768	89.747	-26.4840
27.078579	89.732	-26.9843
27.274801	89.714	-27.4602
27.472446	89.696	-27.9038
27.671522	89.679	-28.3131
27.872042	89.664	-28.6920
28.074014	89.654	-29.0482
28.277450	89.648	-29.3915
28.482360	89.644	-29.7297
28.688755	89.643	-30.0670
28.896645	89.640	-30.4026
29.106042	89.637	-30.7309
29.316957	89.630	-31.0435
29.529400	89.621	-31.3318
29.743382	89.611	-31.5897
29.958915	89.601	-31.8154
30.176009	89.591	-32.0126
30.394677	89.583	-32.1896
30.614929	89.577	-32.3570
30.836778	89.573	-32.5256
31.060234	89.568	-32.7033
31.285309	89.561	-32.8938
31.512015	89.550	-33.0967
31.740364	89.536	-33.3080
31.970368	89.517	-33.5231
32.202039	89.495	-33.7383
32.435388	89.470	-33.9531
32.670428	89.443	-34.1706
32.907171	89.416	-34.3973
33.145630	89.389	-34.6417
33.385817	89.363	-34.9118
33.627745	89.336	-35.2137
33.871425	89.308	-35.5502
34.116871	89.278	-35.9206
34.364096	89.247	-36.3217
34.613113	89.214	-36.7485
34.863934	89.180	-37.1962
35.116572	89.147	-37.6612
35.371041	89.114	-38.1413
35.627354	89.084	-38.6359
35.885525	89.056	-39.1451
36.145566	89.030	-39.6688
36.407492	89.007	-40.2060
36.671316	88.987	-40.7537
36.937051	88.968	-41.3077
37.204712	88.951	-41.8626
37.474313	88.936	-42.4128
37.745867	88.923	-42.9534
38.019389	88.911	-43.4813
38.294893	88.902	-43.9948
38.572394	88.895	-44.4942
38.851905	88.890	-44.9807
39.133442	88.885	-45.4559
39.417019	88.881	-45.9209
39.702651	88.877	-46.3760
39.990353	88.872	-46.8206
40.280140	88.866	-47.2536
40.572026	88.858	-47.6740
40.866028	88.849	-48.0812
41.162160	88.838	-48.4760
41.460438	88.827	-48.8607
41.760877	88.815	-49.2393
42.063494	88.804	-49.6173
42.368303	88.793	-50.0013
42.675322	88.782	-50.3973
42.984565	88.771	-50.8098
43.296048	88.758	-51.2403
43.609789	88.744	-51.6871
43.925804	88.727	-52.1452
44.244108	88.708	-52.6087
44.564719	88.688	-53.0723
44.887654	88.667	-53.5331
45.212928	88.646	-53.9909
45.540560	88.625	-54.4468
45.870565	88.604	-54.9021
46.202962	88.584	-55.3560
46.537768	88.563	-55.8066
46.875000	88.542	-56.2523
47.214676	88.522	-56.6933
47.556813	88.502	-57.1327
47.901429	88.482	-57.5748
48.248542	88.462	-58.0228
48.598171	88.441	-58.4756
48.950334	88.417	-58.9276
49.305048	88.390	-59.3715
49.662333	88.363	-59.8016
50.022206	88.335	-60.2174
50.384688	88.309	-60.6240
50.749796	88.285	-61.0298
51.117550	88.262	-61.4420
51.487969	88.240	-61.8633
51.861072	88.218	-62.2911
52.236879	88.195	-62.7192
52.615409	88.172	-63.1416
52.996681	88.148	-63.5555
53.380717	88.126	-63.9616
53.767536	88.105	-64.3627
54.157158	88.084	-64.7614
54.549603	88.063	-65.1586
54.944892	88.041	-65.5540
55.343045	88.019	-65.9475
55.744084	87.996	-66.3409
56.148028	87.972	-66.7370
56.554900	87.947	-67.1384
56.964720	87.919	-67.5452
57.377510	87.889	-67.9557
57.793291	87.858	-68.3684
58.212085	87.826	-68.7843
58.633914	87.794	-69.2069
59.058799	87.762	-69.6409
59.486764	87.730	-70.0890
59.917829	87.698	-70.5515
60.352019	87.666	-71.0271
60.789354	87.635	-71.5146
61.229859	87.604	-72.0134
61.673556	87.572	-72.5215
62.120468	87.540	-73.0343
62.570618	87.507	-73.5448
63.024031	87.472	-74.0455
63.480729	87.437	-74.5316
63.940736	87.402	-75.0018
64.404077	87.368	-75.4574
64.870776	87.334	-75.9008
65.340856	87.300	-76.3348
65.814343	87.267	-76.7630
66.291261	87.233	-77.1896
66.771635	87.199	-77.6182
67.255489	87.165	-78.0499
67.742850	87.128	-78.4826
68.233743	87.089	-78.9128
68.728193	87.049	-79.3374
69.226226	87.009	-79.7551
69.727867	86.968	-80.1669
70.233144	86.928	-80.5752
70.742083	86.889	-80.9835
71.254709	86.851	-81.3953
71.771050	86.813	-81.8137
72.291132	86.776	-82.2403
72.814984	86.739	-82.6740
73.342631	86.702	-83.1122
73.874102	86.665	-83.5526
74.409424	86.628	-83.9957
74.948626	86.592	-84.4436
75.491734	86.556	-84.8971
76.038779	86.518	-85.3524
76.589787	86.481	-85.8034
77.144788	86.444	-86.2474
77.703811	86.408	-86.6885
78.266885	86.374	-87.1356
78.834039	86.342	-87.5972
79.405303	86.311	-88.0786
79.980706	86.279	-88.5802
80.560280	86.245	-89.0988
81.144053	86.211	-89.6289
81.732056	86.175	-90.1653
82.324320	86.140	-90.7059
82.920876	86.104	-91.2507
83.521755	86.068	-91.7991
84.126988	86.032	-92.3480
84.736607	85.995	-92.8933
85.350643	85.958	-93.4325
85.969129	85.919	-93.9656
86.592097	85.878	-94.4938
87.219579	85.835	-95.0159
87.851608	85.788	-95.5273
88.488217	85.737	-96.0219
89.129439	85.684	-96.4957
89.775308	85.629	-96.9485
90.425856	85.575	-97.3829
91.081119	85.521	-97.8026
91.741131	85.470	-98.2121
92.405925	85.423	-98.6171
93.075536	85.379	-99.0255
93.750000	85.339	-99.4447
94.429351	85.301	-99.8807
95.113625	85.265	-100.3370
95.802858	85.228	-100.8121
96.497085	85.188	-101.2980
97.196342	85.146	-101.7838
97.900667	85.103	-102.2630
98.610096	85.059	-102.7367
99.324665	85.016	-103.2090
100.044413	84.972	-103.6836
