* Measurement data measured by REW V5.30 beta 5
* Source: EXCL: Microphone (Realtek(R) Audio), MICROPHONE (Master Volume), L, volume: 1.000
* Format: 256k Log Swept Sine, 1 sweep at -1.0 dBFS with no timing reference
* Dated: Dec 21, 2023 12:17:49 AM
* REW Settings:
*  C-weighting compensation: Off
*  Target level: 75.0 dB
* Note: AFUL MagicOne L
* Measurement: L AFUL MagicOne
* Smoothing: 1/12 octave
* Frequency Step: 96 ppo
* Start Frequency: 0.36621094 Hz
*
* Freq(Hz) SPL(dB) Phase(degrees)
0.366211 78.027 -130.2355
0.368865 78.049 -130.3162
0.371538 78.080 -130.4365
0.374230 78.118 -130.5863
0.376942 78.161 -130.7570
0.379673 78.208 -130.9424
0.382424 78.256 -131.1383
0.385196 78.305 -131.3422
0.387987 78.356 -131.5526
0.390798 78.407 -131.7686
0.393630 78.458 -131.9897
0.396483 78.510 -132.2157
0.399356 78.562 -132.4463
0.402250 78.615 -132.6815
0.405165 78.668 -132.9211
0.408101 78.721 -133.1651
0.411058 78.775 -133.4135
0.414037 78.829 -133.6661
0.417037 78.884 -133.9228
0.420059 78.939 -134.1835
0.423103 78.994 -134.4483
0.426169 79.050 -134.7169
0.429257 79.106 -134.9894
0.432367 79.163 -135.2656
0.435501 79.220 -135.5453
0.438656 79.278 -135.8286
0.441835 79.335 -136.1152
0.445037 79.394 -136.4052
0.448262 79.452 -136.6983
0.451510 79.512 -136.9944
0.454782 79.571 -137.2935
0.458077 79.631 -137.5954
0.461397 79.692 -137.9000
0.464740 79.752 -138.2072
0.468108 79.814 -138.5168
0.471500 79.876 -138.8287
0.474917 79.938 -139.1428
0.478358 80.000 -139.4589
0.481825 80.064 -139.7769
0.485316 80.127 -140.0967
0.488833 80.191 -140.4181
0.492375 80.256 -140.7410
0.495943 80.321 -141.0652
0.499537 80.386 -141.3906
0.503157 80.452 -141.7171
0.506803 80.518 -142.0445
0.510475 80.585 -142.3726
0.514174 80.653 -142.7014
0.517900 80.720 -143.0307
0.521653 80.789 -143.3603
0.525433 80.858 -143.6901
0.529241 80.927 -144.0200
0.533076 80.997 -144.3498
0.536939 81.067 -144.6794
0.540830 81.138 -145.0086
0.544749 81.209 -145.3373
0.548696 81.281 -145.6653
0.552673 81.354 -145.9926
0.556677 81.426 -146.3190
0.560711 81.500 -146.6444
0.564774 81.574 -146.9686
0.568867 81.648 -147.2915
0.572989 81.724 -147.6130
0.577141 81.799 -147.9330
0.581324 81.875 -148.2513
0.585536 81.952 -148.5678
0.589779 82.029 -148.8825
0.594053 82.107 -149.1951
0.598358 82.186 -149.5057
0.602694 82.264 -149.8140
0.607061 82.344 -150.1200
0.611460 82.424 -150.4236
0.615891 82.505 -150.7247
0.620354 82.586 -151.0231
0.624849 82.668 -151.3189
0.629377 82.750 -151.6118
0.633938 82.833 -151.9019
0.638532 82.917 -152.1890
0.643159 83.001 -152.4730
0.647819 83.086 -152.7540
0.652514 83.172 -153.0317
0.657242 83.258 -153.3061
0.662005 83.345 -153.5771
0.666802 83.432 -153.8448
0.671634 83.520 -154.1090
0.676501 83.609 -154.3697
0.681403 83.698 -154.6269
0.686341 83.788 -154.8807
0.691314 83.878 -155.1313
0.696324 83.969 -155.3791
0.701369 84.061 -155.6248
0.706452 84.153 -155.8699
0.711571 84.244 -156.1167
0.716727 84.336 -156.3689
0.721921 84.427 -156.6318
0.727153 84.516 -156.9120
0.732422 84.603 -157.2158
0.737729 84.688 -157.5471
0.743075 84.770 -157.9040
0.748460 84.851 -158.2818
0.753883 84.930 -158.6752
0.759346 85.009 -159.0798
0.764849 85.087 -159.4925
0.770391 85.164 -159.9109
0.775974 85.241 -160.3340
0.781597 85.318 -160.7607
0.787261 85.394 -161.1905
0.792965 85.471 -161.6231
0.798712 85.547 -162.0582
0.804499 85.623 -162.4955
0.810329 85.698 -162.9349
0.816201 85.774 -163.3762
0.822116 85.849 -163.8193
0.828073 85.924 -164.2641
0.834073 85.999 -164.7103
0.840118 86.074 -165.1579
0.846205 86.149 -165.6067
0.852337 86.223 -166.0567
0.858514 86.297 -166.5078
0.864735 86.372 -166.9598
0.871001 86.446 -167.4128
0.877313 86.519 -167.8665
0.883670 86.593 -168.3210
0.890074 86.667 -168.7762
0.896523 86.740 -169.2321
0.903020 86.814 -169.6886
0.909564 86.887 -170.1457
0.916155 86.960 -170.6034
0.922793 87.034 -171.0617
0.929480 87.107 -171.5206
0.936216 87.180 -171.9801
0.943000 87.253 -172.4402
0.949833 87.326 -172.9010
0.956716 87.399 -173.3626
0.963649 87.472 -173.8249
0.970632 87.546 -174.2881
0.977666 87.619 -174.7523
0.984750 87.692 -175.2174
0.991886 87.766 -175.6837
0.999074 87.839 -176.1512
1.006313 87.913 -176.6201
1.013605 87.987 -177.0905
1.020950 88.061 -177.5626
1.028349 88.136 -178.0365
1.035801 88.211 -178.5124
1.043306 88.286 -178.9905
1.050867 88.361 -179.4711
1.058482 88.437 -179.9543
1.066152 88.513 179.5594
1.073878 88.589 179.0698
1.081659 88.666 178.5763
1.089498 88.743 178.0784
1.097393 88.820 177.5754
1.105345 88.898 177.0668
1.113355 88.975 176.5518
1.121422 89.053 176.0302
1.129549 89.130 175.5016
1.137734 89.207 174.9663
1.145978 89.285 174.4243
1.154283 89.362 173.8758
1.162647 89.439 173.3212
1.171072 89.515 172.7608
1.179558 89.592 172.1949
1.188106 89.668 171.6240
1.196715 89.744 171.0483
1.205387 89.821 170.4683
1.214122 89.896 169.8844
1.222920 89.972 169.2968
1.231781 90.048 168.7061
1.240708 90.123 168.1125
1.249698 90.199 167.5164
1.258754 90.274 166.9182
1.267875 90.349 166.3183
1.277063 90.424 165.7169
1.286317 90.499 165.1146
1.295638 90.574 164.5115
1.305027 90.648 163.9081
1.314484 90.723 163.3048
1.324009 90.797 162.7017
1.333603 90.872 162.0993
1.343267 90.946 161.4978
1.353001 91.021 160.8976
1.362805 91.095 160.2990
1.372681 91.170 159.7022
1.382628 91.244 159.1075
1.392647 91.318 158.5151
1.402739 91.393 157.9252
1.412904 91.467 157.3381
1.423142 91.542 156.7535
1.433455 91.616 156.1716
1.443842 91.691 155.5920
1.454305 91.765 155.0141
1.464843 91.840 154.4370
1.475458 91.914 153.8596
1.486150 91.988 153.2811
1.496919 92.062 152.7006
1.507766 92.136 152.1176
1.518692 92.210 151.5317
1.529697 92.283 150.9431
1.540782 92.356 150.3517
1.551947 92.428 149.7578
1.563193 92.501 149.1613
1.574521 92.573 148.5627
1.585931 92.644 147.9621
1.597423 92.716 147.3597
1.608998 92.787 146.7558
1.620658 92.858 146.1505
1.632402 92.928 145.5442
1.644231 92.999 144.9370
1.656146 93.069 144.3291
1.668147 93.138 143.7207
1.680235 93.208 143.1121
1.692410 93.277 142.5034
1.704674 93.347 141.8948
1.717027 93.416 141.2864
1.729469 93.484 140.6785
1.742002 93.553 140.0711
1.754625 93.621 139.4644
1.767340 93.690 138.8583
1.780147 93.758 138.2527
1.793046 93.826 137.6476
1.806040 93.894 137.0424
1.819127 93.961 136.4365
1.832309 94.029 135.8289
1.845587 94.096 135.2185
1.858961 94.162 134.6045
1.872431 94.228 133.9861
1.886000 94.294 133.3632
1.899666 94.360 132.7355
1.913432 94.424 132.1034
1.927298 94.489 131.4673
1.941264 94.553 130.8275
1.955331 94.616 130.1847
1.969500 94.679 129.5393
1.983772 94.742 128.8920
1.998147 94.804 128.2433
2.012626 94.866 127.5939
2.027211 94.927 126.9443
2.041901 94.988 126.2953
2.056697 95.049 125.6474
2.071601 95.110 125.0012
2.086613 95.170 124.3573
2.101733 95.229 123.7162
2.116963 95.289 123.0786
2.132303 95.348 122.4446
2.147755 95.407 121.8147
2.163318 95.466 121.1887
2.178995 95.524 120.5661
2.194785 95.582 119.9462
2.210689 95.640 119.3279
2.226709 95.697 118.7100
2.242844 95.754 118.0916
2.259097 95.810 117.4720
2.275467 95.866 116.8509
2.291956 95.921 116.2284
2.308565 95.975 115.6047
2.325294 96.029 114.9802
2.342144 96.082 114.3553
2.359116 96.135 113.7305
2.376211 96.188 113.1065
2.393430 96.240 112.4836
2.410774 96.291 111.8627
2.428243 96.343 111.2442
2.445839 96.394 110.6288
2.463562 96.444 110.0171
2.481415 96.495 109.4097
2.499396 96.545 108.8069
2.517508 96.595 108.2091
2.535750 96.645 107.6163
2.554126 96.694 107.0281
2.572634 96.743 106.4441
2.591276 96.792 105.8633
2.610054 96.840 105.2852
2.628967 96.888 104.7089
2.648018 96.935 104.1343
2.667206 96.982 103.5610
2.686534 97.028 102.9893
2.706002 97.074 102.4192
2.725610 97.119 101.8509
2.745361 97.164 101.2847
2.765255 97.209 100.7209
2.785294 97.254 100.1599
2.805477 97.298 99.6021
2.825807 97.342 99.0479
2.846284 97.386 98.4975
2.866909 97.430 97.9513
2.887684 97.474 97.4095
2.908609 97.517 96.8722
2.929686 97.561 96.3393
2.950916 97.604 95.8103
2.972299 97.648 95.2851
2.993838 97.691 94.7632
3.015532 97.733 94.2443
3.037384 97.776 93.7284
3.059394 97.818 93.2153
3.081564 97.860 92.7050
3.103894 97.902 92.1978
3.126386 97.943 91.6935
3.149041 97.985 91.1923
3.171861 98.026 90.6944
3.194845 98.067 90.1999
3.217996 98.109 89.7090
3.241315 98.150 89.2219
3.264803 98.192 88.7386
3.288461 98.233 88.2592
3.312291 98.275 87.7837
3.336293 98.316 87.3119
3.360469 98.358 86.8439
3.384820 98.399 86.3793
3.409348 98.440 85.9181
3.434054 98.482 85.4600
3.458938 98.523 85.0049
3.484003 98.564 84.5526
3.509250 98.605 84.1030
3.534679 98.646 83.6560
3.560293 98.687 83.2113
3.586092 98.728 82.7689
3.612079 98.769 82.3286
3.638253 98.810 81.8904
3.664618 98.851 81.4541
3.691173 98.891 81.0197
3.717921 98.932 80.5872
3.744862 98.973 80.1566
3.771999 99.013 79.7281
3.799332 99.054 79.3016
3.826864 99.094 78.8774
3.854595 99.134 78.4555
3.882527 99.174 78.0360
3.910661 99.213 77.6191
3.938999 99.253 77.2048
3.967543 99.292 76.7931
3.996294 99.331 76.3840
4.025252 99.369 75.9773
4.054421 99.407 75.5729
4.083801 99.445 75.1707
4.113394 99.482 74.7706
4.143201 99.519 74.3728
4.173225 99.556 73.9776
4.203466 99.592 73.5853
4.233926 99.628 73.1963
4.264606 99.663 72.8111
4.295509 99.698 72.4300
4.326636 99.733 72.0533
4.357989 99.767 71.6812
4.389569 99.801 71.3138
4.421378 99.834 70.9509
4.453417 99.867 70.5924
4.485688 99.899 70.2383
4.518193 99.930 69.8887
4.550934 99.961 69.5440
4.583912 99.992 69.2045
4.617129 100.023 68.8709
4.650587 100.053 68.5436
4.684287 100.083 68.2232
4.718231 100.112 67.9102
4.752421 100.142 67.6047
4.786859 100.171 67.3071
4.821547 100.200 67.0172
4.856485 100.229 66.7350
4.891677 100.258 66.4603
4.927125 100.287 66.1929
4.962829 100.316 65.9328
4.998791 100.345 65.6799
5.035015 100.375 65.4342
5.071500 100.405 65.1958
5.108251 100.436 64.9651
5.145267 100.467 64.7421
5.182552 100.499 64.5270
5.220107 100.531 64.3196
5.257934 100.565 64.1193
5.296035 100.599 63.9252
5.334412 100.634 63.7362
5.373067 100.670 63.5514
5.412003 100.706 63.3698
5.451221 100.745 63.1908
5.490722 100.784 63.0141
5.530510 100.825 62.8396
5.570587 100.867 62.6671
5.610953 100.910 62.4962
5.651613 100.954 62.3256
5.692567 101.000 62.1541
5.733818 101.046 61.9802
5.775367 101.094 61.8023
5.817218 101.143 61.6193
5.859372 101.192 61.4304
5.901831 101.243 61.2353
5.944598 101.294 61.0338
5.987675 101.347 60.8256
6.031065 101.399 60.6104
6.074768 101.453 60.3872
6.118788 101.506 60.1554
6.163127 101.559 59.9140
6.207788 101.612 59.6623
6.252772 101.665 59.4000
6.298082 101.717 59.1271
6.343721 101.768 58.8440
6.389690 101.819 58.5512
6.435992 101.869 58.2497
6.482630 101.917 57.9400
6.529606 101.964 57.6228
6.576922 102.009 57.2982
6.624581 102.053 56.9665
6.672585 102.094 56.6281
6.720938 102.134 56.2839
6.769640 102.171 55.9356
6.818696 102.206 55.5851
6.868107 102.239 55.2342
6.917876 102.269 54.8846
6.968006 102.297 54.5373
7.018499 102.323 54.1933
7.069358 102.346 53.8533
7.120586 102.367 53.5187
7.172184 102.385 53.1915
7.224157 102.402 52.8737
7.276506 102.416 52.5674
7.329235 102.429 52.2739
7.382345 102.441 51.9944
7.435841 102.450 51.7294
7.489724 102.459 51.4792
7.543997 102.467 51.2445
7.598664 102.475 51.0260
7.653728 102.482 50.8243
7.709189 102.490 50.6398
7.765053 102.499 50.4724
7.821322 102.508 50.3213
7.877998 102.519 50.1849
7.935086 102.531 50.0615
7.992587 102.545 49.9492
8.050504 102.561 49.8461
8.108841 102.581 49.7508
8.167601 102.602 49.6613
8.226787 102.627 49.5749
8.286402 102.654 49.4883
8.346449 102.684 49.3979
8.406931 102.716 49.3005
8.467851 102.751 49.1936
8.529212 102.789 49.0752
8.591018 102.829 48.9432
8.653272 102.870 48.7953
8.715977 102.913 48.6290
8.779137 102.957 48.4424
8.842754 103.001 48.2345
8.906833 103.045 48.0047
8.971375 103.089 47.7535
9.036386 103.131 47.4815
9.101867 103.172 47.1895
9.167823 103.211 46.8786
9.234257 103.247 46.5500
9.301172 103.281 46.2060
9.368572 103.311 45.8497
9.436460 103.338 45.4846
9.504841 103.361 45.1143
9.573717 103.380 44.7419
9.643092 103.395 44.3705
9.712970 103.407 44.0040
9.783354 103.414 43.6468
9.854248 103.419 43.3030
9.925656 103.420 42.9765
9.997581 103.418 42.6701
10.070028 103.415 42.3865
10.143000 103.410 42.1281
10.216500 103.404 41.8972
10.290533 103.398 41.6952
10.365103 103.394 41.5226
10.440212 103.390 41.3784
10.515866 103.390 41.2609
10.592069 103.392 41.1675
10.668823 103.399 41.0952
10.746134 103.411 41.0400
10.824005 103.427 40.9967
10.902440 103.450 40.9591
10.981443 103.478 40.9208
11.061020 103.511 40.8758
11.141172 103.551 40.8179
11.221906 103.595 40.7412
11.303225 103.644 40.6396
11.385133 103.697 40.5081
11.467634 103.753 40.3430
11.550734 103.811 40.1417
11.634435 103.869 39.9025
11.718742 103.928 39.6247
11.803661 103.985 39.3089
11.889195 104.040 38.9570
11.975349 104.092 38.5724
12.062128 104.140 38.1593
12.149535 104.182 37.7224
12.237576 104.220 37.2670
12.326254 104.251 36.7997
12.415575 104.276 36.3275
12.505544 104.295 35.8573
12.596164 104.308 35.3959
12.687441 104.315 34.9502
12.779379 104.317 34.5270
12.871984 104.314 34.1325
12.965260 104.306 33.7719
13.059211 104.296 33.4491
13.153843 104.284 33.1673
13.249161 104.272 32.9281
13.345170 104.259 32.7311
13.441875 104.249 32.5748
13.539280 104.241 32.4567
13.637391 104.237 32.3734
13.736214 104.238 32.3198
13.835752 104.245 32.2896
13.936011 104.257 32.2750
14.036998 104.275 32.2675
14.138716 104.299 32.2589
14.241171 104.328 32.2411
14.344368 104.361 32.2072
14.448313 104.399 32.1519
14.553011 104.439 32.0708
14.658468 104.481 31.9614
14.764689 104.523 31.8226
14.871680 104.565 31.6550
14.979446 104.604 31.4609
15.087994 104.641 31.2438
15.197328 104.675 31.0081
15.307454 104.704 30.7594
15.418378 104.730 30.5039
15.530106 104.750 30.2476
15.642643 104.767 29.9967
15.755996 104.779 29.7570
15.870171 104.789 29.5334
15.985172 104.795 29.3298
16.101007 104.800 29.1487
16.217682 104.805 28.9913
16.335201 104.810 28.8571
16.453573 104.815 28.7439
16.572803 104.824 28.6480
16.692898 104.834 28.5645
16.813862 104.848 28.4872
16.935701 104.866 28.4098
17.058424 104.887 28.3255
17.182035 104.910 28.2279
17.306543 104.936 28.1115
17.431953 104.964 27.9722
17.558273 104.991 27.8072
17.685509 105.019 27.6156
17.813665 105.045 27.3982
17.942751 105.068 27.1578
18.072771 105.088 26.8984
18.203733 105.104 26.6252
18.335646 105.117 26.3446
18.468513 105.125 26.0626
18.602345 105.129 25.7858
18.737144 105.130 25.5197
18.872921 105.129 25.2686
19.009682 105.126 25.0356
19.147434 105.122 24.8220
19.286184 105.119 24.6273
19.425940 105.117 24.4492
19.566708 105.118 24.2841
19.708496 105.121 24.1274
19.851313 105.126 23.9740
19.995163 105.134 23.8190
20.140057 105.145 23.6580
20.285999 105.157 23.4878
20.433001 105.171 23.3067
20.581066 105.185 23.1145
20.730206 105.199 22.9122
20.880424 105.213 22.7023
21.031733 105.226 22.4875
21.184137 105.238 22.2712
21.337646 105.250 22.0562
21.492268 105.261 21.8445
21.648010 105.273 21.6375
21.804880 105.284 21.4354
21.962887 105.297 21.2375
22.122040 105.310 21.0425
22.282345 105.324 20.8485
22.443811 105.339 20.6541
22.606449 105.354 20.4581
22.770266 105.369 20.2603
22.935268 105.384 20.0610
23.101467 105.398 19.8614
23.268869 105.412 19.6630
23.437485 105.425 19.4675
23.607323 105.437 19.2762
23.778391 105.449 19.0902
23.950699 105.460 18.9096
24.124256 105.471 18.7343
24.299070 105.482 18.5637
24.475151 105.493 18.3972
24.652508 105.503 18.2345
24.831150 105.513 18.0759
25.011087 105.523 17.9220
25.192327 105.532 17.7736
25.374882 105.542 17.6312
25.558758 105.551 17.4948
25.743967 105.562 17.3628
25.930519 105.574 17.2325
26.118422 105.587 17.0997
26.307686 105.601 16.9595
26.498322 105.617 16.8069
26.690340 105.633 16.6384
26.883749 105.649 16.4523
27.078560 105.663 16.2495
27.274782 105.674 16.0336
27.472427 105.683 15.8102
27.671503 105.689 15.5859
27.872023 105.692 15.3667
28.073996 105.693 15.1575
28.277431 105.693 14.9600
28.482342 105.693 14.7737
28.688736 105.694 14.5962
28.896626 105.696 14.4236
29.106022 105.698 14.2531
29.316936 105.701 14.0837
29.529379 105.703 13.9167
29.743361 105.705 13.7551
29.958893 105.707 13.6030
30.175987 105.709 13.4636
30.394655 105.713 13.3370
30.614908 105.718 13.2202
30.836756 105.727 13.1066
31.060211 105.739 12.9879
31.285286 105.753 12.8564
31.511992 105.767 12.7073
31.740341 105.781 12.5405
31.970345 105.792 12.3611
32.202015 105.800 12.1780
32.435364 105.805 12.0011
32.670403 105.808 11.8384
32.907146 105.810 11.6927
33.145607 105.813 11.5614
33.385796 105.818 11.4363
33.627724 105.825 11.3063
33.871403 105.833 11.1617
34.116848 105.841 10.9967
34.364071 105.847 10.8120
34.613087 105.849 10.6144
34.863907 105.847 10.4144
35.116547 105.842 10.2230
35.371017 105.835 10.0477
35.627331 105.828 9.8901
35.885502 105.822 9.7457
36.145542 105.819 9.6053
36.407467 105.818 9.4590
36.671291 105.819 9.2993
36.937027 105.821 9.1236
37.204689 105.822 8.9354
37.474289 105.822 8.7422
37.745842 105.820 8.5524
38.019363 105.818 8.3727
38.294868 105.818 8.2050
38.572369 105.819 8.0471
38.851879 105.824 7.8928
39.133415 105.831 7.7358
39.416992 105.839 7.5714
39.702625 105.848 7.3988
39.990326 105.857 7.2212
40.280113 105.864 7.0435
40.571999 105.871 6.8707
40.866001 105.877 6.7055
41.162132 105.883 6.5467
41.460411 105.889 6.3902
41.760849 105.894 6.2303
42.063465 105.899 6.0623
42.368275 105.902 5.8839
42.675293 105.901 5.6973
42.984535 105.895 5.5083
43.296021 105.886 5.3245
43.609760 105.873 5.1528
43.925774 105.857 4.9966
44.244080 105.841 4.8537
44.564690 105.826 4.7170
44.887623 105.812 4.5780
45.212898 105.799 4.4304
45.540531 105.787 4.2738
45.870537 105.774 4.1140
46.202934 105.762 3.9588
46.537739 105.752 3.8134
46.874969 105.747 3.6760
47.214645 105.748 3.5394
47.556782 105.756 3.3948
47.901398 105.770 3.2373
48.248512 105.790 3.0660
48.598141 105.816 2.8778
48.950302 105.849 2.6604
49.305016 105.887 2.3915
49.662300 105.925 2.0496
50.022175 105.956 1.6320
50.384655 105.971 1.1700
50.749763 105.964 0.7280
51.117516 105.936 0.3833
51.487934 105.896 0.1945
51.861038 105.856 0.1738
52.236843 105.828 0.2802
52.615372 105.816 0.4399
52.996643 105.816 0.5851
53.380680 105.822 0.6815
53.767498 105.826 0.7320
54.157120 105.828 0.7572
54.549564 105.829 0.7717
54.944855 105.830 0.7731
55.343006 105.834 0.7469
55.744045 105.838 0.6804
56.147991 105.842 0.5709
56.554863 105.845 0.4261
56.964684 105.845 0.2592
57.377472 105.843 0.0842
57.793251 105.840 -0.0848
58.212044 105.836 -0.2375
58.633873 105.835 -0.3705
59.058758 105.835 -0.4893
59.486721 105.835 -0.5999
59.917786 105.832 -0.6970
60.351974 105.824 -0.7592
60.789310 105.810 -0.7595
61.229816 105.794 -0.6847
61.673512 105.780 -0.5444
62.120422 105.770 -0.3592
62.570572 105.764 -0.1428
63.023983 105.764 0.0961
63.480682 105.775 0.3271
63.940689 105.802 0.4782
64.404030 105.840 0.4564
64.870728 105.873 0.2086
65.340805 105.886 -0.2305
65.814293 105.868 -0.7468
66.291214 105.825 -1.2090
66.771591 105.774 -1.5377
67.255447 105.733 -1.7380
67.742805 105.713 -1.8780
68.233696 105.715 -2.0381
68.728142 105.731 -2.2686
69.226173 105.751 -2.5743
69.727814 105.767 -2.9233
70.233093 105.773 -3.2667
70.742035 105.769 -3.5615
71.254662 105.759 -3.7848
71.771004 105.744 -3.9335
72.291084 105.727 -4.0165
72.814934 105.711 -4.0498
73.342583 105.698 -4.0583
73.874054 105.688 -4.0745
74.409378 105.681 -4.1271
74.948578 105.674 -4.2281
75.491684 105.665 -4.3718
76.038727 105.655 -4.5447
76.589737 105.645 -4.7366
77.144737 105.637 -4.9432
77.703758 105.630 -5.1620
78.266830 105.624 -5.3893
78.833984 105.618 -5.6219
79.405251 105.612 -5.8567
79.980652 105.602 -6.0876
80.560226 105.588 -6.3033
81.143997 105.570 -6.4917
81.732002 105.550 -6.6505
82.324265 105.529 -6.7900
82.920822 105.509 -6.9240
83.521698 105.488 -7.0562
84.126930 105.466 -7.1790
84.736549 105.446 -7.2857
85.350586 105.429 -7.3829
85.969070 105.416 -7.4889
86.592041 105.405 -7.6198
87.219521 105.392 -7.7751
87.851547 105.375 -7.9387
88.488159 105.355 -8.0917
89.129379 105.334 -8.2244
89.775246 105.313 -8.3369
90.425797 105.295 -8.4347
91.081062 105.282 -8.5248
91.741074 105.273 -8.6133
92.405869 105.267 -8.7014
