* Measurement data measured by REW V5.30 beta 5
* Source: EXCL: Microphone (Realtek(R) Audio), MICROPHONE (Master Volume), L, volume: 1.000
* Format: 256k Log Swept Sine, 1 sweep at -1.0 dBFS with no timing reference
* Dated: Dec 21, 2023 12:21:38 AM
* REW Settings:
*  C-weighting compensation: Off
*  Target level: 75.0 dB
* Note: AFUL MagicOne R
* Measurement: R AFUL MagicOne
* Smoothing: 1/12 octave
* Frequency Step: 96 ppo
* Start Frequency: 0.36621094 Hz
*
* Freq(Hz) SPL(dB) Phase(degrees)
0.366211 115.094 152.6095
0.368865 115.089 152.5806
0.371538 115.081 152.5372
0.374230 115.071 152.4826
0.376942 115.059 152.4198
0.379673 115.047 152.3507
0.382424 115.034 152.2767
0.385196 115.021 152.1987
0.387987 115.008 152.1170
0.390798 114.995 152.0321
0.393630 114.981 151.9439
0.396483 114.968 151.8526
0.399356 114.954 151.7582
0.402250 114.940 151.6605
0.405165 114.926 151.5597
0.408101 114.912 151.4557
0.411058 114.898 151.3484
0.414037 114.883 151.2379
0.417037 114.869 151.1240
0.420059 114.855 151.0068
0.423103 114.840 150.8863
0.426169 114.825 150.7623
0.429257 114.810 150.6349
0.432367 114.795 150.5041
0.435501 114.780 150.3697
0.438656 114.765 150.2318
0.441835 114.750 150.0904
0.445037 114.735 149.9454
0.448262 114.719 149.7968
0.451510 114.704 149.6446
0.454782 114.688 149.4887
0.458077 114.672 149.3291
0.461397 114.656 149.1658
0.464740 114.640 148.9988
0.468108 114.624 148.8280
0.471500 114.608 148.6535
0.474917 114.591 148.4751
0.478358 114.575 148.2930
0.481825 114.558 148.1070
0.485316 114.542 147.9172
0.488833 114.525 147.7235
0.492375 114.508 147.5259
0.495943 114.491 147.3245
0.499537 114.473 147.1192
0.503157 114.456 146.9099
0.506803 114.439 146.6968
0.510475 114.421 146.4798
0.514174 114.403 146.2589
0.517900 114.385 146.0340
0.521653 114.367 145.8053
0.525433 114.349 145.5726
0.529241 114.331 145.3361
0.533076 114.313 145.0957
0.536939 114.294 144.8515
0.540830 114.275 144.6035
0.544749 114.257 144.3516
0.548696 114.238 144.0960
0.552673 114.219 143.8366
0.556677 114.200 143.5735
0.560711 114.180 143.3067
0.564774 114.161 143.0363
0.568867 114.141 142.7623
0.572989 114.121 142.4848
0.577141 114.101 142.2038
0.581324 114.081 141.9194
0.585536 114.061 141.6317
0.589779 114.041 141.3407
0.594053 114.020 141.0465
0.598358 114.000 140.7491
0.602694 113.979 140.4488
0.607061 113.958 140.1455
0.611460 113.937 139.8394
0.615891 113.916 139.5306
0.620354 113.894 139.2192
0.624849 113.873 138.9054
0.629377 113.851 138.5892
0.633938 113.829 138.2708
0.638532 113.807 137.9503
0.643159 113.785 137.6280
0.647819 113.763 137.3039
0.652514 113.740 136.9783
0.657242 113.717 136.6512
0.662005 113.695 136.3230
0.666802 113.672 135.9938
0.671634 113.648 135.6639
0.676501 113.625 135.3333
0.681403 113.602 135.0025
0.686341 113.578 134.6715
0.691314 113.554 134.3407
0.696324 113.530 134.0103
0.701369 113.505 133.6805
0.706452 113.481 133.3514
0.711571 113.455 133.0231
0.716727 113.430 132.6956
0.721921 113.403 132.3686
0.727153 113.374 132.0414
0.732422 113.344 131.7131
0.737729 113.312 131.3825
0.743075 113.279 131.0483
0.748460 113.243 130.7094
0.753883 113.207 130.3647
0.759346 113.169 130.0139
0.764849 113.131 129.6563
0.770391 113.092 129.2917
0.775974 113.053 128.9200
0.781597 113.013 128.5409
0.787261 112.972 128.1545
0.792965 112.931 127.7605
0.798712 112.889 127.3590
0.804499 112.847 126.9498
0.810329 112.804 126.5330
0.816201 112.761 126.1084
0.822116 112.717 125.6760
0.828073 112.672 125.2359
0.834073 112.627 124.7879
0.840118 112.581 124.3321
0.846205 112.534 123.8684
0.852337 112.486 123.3969
0.858514 112.438 122.9175
0.864735 112.389 122.4304
0.871001 112.339 121.9356
0.877313 112.288 121.4331
0.883670 112.237 120.9230
0.890074 112.184 120.4053
0.896523 112.131 119.8803
0.903020 112.076 119.3480
0.909564 112.021 118.8087
0.916155 111.964 118.2624
0.922793 111.907 117.7093
0.929480 111.848 117.1498
0.936216 111.788 116.5840
0.943000 111.727 116.0122
0.949833 111.665 115.4348
0.956716 111.602 114.8521
0.963649 111.537 114.2644
0.970632 111.471 113.6721
0.977666 111.403 113.0758
0.984750 111.334 112.4759
0.991886 111.264 111.8729
0.999074 111.192 111.2673
1.006313 111.119 110.6599
1.013605 111.044 110.0511
1.020950 110.967 109.4419
1.028349 110.889 108.8328
1.035801 110.809 108.2247
1.043306 110.727 107.6183
1.050867 110.643 107.0147
1.058482 110.557 106.4145
1.066152 110.470 105.8187
1.073878 110.380 105.2278
1.081659 110.289 104.6423
1.089498 110.196 104.0623
1.097393 110.102 103.4876
1.105345 110.006 102.9171
1.113355 109.910 102.3498
1.121422 109.813 101.7844
1.129549 109.715 101.2199
1.137734 109.617 100.6553
1.145978 109.518 100.0897
1.154283 109.419 99.5224
1.162647 109.318 98.9529
1.171072 109.217 98.3804
1.179558 109.115 97.8045
1.188106 109.012 97.2245
1.196715 108.907 96.6398
1.205387 108.801 96.0499
1.214122 108.693 95.4541
1.222920 108.583 94.8517
1.231781 108.470 94.2423
1.240708 108.355 93.6250
1.249698 108.237 92.9993
1.258754 108.117 92.3644
1.267875 107.993 91.7198
1.277063 107.865 91.0647
1.286317 107.734 90.3985
1.295638 107.598 89.7204
1.305027 107.458 89.0299
1.314484 107.313 88.3264
1.324009 107.164 87.6091
1.333603 107.008 86.8777
1.343267 106.848 86.1315
1.353001 106.681 85.3702
1.362805 106.507 84.5936
1.372681 106.327 83.8013
1.382628 106.139 82.9934
1.392647 105.944 82.1701
1.402739 105.741 81.3317
1.412904 105.529 80.4788
1.423142 105.307 79.6122
1.433455 105.075 78.7332
1.443842 104.832 77.8429
1.454305 104.577 76.9426
1.464843 104.307 76.0336
1.475458 104.020 75.1163
1.486150 103.714 74.1908
1.496919 103.389 73.2565
1.507766 103.043 72.3122
1.518692 102.676 71.3562
1.529697 102.289 70.3865
1.540782 101.882 69.4010
1.551947 101.457 68.3971
1.563193 101.015 67.3720
1.574521 100.558 66.3225
1.585931 100.087 65.2453
1.597423 99.603 64.1364
1.608998 99.110 62.9915
1.620658 98.609 61.8056
1.632402 98.101 60.5732
1.644231 97.591 59.2881
1.656146 97.079 57.9430
1.668147 96.569 56.5299
1.680235 96.063 55.0396
1.692410 95.564 53.4614
1.704674 95.076 51.7833
1.717027 94.601 49.9914
1.729469 94.144 48.0698
1.742002 93.708 46.0005
1.754625 93.296 43.7631
1.767340 92.914 41.3343
1.780147 92.565 38.6878
1.793046 92.253 35.7937
1.806040 91.982 32.6166
1.819127 91.756 29.1133
1.832309 91.576 25.2265
1.845587 91.444 20.8765
1.858961 91.359 15.9503
1.872431 91.321 10.2933
1.886000 91.327 3.7054
1.899666 91.375 -4.0484
1.913432 91.463 -13.1943
1.927298 91.587 -23.8415
1.941264 91.746 -35.8125
1.955331 91.935 -48.5099
1.969500 92.151 -61.0260
1.983772 92.392 -72.5140
1.998147 92.654 -82.5029
2.012626 92.932 -90.9186
2.027211 93.225 -97.9217
2.041901 93.528 -103.7509
2.056697 93.836 -108.6390
2.071601 94.148 -112.7820
2.086613 94.459 -116.3356
2.101733 94.765 -119.4208
2.116963 95.063 -122.1321
2.132303 95.350 -124.5443
2.147755 95.624 -126.7193
2.163318 95.884 -128.7103
2.178995 96.129 -130.5661
2.194785 96.362 -132.3327
2.210689 96.586 -134.0521
2.226709 96.803 -135.7590
2.242844 97.016 -137.4772
2.259097 97.228 -139.2194
2.275467 97.439 -140.9900
2.291956 97.651 -142.7874
2.308565 97.861 -144.6066
2.325294 98.071 -146.4403
2.342144 98.279 -148.2807
2.359116 98.484 -150.1197
2.376211 98.686 -151.9491
2.393430 98.884 -153.7614
2.410774 99.076 -155.5495
2.428243 99.261 -157.3072
2.445839 99.439 -159.0291
2.463562 99.608 -160.7112
2.481415 99.767 -162.3513
2.499396 99.915 -163.9499
2.517508 100.051 -165.5112
2.535750 100.175 -167.0441
2.554126 100.286 -168.5632
2.572634 100.382 -170.0881
2.591276 100.466 -171.6401
2.610054 100.535 -173.2380
2.628967 100.592 -174.8947
2.648018 100.636 -176.6172
2.667206 100.667 -178.4070
2.686534 100.688 179.7383
2.706002 100.697 177.8240
2.725610 100.696 175.8580
2.745361 100.686 173.8496
2.765255 100.667 171.8095
2.785294 100.641 169.7492
2.805477 100.607 167.6806
2.825807 100.567 165.6151
2.846284 100.521 163.5627
2.866909 100.471 161.5307
2.887684 100.415 159.5213
2.908609 100.355 157.5300
2.929686 100.290 155.5443
2.950916 100.218 153.5446
2.972299 100.140 151.5085
2.993838 100.053 149.4159
3.015532 99.959 147.2514
3.037384 99.858 145.0053
3.059394 99.748 142.6730
3.081564 99.632 140.2546
3.103894 99.510 137.7542
3.126386 99.382 135.1793
3.149041 99.250 132.5405
3.171861 99.114 129.8509
3.194845 98.976 127.1247
3.217996 98.835 124.3754
3.241315 98.694 121.6133
3.264803 98.552 118.8420
3.288461 98.409 116.0551
3.312291 98.266 113.2355
3.336293 98.120 110.3584
3.360469 97.973 107.3980
3.384820 97.824 104.3332
3.409348 97.672 101.1508
3.434054 97.518 97.8461
3.458938 97.363 94.4243
3.484003 97.206 90.8990
3.509250 97.049 87.2928
3.534679 96.892 83.6348
3.560293 96.737 79.9586
3.586092 96.583 76.2973
3.612079 96.433 72.6786
3.638253 96.286 69.1181
3.664618 96.144 65.6145
3.691173 96.008 62.1498
3.717921 95.878 58.6965
3.744862 95.753 55.2274
3.771999 95.632 51.7227
3.799332 95.514 48.1743
3.826864 95.395 44.5863
3.854595 95.273 40.9760
3.882527 95.146 37.3712
3.910661 95.011 33.8085
3.938999 94.866 30.3284
3.967543 94.708 26.9689
3.996294 94.537 23.7579
4.025252 94.352 20.7065
4.054421 94.153 17.8064
4.083801 93.942 15.0342
4.113394 93.718 12.3633
4.143201 93.480 9.7716
4.173225 93.227 7.2476
4.203466 92.955 4.7926
4.233926 92.661 2.4219
4.264606 92.340 0.1652
4.295509 91.986 -1.9349
4.326636 91.594 -3.8240
4.357989 91.154 -5.4409
4.389569 90.659 -6.7223
4.421378 90.098 -7.6049
4.453417 89.466 -8.0228
4.485688 88.762 -7.8958
4.518193 87.996 -7.1135
4.550934 87.185 -5.5193
4.583912 86.358 -2.8967
4.617129 85.557 1.0330
4.650587 84.842 6.5726
4.684287 84.287 13.9309
4.718231 83.975 22.9869
4.752421 83.973 33.0655
4.786859 84.309 43.0443
4.821547 84.951 51.8713
4.856485 85.826 59.0039
4.891677 86.850 64.4086
4.927125 87.945 68.3181
4.962829 89.052 71.0279
4.998791 90.129 72.8014
5.035015 91.146 73.8459
5.071500 92.085 74.3164
5.108251 92.940 74.3294
5.145267 93.711 73.9762
5.182552 94.409 73.3334
5.220107 95.042 72.4686
5.257934 95.620 71.4413
5.296035 96.151 70.3010
5.334412 96.642 69.0861
5.373067 97.098 67.8230
5.412003 97.523 66.5266
5.451221 97.920 65.2014
5.490722 98.289 63.8448
5.530510 98.629 62.4512
5.570587 98.942 61.0197
5.610953 99.225 59.5573
5.651613 99.481 58.0793
5.692567 99.711 56.6049
5.733818 99.918 55.1532
5.775367 100.103 53.7392
5.817218 100.268 52.3711
5.859372 100.413 51.0489
5.901831 100.538 49.7669
5.944598 100.644 48.5193
5.987675 100.730 47.3053
6.031065 100.798 46.1313
6.074768 100.848 45.0096
6.118788 100.882 43.9552
6.163127 100.902 42.9828
6.207788 100.908 42.1034
6.252772 100.900 41.3223
6.298082 100.878 40.6399
6.343721 100.845 40.0552
6.389690 100.802 39.5678
6.435992 100.750 39.1803
6.482630 100.694 38.8974
6.529606 100.637 38.7257
6.576922 100.579 38.6720
6.624581 100.523 38.7410
6.672585 100.470 38.9327
6.720938 100.422 39.2408
6.769640 100.379 39.6524
6.818696 100.346 40.1504
6.868107 100.324 40.7159
6.917876 100.316 41.3316
6.968006 100.324 41.9829
7.018499 100.348 42.6579
7.069358 100.389 43.3430
7.120586 100.443 44.0209
7.172184 100.510 44.6712
7.224157 100.587 45.2722
7.276506 100.672 45.8055
7.329235 100.763 46.2578
7.382345 100.859 46.6226
7.435841 100.958 46.8991
7.489724 101.058 47.0894
7.543997 101.156 47.1966
7.598664 101.248 47.2239
7.653728 101.332 47.1743
7.709189 101.406 47.0509
7.765053 101.469 46.8590
7.821322 101.519 46.6075
7.877998 101.557 46.3092
7.935086 101.580 45.9792
7.992587 101.589 45.6322
8.050504 101.583 45.2802
8.108841 101.560 44.9323
8.167601 101.523 44.5971
8.226787 101.470 44.2850
8.286402 101.404 44.0091
8.346449 101.326 43.7840
8.406931 101.238 43.6234
8.467851 101.139 43.5380
8.529212 101.033 43.5345
8.591018 100.921 43.6165
8.653272 100.806 43.7863
8.715977 100.692 44.0451
8.779137 100.582 44.3928
8.842754 100.478 44.8267
8.906833 100.383 45.3396
8.971375 100.299 45.9174
9.036386 100.227 46.5411
9.101867 100.170 47.1888
9.167823 100.129 47.8397
9.234257 100.105 48.4745
9.301172 100.096 49.0745
9.368572 100.102 49.6199
9.436460 100.120 50.0915
9.504841 100.147 50.4728
9.573717 100.182 50.7526
9.643092 100.221 50.9257
9.712970 100.264 50.9914
9.783354 100.305 50.9518
9.854248 100.344 50.8107
9.925656 100.378 50.5732
9.997581 100.405 50.2464
10.070028 100.424 49.8410
10.143000 100.434 49.3700
10.216500 100.436 48.8465
10.290533 100.428 48.2822
10.365103 100.411 47.6872
10.440212 100.385 47.0715
10.515866 100.353 46.4457
10.592069 100.314 45.8200
10.668823 100.271 45.2023
10.746134 100.225 44.5975
10.824005 100.178 44.0082
10.902440 100.132 43.4355
10.981443 100.089 42.8795
11.061020 100.050 42.3385
11.141172 100.016 41.8091
11.221906 99.989 41.2854
11.303225 99.970 40.7607
11.385133 99.958 40.2286
11.467634 99.954 39.6839
11.550734 99.957 39.1218
11.634435 99.967 38.5384
11.718742 99.983 37.9308
11.803661 100.003 37.2984
11.889195 100.028 36.6429
11.975349 100.054 35.9683
12.062128 100.083 35.2797
12.149535 100.112 34.5833
12.237576 100.142 33.8860
12.326254 100.172 33.1960
12.415575 100.202 32.5219
12.505544 100.232 31.8712
12.596164 100.263 31.2505
12.687441 100.296 30.6649
12.779379 100.331 30.1188
12.871984 100.369 29.6147
12.965260 100.410 29.1531
13.059211 100.456 28.7326
13.153843 100.506 28.3506
13.249161 100.561 28.0035
13.345170 100.621 27.6873
13.441875 100.685 27.3977
13.539280 100.753 27.1306
13.637391 100.824 26.8829
13.736214 100.896 26.6529
13.835752 100.969 26.4404
13.936011 101.042 26.2460
14.036998 101.114 26.0718
14.138716 101.184 25.9207
14.241171 101.253 25.7960
14.344368 101.320 25.7012
14.448313 101.385 25.6385
14.553011 101.450 25.6090
14.658468 101.514 25.6124
14.764689 101.579 25.6463
14.871680 101.645 25.7061
14.979446 101.713 25.7850
15.087994 101.783 25.8753
15.197328 101.854 25.9681
15.307454 101.926 26.0543
15.418378 101.999 26.1252
15.530106 102.071 26.1742
15.642643 102.140 26.1964
15.755996 102.205 26.1892
15.870171 102.264 26.1531
15.985172 102.316 26.0912
16.101007 102.359 26.0089
16.217682 102.393 25.9132
16.335201 102.417 25.8123
16.453573 102.432 25.7148
16.572803 102.438 25.6288
16.692898 102.435 25.5609
16.813862 102.425 25.5161
16.935701 102.410 25.4969
17.058424 102.391 25.5033
17.182035 102.369 25.5326
17.306543 102.346 25.5800
17.431953 102.322 25.6392
17.558273 102.299 25.7028
17.685509 102.277 25.7632
17.813665 102.256 25.8140
17.942751 102.235 25.8491
18.072771 102.215 25.8645
18.203733 102.195 25.8574
18.335646 102.176 25.8265
18.468513 102.156 25.7711
18.602345 102.138 25.6908
18.737144 102.120 25.5853
18.872921 102.103 25.4537
19.009682 102.089 25.2947
19.147434 102.076 25.1060
19.286184 102.066 24.8861
19.425940 102.058 24.6335
19.566708 102.052 24.3478
19.708496 102.047 24.0304
19.851313 102.044 23.6847
19.995163 102.041 23.3158
20.140057 102.038 22.9305
20.285999 102.036 22.5367
20.433001 102.035 22.1423
20.581066 102.036 21.7543
20.730206 102.039 21.3780
20.880424 102.047 21.0163
21.031733 102.058 20.6698
21.184137 102.076 20.3365
21.337646 102.099 20.0134
21.492268 102.127 19.6967
21.648010 102.159 19.3833
21.804880 102.195 19.0721
21.962887 102.233 18.7646
22.122040 102.270 18.4650
22.282345 102.307 18.1792
22.443811 102.343 17.9153
22.606449 102.377 17.6810
22.770266 102.409 17.4828
22.935268 102.441 17.3250
23.101467 102.473 17.2081
23.268869 102.506 17.1298
23.437485 102.541 17.0845
23.607323 102.577 17.0645
23.778391 102.615 17.0616
23.950699 102.653 17.0684
24.124256 102.690 17.0790
24.299070 102.726 17.0900
24.475151 102.759 17.0997
24.652508 102.789 17.1082
24.831150 102.816 17.1157
25.011087 102.839 17.1216
25.192327 102.859 17.1239
25.374882 102.876 17.1187
25.558758 102.891 17.1005
25.743967 102.903 17.0628
25.930519 102.912 17.0001
26.118422 102.917 16.9083
26.307686 102.916 16.7865
26.498322 102.909 16.6373
26.690340 102.895 16.4668
26.883749 102.874 16.2842
27.078560 102.847 16.1005
27.274782 102.813 15.9267
27.472427 102.776 15.7725
27.671503 102.738 15.6439
27.872023 102.701 15.5424
28.073996 102.668 15.4636
28.277431 102.643 15.3979
28.482342 102.625 15.3315
28.688736 102.617 15.2489
28.896626 102.616 15.1360
29.106022 102.622 14.9835
29.316936 102.632 14.7889
29.529379 102.643 14.5577
29.743361 102.653 14.3025
29.958893 102.662 14.0401
30.175987 102.670 13.7878
30.394655 102.678 13.5586
30.614908 102.688 13.3577
30.836756 102.703 13.1813
31.060211 102.723 13.0178
31.285286 102.748 12.8523
31.511992 102.776 12.6721
31.740341 102.804 12.4720
31.970345 102.827 12.2579
32.202015 102.844 12.0449
32.435364 102.854 11.8535
32.670403 102.858 11.7020
32.907146 102.859 11.5995
33.145607 102.862 11.5406
33.385796 102.869 11.5060
33.627724 102.881 11.4677
33.871403 102.896 11.3979
34.116848 102.911 11.2798
34.364071 102.920 11.1123
34.613087 102.921 10.9111
34.863907 102.912 10.7012
35.116547 102.895 10.5070
35.371017 102.874 10.3416
35.627331 102.855 10.2010
35.885502 102.840 10.0652
36.145542 102.831 9.9069
36.407467 102.824 9.7046
36.671291 102.816 9.4545
36.937027 102.801 9.1748
37.204689 102.779 8.9011
37.474289 102.750 8.6733
37.745842 102.721 8.5199
38.019363 102.700 8.4448
38.294868 102.692 8.4232
38.572369 102.703 8.4093
38.851879 102.728 8.3534
39.133415 102.762 8.2219
39.416992 102.795 8.0100
39.702625 102.821 7.7433
39.990326 102.834 7.4675
40.280113 102.836 7.2324
40.571999 102.830 7.0758
40.866001 102.825 7.0107
41.162132 102.825 7.0233
41.460411 102.835 7.0787
41.760849 102.854 7.1351
42.063465 102.880 7.1575
42.368275 102.905 7.1290
42.675293 102.926 7.0541
42.984535 102.939 6.9543
43.296021 102.942 6.8591
43.609760 102.938 6.7948
43.925774 102.932 6.7734
44.244080 102.929 6.7867
44.564690 102.933 6.8077
44.887623 102.944 6.7986
45.212898 102.960 6.7252
45.540531 102.974 6.5693
45.870537 102.983 6.3350
46.202934 102.980 6.0471
46.537739 102.964 5.7421
46.874969 102.937 5.4576
47.214645 102.902 5.2214
47.556782 102.866 5.0457
47.901398 102.834 4.9230
48.248512 102.812 4.8268
48.598141 102.801 4.7153
48.950302 102.801 4.5425
49.305016 102.805 4.2750
49.662300 102.804 3.9096
50.022175 102.790 3.4844
50.384655 102.758 3.0721
50.749763 102.712 2.7567
51.117516 102.664 2.5989
51.487934 102.628 2.6051
51.861038 102.617 2.7205
52.236843 102.637 2.8518
52.615372 102.681 2.9132
52.996643 102.737 2.8635
53.380680 102.793 2.7165
53.767498 102.842 2.5198
54.157120 102.883 2.3234
54.549564 102.918 2.1557
54.944855 102.950 2.0178
55.343006 102.979 1.8969
55.744045 103.002 1.7834
56.147991 103.015 1.6820
56.554863 103.018 1.6090
56.964684 103.012 1.5801
57.377472 103.001 1.5977
57.793251 102.988 1.6443
58.212044 102.976 1.6882
58.633873 102.964 1.6941
59.058758 102.951 1.6367
59.486721 102.932 1.5096
59.917786 102.905 1.3248
60.351974 102.870 1.1062
60.789310 102.829 0.8771
61.229816 102.785 0.6508
61.673512 102.740 0.4291
62.120422 102.695 0.2111
62.570572 102.649 0.0091
63.023983 102.599 -0.1410
63.480682 102.547 -0.1868
63.940689 102.500 -0.0872
64.404030 102.469 0.1553
64.870728 102.461 0.4854
65.340805 102.475 0.8281
65.814293 102.503 1.1439
66.291214 102.538 1.4508
66.771591 102.584 1.7832
67.255447 102.648 2.1177
67.742805 102.736 2.3414
68.233696 102.837 2.3147
68.728142 102.927 1.9792
69.226173 102.980 1.4100
69.727814 102.989 0.7678
70.233093 102.963 0.2006
70.742035 102.922 -0.2295
71.254662 102.881 -0.5475
71.771004 102.848 -0.8120
72.291084 102.820 -1.0609
72.814934 102.795 -1.2947
73.342583 102.771 -1.4927
73.874054 102.752 -1.6398
74.409378 102.740 -1.7416
74.948578 102.736 -1.8246
75.491684 102.737 -1.9221
76.038727 102.740 -2.0555
76.589737 102.737 -2.2256
77.144737 102.726 -2.4176
77.703758 102.704 -2.6136
78.266830 102.674 -2.8027
78.833984 102.639 -2.9824
79.405251 102.599 -3.1505
79.980652 102.560 -3.2959
80.560226 102.526 -3.4017
81.143997 102.507 -3.4623
81.732002 102.509 -3.4948
82.324265 102.535 -3.5286
82.920822 102.582 -3.5810
83.521698 102.645 -3.6487
84.126930 102.717 -3.7249
84.736549 102.786 -3.8116
85.350586 102.840 -3.9028
85.969070 102.863 -3.9568
86.592041 102.848 -3.9001
87.219521 102.796 -3.6703
87.851547 102.719 -3.2648
88.488159 102.630 -2.7578
89.129379 102.542 -2.2805
89.775246 102.461 -1.9721
90.425797 102.387 -1.9275
91.081062 102.323 -2.1696
91.741074 102.269 -2.6554
