* Measurement data measured by REW V5.31
* Source: EXCL: Microphone (USB Sound Device        ), MICROPHONE (Master Volume), R, volume: 0.390
* Format: 256k Log Swept Sine, 1 sweep at -15.0 dBFS with no timing reference
* Dated: Jan 22, 2025 12:14:20 AM
* REW Settings:
*  C-weighting compensation: Off
*  Target level: 75.0 dB
* Note: Apevoic Grit L
* Measurement: L Apevoic Grit
* Smoothing: 1/12 octave
* Frequency Step: 96 ppo
* Start Frequency: 0.36621094 Hz
*
* Freq(Hz) SPL(dB) Phase(degrees)
0.366211 96.833 156.3418
0.368865 96.827 156.3172
0.371538 96.818 156.2803
0.374230 96.807 156.2340
0.376942 96.795 156.1806
0.379673 96.781 156.1219
0.382424 96.768 156.0591
0.385196 96.753 155.9928
0.387987 96.739 155.9234
0.390798 96.724 155.8512
0.393630 96.709 155.7762
0.396483 96.694 155.6985
0.399356 96.679 155.6182
0.402250 96.664 155.5351
0.405165 96.649 155.4493
0.408101 96.633 155.3608
0.411058 96.618 155.2695
0.414037 96.602 155.1754
0.417037 96.586 155.0785
0.420059 96.570 154.9787
0.423103 96.554 154.8760
0.426169 96.538 154.7705
0.429257 96.522 154.6620
0.432368 96.505 154.5505
0.435501 96.489 154.4361
0.438656 96.472 154.3186
0.441835 96.456 154.1981
0.445037 96.439 154.0746
0.448262 96.422 153.9480
0.451510 96.405 153.8182
0.454782 96.388 153.6854
0.458077 96.370 153.5494
0.461397 96.353 153.4102
0.464740 96.335 153.2679
0.468108 96.317 153.1223
0.471500 96.300 152.9735
0.474917 96.282 152.8214
0.478358 96.264 152.6661
0.481825 96.245 152.5076
0.485316 96.227 152.3457
0.488833 96.208 152.1805
0.492375 96.190 152.0121
0.495943 96.171 151.8403
0.499537 96.152 151.6651
0.503157 96.133 151.4866
0.506803 96.114 151.3048
0.510475 96.095 151.1197
0.514175 96.075 150.9312
0.517900 96.056 150.7393
0.521653 96.036 150.5441
0.525434 96.016 150.3456
0.529241 95.996 150.1437
0.533076 95.976 149.9385
0.536939 95.955 149.7300
0.540830 95.935 149.5182
0.544749 95.914 149.3031
0.548696 95.894 149.0848
0.552673 95.873 148.8633
0.556677 95.852 148.6385
0.560711 95.830 148.4106
0.564774 95.809 148.1796
0.568867 95.788 147.9454
0.572989 95.766 147.7083
0.577141 95.744 147.4680
0.581324 95.722 147.2249
0.585536 95.700 146.9789
0.589779 95.678 146.7300
0.594053 95.655 146.4783
0.598358 95.632 146.2240
0.602694 95.610 145.9670
0.607061 95.587 145.7075
0.611460 95.563 145.4455
0.615891 95.540 145.1812
0.620354 95.517 144.9147
0.624849 95.493 144.6459
0.629377 95.469 144.3752
0.633938 95.445 144.1025
0.638532 95.421 143.8280
0.643159 95.397 143.5519
0.647819 95.372 143.2743
0.652514 95.348 142.9954
0.657242 95.323 142.7152
0.662005 95.298 142.4341
0.666802 95.272 142.1521
0.671634 95.247 141.8694
0.676501 95.221 141.5863
0.681403 95.196 141.3030
0.686341 95.170 141.0196
0.691314 95.143 140.7365
0.696324 95.117 140.4537
0.701370 95.090 140.1715
0.706452 95.063 139.8901
0.711571 95.035 139.6095
0.716728 95.007 139.3298
0.721921 94.977 139.0506
0.727153 94.946 138.7714
0.732422 94.913 138.4915
0.737729 94.877 138.2097
0.743075 94.840 137.9249
0.748460 94.801 137.6362
0.753883 94.760 137.3427
0.759346 94.719 137.0438
0.764849 94.677 136.7393
0.770391 94.634 136.4289
0.775974 94.590 136.1123
0.781597 94.546 135.7895
0.787261 94.501 135.4603
0.792966 94.456 135.1247
0.798712 94.410 134.7826
0.804500 94.364 134.4339
0.810329 94.317 134.0786
0.816201 94.269 133.7166
0.822116 94.221 133.3479
0.828073 94.172 132.9724
0.834074 94.122 132.5900
0.840118 94.071 132.2008
0.846206 94.020 131.8048
0.852338 93.968 131.4018
0.858514 93.915 130.9920
0.864735 93.861 130.5752
0.871001 93.806 130.1516
0.877313 93.750 129.7211
0.883670 93.693 129.2838
0.890074 93.635 128.8398
0.896524 93.576 128.3890
0.903020 93.516 127.9317
0.909564 93.454 127.4678
0.916155 93.391 126.9975
0.922794 93.327 126.5210
0.929481 93.262 126.0384
0.936216 93.195 125.5499
0.943000 93.127 125.0556
0.949834 93.058 124.5560
0.956717 92.986 124.0511
0.963649 92.913 123.5413
0.970632 92.839 123.0269
0.977666 92.763 122.5084
0.984750 92.685 121.9860
0.991886 92.605 121.4602
0.999074 92.523 120.9315
1.006314 92.439 120.4005
1.013606 92.353 119.8677
1.020951 92.265 119.3337
1.028349 92.175 118.7991
1.035801 92.082 118.2648
1.043307 91.987 117.7314
1.050867 91.890 117.1998
1.058482 91.790 116.6708
1.066152 91.688 116.1451
1.073878 91.583 115.6234
1.081660 91.475 115.1064
1.089498 91.365 114.5943
1.097393 91.253 114.0870
1.105345 91.139 113.5840
1.113355 91.023 113.0845
1.121423 90.905 112.5878
1.129549 90.786 112.0928
1.137734 90.665 111.5990
1.145979 90.542 111.1057
1.154283 90.418 110.6123
1.162647 90.293 110.1184
1.171072 90.165 109.6233
1.179558 90.036 109.1266
1.188106 89.904 108.6279
1.196715 89.771 108.1265
1.205387 89.635 107.6219
1.214122 89.496 107.1135
1.222920 89.354 106.6008
1.231782 89.210 106.0831
1.240708 89.062 105.5598
1.249699 88.911 105.0301
1.258754 88.756 104.4934
1.267876 88.598 103.9489
1.277063 88.435 103.3958
1.286318 88.268 102.8333
1.295639 88.097 102.2604
1.305027 87.921 101.6763
1.314484 87.741 101.0801
1.324009 87.554 100.4707
1.333604 87.363 99.8471
1.343268 87.165 99.2083
1.353002 86.962 98.5533
1.362806 86.752 97.8808
1.372681 86.536 97.1900
1.382628 86.312 96.4796
1.392647 86.081 95.7487
1.402739 85.842 94.9963
1.412904 85.595 94.2216
1.423142 85.339 93.4242
1.433455 85.074 92.6035
1.443843 84.797 91.7595
1.454305 84.507 90.8926
1.464844 84.202 90.0032
1.475459 83.880 89.0916
1.486150 83.537 88.1576
1.496920 83.171 87.2000
1.507767 82.782 86.2168
1.518693 82.370 85.2047
1.529698 81.934 84.1597
1.540783 81.475 83.0766
1.551948 80.996 81.9493
1.563194 80.498 80.7703
1.574521 79.982 79.5309
1.585931 79.452 78.2204
1.597423 78.908 76.8261
1.608999 78.354 75.3323
1.620658 77.793 73.7202
1.632402 77.226 71.9662
1.644232 76.658 70.0412
1.656146 76.091 67.9083
1.668147 75.529 65.5214
1.680235 74.975 62.8214
1.692411 74.433 59.7329
1.704675 73.908 56.1598
1.717028 73.403 51.9804
1.729470 72.924 47.0442
1.742003 72.476 41.1750
1.754626 72.064 34.1886
1.767341 71.694 25.9408
1.780147 71.372 16.4153
1.793047 71.105 5.8350
1.806040 70.898 -5.2927
1.819128 70.758 -16.2929
1.832310 70.688 -26.5669
1.845587 70.693 -35.7734
1.858961 70.772 -43.8314
1.872432 70.925 -50.8212
1.886001 71.148 -56.8860
1.899667 71.438 -62.1756
1.913433 71.789 -66.8232
1.927299 72.195 -70.9390
1.941265 72.650 -74.6119
1.955332 73.148 -77.9126
1.969501 73.681 -80.8975
1.983773 74.243 -83.6115
1.998148 74.827 -86.0906
2.012627 75.427 -88.3640
2.027212 76.036 -90.4550
2.041902 76.647 -92.3832
2.056698 77.254 -94.1643
2.071602 77.849 -95.8116
2.086614 78.428 -97.3362
2.101734 78.983 -98.7478
2.116964 79.509 -100.0554
2.132304 80.000 -101.2675
2.147756 80.454 -102.3935
2.163320 80.866 -103.4443
2.178996 81.237 -104.4331
2.194786 81.567 -105.3760
2.210690 81.860 -106.2906
2.226710 82.119 -107.1933
2.242845 82.349 -108.0970
2.259098 82.553 -109.0093
2.275468 82.734 -109.9340
2.291957 82.893 -110.8711
2.308566 83.031 -111.8190
2.325295 83.152 -112.7743
2.342145 83.254 -113.7328
2.359117 83.341 -114.6900
2.376212 83.412 -115.6405
2.393431 83.470 -116.5790
2.410775 83.516 -117.4997
2.428244 83.550 -118.3968
2.445840 83.575 -119.2642
2.463564 83.592 -120.0962
2.481416 83.602 -120.8872
2.499397 83.606 -121.6328
2.517509 83.605 -122.3302
2.535752 83.600 -122.9792
2.554127 83.589 -123.5829
2.572635 83.572 -124.1478
2.591277 83.546 -124.6828
2.610055 83.511 -125.1960
2.628968 83.465 -125.6938
2.648019 83.408 -126.1797
2.667208 83.340 -126.6546
2.686535 83.260 -127.1174
2.706003 83.170 -127.5655
2.725612 83.069 -127.9948
2.745363 82.960 -128.3998
2.765257 82.842 -128.7742
2.785295 82.716 -129.1103
2.805478 82.584 -129.3996
2.825808 82.446 -129.6322
2.846285 82.303 -129.7975
2.866910 82.154 -129.8845
2.887685 82.001 -129.8818
2.908611 81.841 -129.7786
2.929688 81.673 -129.5652
2.950917 81.494 -129.2331
2.972301 81.303 -128.7749
2.993839 81.099 -128.1837
3.015534 80.881 -127.4522
3.037386 80.652 -126.5730
3.059396 80.415 -125.5385
3.081565 80.172 -124.3415
3.103896 79.930 -122.9757
3.126388 79.692 -121.4365
3.149043 79.464 -119.7220
3.171862 79.253 -117.8336
3.194847 79.065 -115.7770
3.217998 78.906 -113.5619
3.241317 78.781 -111.2016
3.264805 78.698 -108.7113
3.288463 78.659 -106.1065
3.312293 78.667 -103.4029
3.336295 78.721 -100.6192
3.360471 78.821 -97.7818
3.384822 78.961 -94.9260
3.409350 79.139 -92.0943
3.434056 79.348 -89.3315
3.458940 79.583 -86.6809
3.484005 79.839 -84.1805
3.509252 80.109 -81.8608
3.534681 80.389 -79.7439
3.560295 80.673 -77.8433
3.586094 80.959 -76.1652
3.612081 81.243 -74.7086
3.638255 81.524 -73.4663
3.664620 81.803 -72.4264
3.691175 82.083 -71.5731
3.717923 82.364 -70.8886
3.744864 82.647 -70.3551
3.772001 82.933 -69.9556
3.799335 83.220 -69.6740
3.826866 83.506 -69.4956
3.854597 83.790 -69.4075
3.882529 84.067 -69.3983
3.910664 84.336 -69.4585
3.939002 84.595 -69.5810
3.967546 84.840 -69.7609
3.996296 85.071 -69.9960
4.025255 85.287 -70.2864
4.054423 85.487 -70.6331
4.083804 85.673 -71.0364
4.113396 85.845 -71.4935
4.143204 86.003 -71.9988
4.173227 86.149 -72.5441
4.203468 86.284 -73.1199
4.233928 86.407 -73.7161
4.264609 86.519 -74.3235
4.295512 86.621 -74.9340
4.326639 86.714 -75.5420
4.357992 86.796 -76.1450
4.389572 86.869 -76.7439
4.421380 86.931 -77.3425
4.453419 86.983 -77.9450
4.485691 87.023 -78.5535
4.518196 87.053 -79.1669
4.550936 87.073 -79.7806
4.583914 87.083 -80.3877
4.617131 87.085 -80.9795
4.650589 87.078 -81.5469
4.684289 87.063 -82.0812
4.718233 87.041 -82.5756
4.752424 87.012 -83.0255
4.786862 86.975 -83.4299
4.821549 86.930 -83.7894
4.856488 86.878 -84.1056
4.891680 86.818 -84.3790
4.927127 86.753 -84.6088
4.962831 86.683 -84.7929
4.998794 86.610 -84.9280
5.035017 86.537 -85.0097
5.071503 86.464 -85.0331
5.108253 86.391 -84.9930
5.145270 86.321 -84.8851
5.182555 86.252 -84.7068
5.220110 86.185 -84.4586
5.257937 86.120 -84.1444
5.296038 86.060 -83.7715
5.334415 86.004 -83.3488
5.373071 85.956 -82.8867
5.412006 85.917 -82.3949
5.451224 85.889 -81.8816
5.490725 85.873 -81.3524
5.530514 85.870 -80.8109
5.570590 85.880 -80.2608
5.610957 85.901 -79.7090
5.651616 85.934 -79.1657
5.692570 85.977 -78.6441
5.733821 86.029 -78.1586
5.775370 86.088 -77.7227
5.817221 86.155 -77.3472
5.859375 86.229 -77.0395
5.901834 86.310 -76.8025
5.944602 86.397 -76.6365
5.987679 86.490 -76.5407
6.031068 86.586 -76.5144
6.074771 86.684 -76.5576
6.118792 86.782 -76.6708
6.163131 86.878 -76.8549
6.207792 86.971 -77.1109
6.252776 87.059 -77.4387
6.298086 87.144 -77.8365
6.343725 87.223 -78.2996
6.389694 87.297 -78.8209
6.435996 87.366 -79.3920
6.482634 87.429 -80.0046
6.529610 87.484 -80.6521
6.576926 87.533 -81.3302
6.624585 87.573 -82.0368
6.672590 87.605 -82.7702
6.720942 87.630 -83.5270
6.769645 87.647 -84.3010
6.818700 87.658 -85.0840
6.868111 87.662 -85.8672
6.917881 87.660 -86.6430
6.968010 87.652 -87.4063
7.018504 87.638 -88.1544
7.069362 87.619 -88.8857
7.120590 87.595 -89.5979
7.172189 87.569 -90.2874
7.224161 87.540 -90.9495
7.276511 87.511 -91.5793
7.329239 87.481 -92.1727
7.382350 87.453 -92.7276
7.435845 87.426 -93.2443
7.489729 87.402 -93.7250
7.544002 87.381 -94.1729
7.598669 87.365 -94.5913
7.653732 87.356 -94.9833
7.709194 87.355 -95.3511
7.765058 87.361 -95.6972
7.821327 87.375 -96.0261
7.878004 87.398 -96.3443
7.935091 87.429 -96.6597
7.992592 87.468 -96.9804
8.050510 87.516 -97.3129
8.108847 87.573 -97.6617
8.167607 87.637 -98.0300
8.226793 87.708 -98.4209
8.286408 87.786 -98.8380
8.346454 87.869 -99.2847
8.406936 87.955 -99.7638
8.467856 88.044 -100.2766
8.529218 88.136 -100.8220
8.591024 88.230 -101.3976
8.653278 88.324 -102.0000
8.715983 88.418 -102.6259
8.779143 88.510 -103.2720
8.842760 88.601 -103.9352
8.906839 88.689 -104.6118
8.971381 88.775 -105.2966
9.036392 88.858 -105.9837
9.101873 88.939 -106.6671
9.167829 89.017 -107.3419
9.234263 89.091 -108.0044
9.301178 89.163 -108.6512
9.368578 89.233 -109.2784
9.436467 89.301 -109.8823
9.504847 89.368 -110.4594
9.573723 89.433 -111.0077
9.643099 89.498 -111.5261
9.712976 89.561 -112.0147
9.783361 89.623 -112.4738
9.854255 89.685 -112.9043
9.925663 89.746 -113.3073
9.997588 89.806 -113.6844
10.070035 89.867 -114.0384
10.143007 89.927 -114.3726
10.216507 89.987 -114.6903
10.290540 90.048 -114.9945
10.365109 90.110 -115.2879
10.440219 90.173 -115.5731
10.515873 90.236 -115.8525
10.592076 90.299 -116.1286
10.668830 90.363 -116.4030
10.746141 90.426 -116.6765
10.824012 90.488 -116.9496
10.902447 90.550 -117.2223
10.981451 90.610 -117.4941
11.061027 90.669 -117.7646
11.141180 90.725 -118.0329
11.221913 90.780 -118.2979
11.303232 90.832 -118.5583
11.385140 90.882 -118.8130
11.467641 90.930 -119.0613
11.550741 90.976 -119.3027
11.634442 91.020 -119.5369
11.718750 91.063 -119.7638
11.803669 91.104 -119.9837
11.889203 91.145 -120.1973
11.975357 91.184 -120.4058
12.062136 91.223 -120.6104
12.149543 91.260 -120.8124
12.237583 91.297 -121.0133
12.326262 91.332 -121.2143
12.415583 91.366 -121.4168
12.505552 91.399 -121.6219
12.596172 91.430 -121.8303
12.687449 91.459 -122.0425
12.779387 91.486 -122.2586
12.871992 91.511 -122.4785
12.965268 91.534 -122.7021
13.059220 91.554 -122.9288
13.153852 91.573 -123.1580
13.249170 91.591 -123.3893
13.345179 91.607 -123.6224
13.441884 91.621 -123.8573
13.539289 91.635 -124.0942
13.637401 91.648 -124.3338
13.736223 91.661 -124.5770
13.835761 91.673 -124.8253
13.936021 91.685 -125.0803
14.037007 91.697 -125.3439
14.138725 91.710 -125.6180
14.241180 91.722 -125.9044
14.344377 91.734 -126.2048
14.448323 91.746 -126.5205
14.553021 91.758 -126.8522
14.658478 91.769 -127.2000
14.764700 91.780 -127.5638
14.871691 91.790 -127.9426
14.979457 91.799 -128.3349
15.088005 91.808 -128.7389
15.197339 91.816 -129.1528
15.307465 91.824 -129.5743
15.418389 91.831 -130.0015
15.530117 91.838 -130.4327
15.642655 91.845 -130.8666
15.756008 91.854 -131.3024
15.870182 91.863 -131.7396
15.985184 91.874 -132.1786
16.101019 91.887 -132.6200
16.217694 91.902 -133.0645
16.335214 91.919 -133.5132
16.453586 91.938 -133.9669
16.572815 91.960 -134.4262
16.692909 91.983 -134.8912
16.813872 92.008 -135.3616
16.935713 92.035 -135.8365
17.058436 92.063 -136.3144
17.182048 92.093 -136.7933
17.306556 92.122 -137.2710
17.431967 92.153 -137.7451
17.558286 92.184 -138.2136
17.685521 92.215 -138.6743
17.813677 92.247 -139.1257
17.942762 92.280 -139.5668
18.072783 92.314 -139.9972
18.203746 92.348 -140.4169
18.335658 92.383 -140.8262
18.468526 92.420 -141.2260
18.602356 92.457 -141.6170
18.737156 92.494 -142.0000
18.872934 92.532 -142.3755
19.009695 92.570 -142.7438
19.147447 92.608 -143.1049
19.286197 92.645 -143.4585
19.425953 92.681 -143.8042
19.566721 92.717 -144.1416
19.708510 92.751 -144.4706
19.851326 92.783 -144.7910
19.995177 92.815 -145.1033
20.140070 92.845 -145.4084
20.286013 92.875 -145.7072
20.433014 92.902 -146.0012
20.581080 92.929 -146.2918
20.730219 92.954 -146.5806
20.880439 92.978 -146.8686
21.031747 93.000 -147.1569
21.184152 93.021 -147.4460
21.337661 93.040 -147.7365
21.492282 93.057 -148.0284
21.648024 93.073 -148.3219
21.804895 93.087 -148.6172
21.962902 93.100 -148.9148
22.122054 93.112 -149.2157
22.282360 93.123 -149.5210
22.443827 93.132 -149.8324
22.606464 93.142 -150.1514
22.770280 93.151 -150.4799
22.935283 93.159 -150.8192
23.101481 93.166 -151.1704
23.268884 93.173 -151.5340
23.437500 93.180 -151.9095
23.607338 93.185 -152.2959
23.778406 93.189 -152.6915
23.950714 93.192 -153.0941
24.124271 93.195 -153.5010
24.299086 93.197 -153.9096
24.475167 93.199 -154.3175
24.652524 93.201 -154.7226
24.831166 93.205 -155.1238
25.011103 93.210 -155.5206
25.192344 93.217 -155.9135
25.374898 93.226 -156.3042
25.558775 93.239 -156.6945
25.743984 93.254 -157.0872
25.930536 93.271 -157.4846
26.118439 93.290 -157.8884
26.307704 93.311 -158.2995
26.498341 93.332 -158.7174
26.690359 93.353 -159.1403
26.883768 93.373 -159.5648
27.078579 93.392 -159.9870
27.274801 93.409 -160.4026
27.472446 93.425 -160.8077
27.671522 93.440 -161.1995
27.872042 93.454 -161.5766
28.074014 93.467 -161.9394
28.277450 93.480 -162.2896
28.482360 93.493 -162.6300
28.688755 93.506 -162.9638
28.896645 93.518 -163.2938
29.106042 93.530 -163.6222
29.316957 93.540 -163.9500
29.529400 93.548 -164.2772
29.743382 93.555 -164.6034
29.958915 93.560 -164.9277
30.176009 93.564 -165.2497
30.394677 93.566 -165.5696
30.614929 93.567 -165.8880
30.836778 93.568 -166.2062
31.060234 93.567 -166.5255
31.285309 93.566 -166.8469
31.512015 93.565 -167.1710
31.740364 93.563 -167.4976
31.970368 93.561 -167.8262
32.202039 93.558 -168.1560
32.435388 93.556 -168.4866
32.670428 93.555 -168.8179
32.907171 93.555 -169.1506
33.145630 93.556 -169.4861
33.385817 93.559 -169.8261
33.627745 93.564 -170.1723
33.871425 93.570 -170.5260
34.116871 93.578 -170.8878
34.364096 93.586 -171.2578
34.613113 93.595 -171.6348
34.863934 93.604 -172.0177
35.116572 93.612 -172.4045
35.371041 93.621 -172.7937
35.627354 93.628 -173.1837
35.885525 93.635 -173.5733
36.145566 93.641 -173.9613
36.407492 93.645 -174.3466
36.671316 93.648 -174.7281
36.937051 93.650 -175.1047
37.204712 93.649 -175.4755
37.474313 93.648 -175.8400
37.745867 93.645 -176.1982
38.019389 93.640 -176.5508
38.294893 93.634 -176.8984
38.572394 93.626 -177.2414
38.851905 93.617 -177.5793
39.133442 93.606 -177.9102
39.417019 93.595 -178.2318
39.702651 93.582 -178.5419
39.990353 93.569 -178.8398
40.280140 93.558 -179.1271
40.572026 93.549 -179.4085
40.866028 93.544 -179.6909
41.162160 93.540 -179.9819
41.460438 93.540 179.7121
41.760877 93.541 179.3876
42.063494 93.542 179.0449
42.368303 93.542 178.6873
42.675322 93.542 178.3199
42.984565 93.540 177.9479
43.296048 93.538 177.5748
43.609789 93.535 177.2020
43.925804 93.532 176.8294
44.244108 93.528 176.4568
44.564719 93.523 176.0851
44.887654 93.517 175.7171
45.212928 93.510 175.3563
45.540560 93.501 175.0060
45.870565 93.492 174.6675
46.202962 93.482 174.3395
46.537768 93.473 174.0191
46.875000 93.464 173.7029
47.214676 93.455 173.3889
47.556813 93.446 173.0770
47.901429 93.436 172.7682
48.248542 93.425 172.4630
48.598171 93.416 172.1603
48.950334 93.406 171.8569
49.305048 93.397 171.5491
49.662333 93.387 171.2344
50.022206 93.376 170.9129
50.384688 93.365 170.5869
50.749796 93.351 170.2599
51.117550 93.337 169.9351
51.487969 93.322 169.6140
51.861072 93.307 169.2963
52.236879 93.292 168.9803
52.615409 93.277 168.6644
52.996681 93.262 168.3470
53.380717 93.248 168.0278
53.767536 93.234 167.7065
54.157158 93.220 167.3838
54.549603 93.207 167.0602
54.944892 93.193 166.7363
55.343045 93.180 166.4131
55.744084 93.167 166.0911
56.148028 93.154 165.7705
56.554900 93.142 165.4510
56.964720 93.130 165.1317
57.377510 93.119 164.8118
57.793291 93.107 164.4908
58.212085 93.095 164.1682
58.633914 93.083 163.8440
59.058799 93.070 163.5179
59.486764 93.056 163.1901
59.917829 93.040 162.8614
60.352019 93.023 162.5331
60.789354 93.004 162.2068
61.229859 92.985 161.8832
61.673556 92.964 161.5620
62.120468 92.942 161.2420
62.570618 92.920 160.9225
63.024031 92.898 160.6033
63.480729 92.875 160.2844
63.940736 92.852 159.9664
64.404077 92.829 159.6497
64.870776 92.806 159.3348
65.340856 92.783 159.0225
65.814343 92.759 158.7139
66.291261 92.736 158.4099
66.771635 92.713 158.1107
67.255489 92.690 157.8167
67.742850 92.666 157.5273
68.233743 92.643 157.2419
68.728193 92.620 156.9595
69.226226 92.596 156.6787
69.727867 92.572 156.3982
70.233144 92.548 156.1176
70.742083 92.524 155.8366
71.254709 92.499 155.5555
71.771050 92.474 155.2745
72.291132 92.450 154.9933
72.814984 92.425 154.7120
73.342631 92.401 154.4306
73.874102 92.377 154.1485
74.409424 92.354 153.8650
74.948626 92.331 153.5794
75.491734 92.309 153.2923
76.038779 92.287 153.0046
76.589787 92.265 152.7161
77.144788 92.243 152.4252
77.703811 92.221 152.1301
78.266885 92.199 151.8309
78.834039 92.176 151.5302
79.405303 92.153 151.2298
79.980706 92.129 150.9299
80.560280 92.105 150.6287
81.144053 92.080 150.3243
81.732056 92.055 150.0164
82.324320 92.028 149.7062
82.920876 91.999 149.3956
83.521755 91.968 149.0869
84.126988 91.936 148.7823
84.736607 91.902 148.4835
85.350643 91.867 148.1919
85.969129 91.831 147.9081
86.592097 91.794 147.6323
