* Measurement data measured by REW V5.31.3
* Source: EXCL: Microphone (USB Sound Device        ), MICROPHONE (Master Volume), R, volume: 0.390
* Format: 256k Log Swept Sine, 1 sweep at -12.0 dBFS with no timing reference
* Dated: May 19, 2025 7:44:11 PM
* REW Settings:
*  C-weighting compensation: Off
*  Target level: 75.0 dB
* Note: Rock Lobster L
* Measurement: L May 19
* Smoothing: 1/12 octave
* Frequency Step: 96 ppo
* Start Frequency: 0.36621094 Hz
*
* Freq(Hz) SPL(dB) Phase(degrees)
0.366211 94.157 160.8151
0.368865 94.151 160.7949
0.371538 94.143 160.7646
0.374230 94.132 160.7265
0.376942 94.121 160.6826
0.379673 94.108 160.6344
0.382424 94.095 160.5829
0.385196 94.082 160.5285
0.387987 94.068 160.4716
0.390798 94.055 160.4125
0.393630 94.041 160.3512
0.396483 94.027 160.2877
0.399356 94.012 160.2220
0.402250 93.998 160.1542
0.405165 93.984 160.0841
0.408101 93.969 160.0119
0.411058 93.955 159.9375
0.414037 93.940 159.8608
0.417037 93.925 159.7819
0.420059 93.910 159.7007
0.423103 93.895 159.6171
0.426169 93.880 159.5313
0.429257 93.865 159.4431
0.432368 93.850 159.3526
0.435501 93.834 159.2596
0.438656 93.819 159.1643
0.441835 93.803 159.0665
0.445037 93.787 158.9663
0.448262 93.772 158.8637
0.451510 93.756 158.7586
0.454782 93.739 158.6510
0.458077 93.723 158.5409
0.461397 93.707 158.4282
0.464740 93.690 158.3130
0.468108 93.674 158.1953
0.471500 93.657 158.0750
0.474917 93.640 157.9522
0.478358 93.623 157.8267
0.481825 93.606 157.6986
0.485316 93.589 157.5680
0.488833 93.572 157.4347
0.492375 93.554 157.2988
0.495943 93.537 157.1602
0.499537 93.519 157.0190
0.503157 93.501 156.8751
0.506803 93.483 156.7286
0.510475 93.465 156.5795
0.514175 93.447 156.4277
0.517900 93.429 156.2732
0.521653 93.410 156.1161
0.525434 93.391 155.9564
0.529241 93.373 155.7940
0.533076 93.354 155.6290
0.536939 93.335 155.4613
0.540830 93.316 155.2911
0.544749 93.296 155.1182
0.548696 93.277 154.9428
0.552673 93.257 154.7648
0.556677 93.238 154.5843
0.560711 93.218 154.4013
0.564774 93.198 154.2158
0.568867 93.178 154.0278
0.572989 93.157 153.8374
0.577141 93.137 153.6446
0.581324 93.116 153.4495
0.585536 93.095 153.2521
0.589779 93.075 153.0524
0.594053 93.054 152.8504
0.598358 93.032 152.6464
0.602694 93.011 152.4402
0.607061 92.989 152.2320
0.611460 92.968 152.0219
0.615891 92.946 151.8098
0.620354 92.924 151.5960
0.624849 92.902 151.3804
0.629377 92.880 151.1631
0.633938 92.857 150.9443
0.638532 92.834 150.7240
0.643159 92.812 150.5024
0.647819 92.789 150.2795
0.652514 92.766 150.0556
0.657242 92.742 149.8306
0.662005 92.719 149.6047
0.666802 92.695 149.3781
0.671634 92.671 149.1510
0.676501 92.647 148.9233
0.681403 92.623 148.6955
0.686341 92.599 148.4675
0.691314 92.574 148.2396
0.696324 92.550 148.0119
0.701370 92.525 147.7846
0.706452 92.499 147.5578
0.711571 92.473 147.3315
0.716728 92.447 147.1058
0.721921 92.419 146.8804
0.727153 92.390 146.6550
0.732422 92.359 146.4289
0.737729 92.326 146.2012
0.743075 92.290 145.9712
0.748460 92.254 145.7379
0.753883 92.216 145.5008
0.759346 92.177 145.2595
0.764849 92.138 145.0137
0.770391 92.097 144.7631
0.775974 92.057 144.5078
0.781597 92.015 144.2475
0.787261 91.974 143.9822
0.792966 91.931 143.7119
0.798712 91.888 143.4364
0.804500 91.845 143.1558
0.810329 91.801 142.8700
0.816201 91.756 142.5790
0.822116 91.711 142.2827
0.828073 91.665 141.9812
0.834074 91.618 141.6743
0.840118 91.571 141.3622
0.846206 91.523 141.0447
0.852338 91.474 140.7218
0.858514 91.424 140.3937
0.864735 91.374 140.0602
0.871001 91.322 139.7213
0.877313 91.270 139.3772
0.883670 91.217 139.0278
0.890074 91.163 138.6732
0.896524 91.107 138.3134
0.903020 91.051 137.9485
0.909564 90.993 137.5786
0.916155 90.935 137.2037
0.922794 90.875 136.8240
0.929481 90.814 136.4395
0.936216 90.752 136.0505
0.943000 90.688 135.6571
0.949834 90.623 135.2593
0.956717 90.556 134.8575
0.963649 90.488 134.4519
0.970632 90.419 134.0426
0.977666 90.348 133.6300
0.984750 90.275 133.2143
0.991886 90.200 132.7958
0.999074 90.124 132.3749
1.006314 90.046 131.9520
1.013606 89.966 131.5274
1.020951 89.884 131.1017
1.028349 89.800 130.6752
1.035801 89.714 130.2487
1.043307 89.626 129.8224
1.050867 89.535 129.3972
1.058482 89.443 128.9734
1.066152 89.348 128.5519
1.073878 89.250 128.1330
1.081660 89.151 127.7171
1.089498 89.049 127.3046
1.097393 88.945 126.8953
1.105345 88.840 126.4889
1.113355 88.733 126.0850
1.121423 88.625 125.6829
1.129549 88.516 125.2821
1.137734 88.406 124.8821
1.145979 88.295 124.4825
1.154283 88.183 124.0829
1.162647 88.070 123.6830
1.171072 87.955 123.2825
1.179558 87.839 122.8809
1.188106 87.721 122.4780
1.196715 87.601 122.0735
1.205387 87.479 121.6668
1.214122 87.355 121.2577
1.222920 87.228 120.8457
1.231782 87.099 120.4304
1.240708 86.967 120.0113
1.249699 86.831 119.5879
1.258754 86.692 119.1597
1.267876 86.550 118.7261
1.277063 86.404 118.2866
1.286318 86.253 117.8405
1.295639 86.098 117.3871
1.305027 85.938 116.9257
1.314484 85.773 116.4556
1.324009 85.603 115.9760
1.333604 85.427 115.4860
1.343268 85.245 114.9847
1.353002 85.056 114.4711
1.362806 84.861 113.9442
1.372681 84.659 113.4030
1.382628 84.449 112.8463
1.392647 84.232 112.2730
1.402739 84.006 111.6820
1.412904 83.771 111.0719
1.423142 83.527 110.4418
1.433455 83.271 109.7905
1.443843 83.004 109.1173
1.454305 82.723 108.4214
1.464844 82.426 107.7025
1.475459 82.111 106.9601
1.486150 81.773 106.1935
1.496920 81.412 105.4015
1.507767 81.027 104.5818
1.518693 80.617 103.7318
1.529698 80.183 102.8480
1.540783 79.725 101.9258
1.551948 79.245 100.9602
1.563194 78.746 99.9450
1.574521 78.228 98.8728
1.585931 77.695 97.7352
1.597423 77.148 96.5219
1.608999 76.591 95.2206
1.620658 76.025 93.8167
1.632402 75.453 92.2923
1.644232 74.880 90.6258
1.656146 74.308 88.7906
1.668147 73.740 86.7539
1.680235 73.180 84.4754
1.692411 72.633 81.9045
1.704675 72.103 78.9786
1.717028 71.593 75.6204
1.729470 71.110 71.7352
1.742003 70.659 67.2108
1.754626 70.245 61.9208
1.767341 69.874 55.7380
1.780147 69.552 48.5629
1.793047 69.287 40.3733
1.806040 69.084 31.2860
1.819128 68.949 21.5948
1.832310 68.886 11.7392
1.845587 68.899 2.1897
1.858961 68.987 -6.6803
1.872432 69.150 -14.6623
1.886001 69.384 -21.7008
1.899667 69.685 -27.8415
1.913433 70.047 -33.1803
1.927299 70.466 -37.8274
1.941265 70.934 -41.8884
1.955332 71.446 -45.4562
1.969501 71.994 -48.6094
1.983773 72.573 -51.4128
1.998148 73.175 -53.9193
2.012627 73.794 -56.1717
2.027212 74.424 -58.2050
2.041902 75.058 -60.0475
2.056698 75.689 -61.7225
2.071602 76.311 -63.2490
2.086614 76.918 -64.6428
2.101734 77.504 -65.9171
2.116964 78.062 -67.0835
2.132304 78.589 -68.1521
2.147756 79.081 -69.1327
2.163320 79.534 -70.0351
2.178996 79.949 -70.8700
2.194786 80.326 -71.6489
2.210690 80.668 -72.3840
2.226710 80.981 -73.0863
2.242845 81.267 -73.7646
2.259098 81.530 -74.4246
2.275468 81.773 -75.0698
2.291957 81.997 -75.7016
2.308566 82.205 -76.3203
2.325295 82.397 -76.9252
2.342145 82.575 -77.5153
2.359117 82.740 -78.0891
2.376212 82.894 -78.6451
2.393431 83.039 -79.1814
2.410775 83.175 -79.6963
2.428244 83.304 -80.1877
2.445840 83.429 -80.6538
2.463564 83.549 -81.0926
2.481416 83.668 -81.5024
2.499397 83.785 -81.8819
2.517509 83.903 -82.2304
2.535752 84.021 -82.5479
2.554127 84.139 -82.8359
2.572635 84.255 -83.0966
2.591277 84.369 -83.3334
2.610055 84.478 -83.5493
2.628968 84.582 -83.7469
2.648019 84.681 -83.9278
2.667208 84.773 -84.0932
2.686535 84.860 -84.2437
2.706003 84.942 -84.3795
2.725612 85.020 -84.5004
2.745363 85.094 -84.6063
2.765257 85.164 -84.6968
2.785295 85.232 -84.7714
2.805478 85.299 -84.8297
2.825808 85.365 -84.8709
2.846285 85.431 -84.8945
2.866910 85.497 -84.8997
2.887685 85.565 -84.8858
2.908611 85.634 -84.8520
2.929688 85.703 -84.7976
2.950917 85.773 -84.7221
2.972301 85.843 -84.6254
2.993839 85.913 -84.5080
3.015534 85.982 -84.3707
3.037386 86.049 -84.2151
3.059396 86.117 -84.0428
3.081565 86.184 -83.8557
3.103896 86.250 -83.6559
3.126388 86.317 -83.4456
3.149043 86.385 -83.2268
3.171862 86.454 -83.0017
3.194847 86.524 -82.7722
3.217998 86.597 -82.5399
3.241317 86.671 -82.3058
3.264805 86.748 -82.0701
3.288463 86.828 -81.8323
3.312293 86.911 -81.5911
3.336295 86.996 -81.3451
3.360471 87.084 -81.0939
3.384822 87.174 -80.8379
3.409350 87.267 -80.5788
3.434056 87.361 -80.3191
3.458940 87.457 -80.0618
3.484005 87.554 -79.8103
3.509252 87.653 -79.5679
3.534681 87.753 -79.3380
3.560295 87.853 -79.1237
3.586094 87.954 -78.9277
3.612081 88.056 -78.7519
3.638255 88.158 -78.5973
3.664620 88.261 -78.4638
3.691175 88.365 -78.3506
3.717923 88.469 -78.2561
3.744864 88.575 -78.1793
3.772001 88.681 -78.1194
3.799335 88.788 -78.0758
3.826866 88.895 -78.0484
3.854597 89.002 -78.0375
3.882529 89.108 -78.0431
3.910664 89.214 -78.0657
3.939002 89.317 -78.1057
3.967546 89.420 -78.1636
3.996296 89.520 -78.2398
4.025255 89.618 -78.3346
4.054423 89.715 -78.4483
4.083804 89.809 -78.5805
4.113396 89.901 -78.7307
4.143204 89.992 -78.8977
4.173227 90.080 -79.0799
4.203468 90.167 -79.2758
4.233928 90.251 -79.4837
4.264609 90.333 -79.7021
4.295512 90.412 -79.9297
4.326639 90.489 -80.1655
4.357992 90.563 -80.4093
4.389572 90.634 -80.6613
4.421380 90.702 -80.9221
4.453419 90.767 -81.1922
4.485691 90.829 -81.4716
4.518196 90.887 -81.7593
4.550936 90.943 -82.0539
4.583914 90.996 -82.3532
4.617131 91.047 -82.6550
4.650589 91.095 -82.9570
4.684289 91.140 -83.2573
4.718233 91.184 -83.5544
4.752424 91.225 -83.8477
4.786862 91.263 -84.1374
4.821549 91.299 -84.4239
4.856488 91.332 -84.7077
4.891680 91.363 -84.9887
4.927127 91.392 -85.2666
4.962831 91.419 -85.5404
4.998794 91.444 -85.8092
5.035017 91.469 -86.0716
5.071503 91.492 -86.3267
5.108253 91.514 -86.5736
5.145270 91.536 -86.8118
5.182555 91.557 -87.0413
5.220110 91.578 -87.2626
5.257937 91.597 -87.4764
5.296038 91.617 -87.6839
5.334415 91.636 -87.8860
5.373071 91.655 -88.0837
5.412006 91.675 -88.2777
5.451224 91.696 -88.4685
5.490725 91.718 -88.6562
5.530514 91.740 -88.8409
5.570590 91.764 -89.0228
5.610957 91.789 -89.2028
5.651616 91.815 -89.3822
5.692570 91.842 -89.5631
5.733821 91.871 -89.7474
5.775370 91.901 -89.9372
5.817221 91.932 -90.1340
5.859375 91.964 -90.3389
5.901834 91.998 -90.5522
5.944602 92.034 -90.7744
5.987679 92.070 -91.0059
6.031068 92.108 -91.2475
6.074771 92.147 -91.5006
6.118792 92.187 -91.7664
6.163131 92.227 -92.0463
6.207792 92.268 -92.3413
6.252776 92.309 -92.6520
6.298086 92.351 -92.9785
6.343725 92.393 -93.3204
6.389694 92.435 -93.6771
6.435996 92.477 -94.0482
6.482634 92.519 -94.4330
6.529610 92.561 -94.8313
6.576926 92.601 -95.2427
6.624585 92.641 -95.6671
6.672590 92.681 -96.1043
6.720942 92.719 -96.5535
6.769645 92.757 -97.0134
6.818700 92.794 -97.4824
6.868111 92.830 -97.9590
6.917881 92.865 -98.4420
6.968010 92.900 -98.9303
7.018504 92.933 -99.4236
7.069362 92.966 -99.9211
7.120590 92.997 -100.4220
7.172189 93.029 -100.9251
7.224161 93.059 -101.4288
7.276511 93.090 -101.9319
7.329239 93.120 -102.4335
7.382350 93.150 -102.9329
7.435845 93.180 -103.4299
7.489729 93.211 -103.9243
7.544002 93.242 -104.4159
7.598669 93.273 -104.9044
7.653732 93.305 -105.3895
7.709194 93.338 -105.8710
7.765058 93.373 -106.3488
7.821327 93.408 -106.8232
7.878004 93.444 -107.2948
7.935091 93.482 -107.7641
7.992592 93.521 -108.2317
8.050510 93.561 -108.6981
8.108847 93.603 -109.1637
8.167607 93.647 -109.6287
8.226793 93.692 -110.0937
8.286408 93.738 -110.5591
8.346454 93.785 -111.0256
8.406936 93.833 -111.4936
8.467856 93.883 -111.9634
8.529218 93.933 -112.4350
8.591024 93.984 -112.9083
8.653278 94.036 -113.3830
8.715983 94.089 -113.8590
8.779143 94.141 -114.3361
8.842760 94.194 -114.8138
8.906839 94.247 -115.2918
8.971381 94.299 -115.7693
9.036392 94.352 -116.2454
9.101873 94.404 -116.7192
9.167829 94.456 -117.1900
9.234263 94.508 -117.6571
9.301178 94.559 -118.1197
9.368578 94.610 -118.5770
9.436467 94.660 -119.0283
9.504847 94.710 -119.4726
9.573723 94.759 -119.9095
9.643099 94.808 -120.3384
9.712976 94.857 -120.7592
9.783361 94.905 -121.1715
9.854255 94.953 -121.5752
9.925663 95.001 -121.9701
9.997588 95.049 -122.3563
10.070035 95.096 -122.7341
10.143007 95.144 -123.1038
10.216507 95.191 -123.4659
10.290540 95.238 -123.8205
10.365109 95.285 -124.1684
10.440219 95.332 -124.5098
10.515873 95.378 -124.8453
10.592076 95.425 -125.1755
10.668830 95.471 -125.5009
10.746141 95.516 -125.8218
10.824012 95.561 -126.1385
10.902447 95.605 -126.4515
10.981451 95.649 -126.7610
11.061027 95.692 -127.0672
11.141180 95.734 -127.3704
11.221913 95.775 -127.6707
11.303232 95.816 -127.9682
11.385140 95.855 -128.2632
11.467641 95.893 -128.5556
11.550741 95.931 -128.8458
11.634442 95.967 -129.1340
11.718750 96.002 -129.4203
11.803669 96.036 -129.7051
11.889203 96.070 -129.9888
11.975357 96.102 -130.2717
12.062136 96.133 -130.5543
12.149543 96.163 -130.8370
12.237583 96.191 -131.1203
12.326262 96.219 -131.4045
12.415583 96.246 -131.6901
12.505552 96.271 -131.9776
12.596172 96.295 -132.2671
12.687449 96.318 -132.5590
12.779387 96.340 -132.8534
12.871992 96.360 -133.1504
12.965268 96.379 -133.4500
13.059220 96.396 -133.7522
13.153852 96.413 -134.0569
13.249170 96.428 -134.3639
13.345179 96.441 -134.6733
13.441884 96.454 -134.9848
13.539289 96.466 -135.2985
13.637401 96.476 -135.6144
13.736223 96.486 -135.9325
13.835761 96.495 -136.2532
13.936021 96.504 -136.5766
14.037007 96.512 -136.9032
14.138725 96.520 -137.2334
14.241180 96.528 -137.5677
14.344377 96.536 -137.9068
14.448323 96.543 -138.2510
14.553021 96.551 -138.6009
14.658478 96.559 -138.9568
14.764700 96.566 -139.3192
14.871691 96.574 -139.6882
14.979457 96.582 -140.0638
15.088005 96.590 -140.4458
15.197339 96.598 -140.8340
15.307465 96.606 -141.2279
15.418389 96.614 -141.6271
15.530117 96.622 -142.0309
15.642655 96.631 -142.4386
15.756008 96.639 -142.8495
15.870182 96.648 -143.2629
15.985184 96.657 -143.6780
16.101019 96.667 -144.0943
16.217694 96.677 -144.5112
16.335214 96.688 -144.9280
16.453586 96.699 -145.3444
16.572815 96.711 -145.7599
16.692909 96.724 -146.1743
16.813872 96.738 -146.5871
16.935713 96.752 -146.9982
17.058436 96.767 -147.4071
17.182048 96.782 -147.8136
17.306556 96.799 -148.2174
17.431967 96.815 -148.6182
17.558286 96.833 -149.0158
17.685521 96.850 -149.4098
17.813677 96.868 -149.7999
17.942762 96.886 -150.1859
18.072783 96.905 -150.5674
18.203746 96.923 -150.9443
18.335658 96.941 -151.3161
18.468526 96.959 -151.6826
18.602356 96.977 -152.0435
18.737156 96.994 -152.3986
18.872934 97.011 -152.7476
19.009695 97.027 -153.0903
19.147447 97.042 -153.4266
19.286197 97.057 -153.7565
19.425953 97.071 -154.0800
19.566721 97.084 -154.3974
19.708510 97.096 -154.7091
19.851326 97.108 -155.0155
19.995177 97.118 -155.3174
20.140070 97.128 -155.6154
20.286013 97.137 -155.9105
20.433014 97.145 -156.2033
20.581080 97.152 -156.4946
20.730219 97.157 -156.7851
20.880439 97.162 -157.0753
21.031747 97.165 -157.3656
21.184152 97.167 -157.6563
21.337661 97.167 -157.9476
21.492282 97.167 -158.2399
21.648024 97.165 -158.5332
21.804895 97.163 -158.8280
21.962902 97.159 -159.1247
22.122054 97.155 -159.4239
22.282360 97.150 -159.7262
22.443827 97.145 -160.0323
22.606464 97.139 -160.3431
22.770280 97.133 -160.6591
22.935283 97.127 -160.9809
23.101481 97.121 -161.3089
23.268884 97.115 -161.6430
23.437500 97.108 -161.9833
23.607338 97.101 -162.3292
23.778406 97.095 -162.6805
23.950714 97.088 -163.0363
24.124271 97.082 -163.3960
24.299086 97.076 -163.7589
24.475167 97.071 -164.1242
24.652524 97.065 -164.4913
24.831166 97.061 -164.8596
25.011103 97.057 -165.2283
25.192344 97.054 -165.5968
25.374898 97.051 -165.9646
25.558775 97.049 -166.3310
25.743984 97.048 -166.6954
25.930536 97.047 -167.0574
26.118439 97.046 -167.4164
26.307704 97.047 -167.7720
26.498341 97.047 -168.1237
26.690359 97.048 -168.4712
26.883768 97.048 -168.8140
27.078579 97.049 -169.1516
27.274801 97.049 -169.4835
27.472446 97.049 -169.8091
27.671522 97.048 -170.1283
27.872042 97.047 -170.4406
28.074014 97.046 -170.7460
28.277450 97.044 -171.0450
28.482360 97.041 -171.3380
28.688755 97.038 -171.6259
28.896645 97.034 -171.9098
29.106042 97.029 -172.1909
29.316957 97.024 -172.4704
29.529400 97.018 -172.7495
29.743382 97.011 -173.0290
29.958915 97.004 -173.3097
30.176009 96.995 -173.5922
30.394677 96.985 -173.8766
30.614929 96.975 -174.1632
30.836778 96.963 -174.4520
31.060234 96.951 -174.7431
31.285309 96.938 -175.0367
31.512015 96.925 -175.3329
31.740364 96.912 -175.6321
31.970368 96.899 -175.9347
32.202039 96.885 -176.2412
32.435388 96.872 -176.5518
32.670428 96.859 -176.8665
32.907171 96.846 -177.1849
33.145630 96.833 -177.5064
33.385817 96.820 -177.8299
33.627745 96.808 -178.1544
33.871425 96.795 -178.4787
34.116871 96.783 -178.8015
34.364096 96.771 -179.1222
34.613113 96.759 -179.4401
34.863934 96.747 -179.7548
35.116572 96.736 179.9340
35.371041 96.725 179.6264
35.627354 96.714 179.3228
35.885525 96.703 179.0234
36.145566 96.691 178.7283
36.407492 96.680 178.4376
36.671316 96.668 178.1509
36.937051 96.656 177.8680
37.204712 96.644 177.5884
37.474313 96.631 177.3116
37.745867 96.618 177.0369
38.019389 96.604 176.7641
38.294893 96.589 176.4926
38.572394 96.574 176.2220
38.851905 96.559 175.9516
39.133442 96.543 175.6804
39.417019 96.527 175.4075
39.702651 96.510 175.1322
39.990353 96.493 174.8539
40.280140 96.475 174.5731
40.572026 96.456 174.2906
40.866028 96.437 174.0081
41.162160 96.417 173.7274
41.460438 96.397 173.4496
41.760877 96.377 173.1755
42.063494 96.357 172.9049
42.368303 96.338 172.6365
42.675322 96.320 172.3689
42.984565 96.302 172.1008
43.296048 96.284 171.8316
43.609789 96.265 171.5618
43.925804 96.247 171.2930
44.244108 96.227 171.0273
44.564719 96.208 170.7671
44.887654 96.187 170.5138
45.212928 96.167 170.2682
45.540560 96.147 170.0297
45.870565 96.128 169.7961
46.202962 96.110 169.5646
46.537768 96.093 169.3317
46.875000 96.077 169.0945
47.214676 96.061 168.8509
47.556813 96.044 168.6002
47.901429 96.027 168.3430
48.248542 96.010 168.0810
48.598171 95.991 167.8163
48.950334 95.971 167.5511
49.305048 95.951 167.2874
49.662333 95.930 167.0269
50.022206 95.907 166.7708
50.384688 95.885 166.5198
50.749796 95.862 166.2743
51.117550 95.840 166.0337
51.487969 95.817 165.7972
51.861072 95.794 165.5638
52.236879 95.772 165.3326
52.615409 95.749 165.1030
52.996681 95.726 164.8750
53.380717 95.703 164.6484
53.767536 95.680 164.4230
54.157158 95.657 164.1981
54.549603 95.635 163.9730
54.944892 95.612 163.7474
55.343045 95.589 163.5215
55.744084 95.567 163.2954
56.148028 95.544 163.0692
56.554900 95.523 162.8421
56.964720 95.501 162.6129
57.377510 95.480 162.3806
57.793291 95.459 162.1449
58.212085 95.437 161.9072
58.633914 95.415 161.6693
59.058799 95.392 161.4332
59.486764 95.368 161.2003
59.917829 95.343 160.9710
60.352019 95.318 160.7452
60.789354 95.293 160.5226
61.229859 95.267 160.3027
61.673556 95.240 160.0856
62.120468 95.213 159.8708
62.570618 95.185 159.6579
63.024031 95.158 159.4467
63.480729 95.129 159.2371
63.940736 95.101 159.0291
64.404077 95.073 158.8228
64.870776 95.045 158.6179
65.340856 95.017 158.4139
65.814343 94.989 158.2109
66.291261 94.961 158.0093
66.771635 94.933 157.8100
67.255489 94.905 157.6136
67.742850 94.877 157.4204
68.233743 94.849 157.2300
68.728193 94.821 157.0415
69.226226 94.792 156.8542
69.727867 94.764 156.6679
70.233144 94.735 156.4824
70.742083 94.706 156.2982
71.254709 94.677 156.1156
71.771050 94.647 155.9350
72.291132 94.618 155.7560
72.814984 94.589 155.5779
73.342631 94.561 155.4002
73.874102 94.533 155.2226
74.409424 94.504 155.0453
74.948626 94.477 154.8686
75.491734 94.449 154.6926
76.038779 94.421 154.5176
76.589787 94.393 154.3441
77.144788 94.365 154.1720
77.703811 94.337 154.0006
78.266885 94.309 153.8286
78.834039 94.281 153.6545
79.405303 94.253 153.4769
79.980706 94.224 153.2946
80.560280 94.196 153.1063
81.144053 94.166 152.9116
81.732056 94.136 152.7103
82.324320 94.105 152.5037
82.920876 94.072 152.2941
83.521755 94.037 152.0848
84.126988 94.001 151.8798
84.736607 93.963 151.6825
85.350643 93.924 151.4954
85.969129 93.885 151.3195
86.592097 93.845 151.1540
87.219579 93.806 150.9974
87.851608 93.767 150.8486
