* Measurement data measured by REW V5.31
* Source: EXCL: Microphone (USB Sound Device        ), MICROPHONE (Master Volume), L, volume: 0.390
* Format: 256k Log Swept Sine, 1 sweep at -4.0 dBFS with no timing reference
* Dated: Jul 22, 2024 11:36:17 PM
* REW Settings:
*  C-weighting compensation: Off
*  Target level: 75.0 dB
* Note: Artti R1 L
* Measurement: L Artti R1
* Smoothing: 1/12 octave
* Frequency Step: 96 ppo
* Start Frequency: 0.36621094 Hz
*
* Freq(Hz) SPL(dB) Phase(degrees)
0.366211 88.588 -62.3374
0.368865 88.593 -62.4026
0.371538 88.600 -62.5002
0.374230 88.608 -62.6227
0.376942 88.618 -62.7635
0.379673 88.628 -62.9179
0.382424 88.639 -63.0829
0.385196 88.650 -63.2564
0.387987 88.662 -63.4373
0.390798 88.673 -63.6251
0.393630 88.684 -63.8195
0.396483 88.696 -64.0202
0.399356 88.708 -64.2273
0.402250 88.720 -64.4407
0.405165 88.731 -64.6604
0.408101 88.743 -64.8865
0.411058 88.756 -65.1189
0.414037 88.768 -65.3577
0.417037 88.780 -65.6029
0.420059 88.792 -65.8545
0.423103 88.805 -66.1125
0.426169 88.817 -66.3769
0.429257 88.830 -66.6478
0.432368 88.842 -66.9251
0.435501 88.855 -67.2088
0.438656 88.868 -67.4990
0.441835 88.881 -67.7956
0.445037 88.894 -68.0986
0.448262 88.907 -68.4079
0.451510 88.920 -68.7236
0.454782 88.934 -69.0457
0.458077 88.947 -69.3740
0.461397 88.961 -69.7086
0.464740 88.974 -70.0495
0.468108 88.988 -70.3965
0.471500 89.002 -70.7496
0.474917 89.016 -71.1088
0.478358 89.030 -71.4740
0.481825 89.044 -71.8451
0.485316 89.058 -72.2221
0.488833 89.073 -72.6048
0.492375 89.087 -72.9932
0.495943 89.102 -73.3873
0.499537 89.116 -73.7869
0.503157 89.131 -74.1918
0.506803 89.146 -74.6021
0.510475 89.161 -75.0176
0.514175 89.176 -75.4381
0.517900 89.191 -75.8636
0.521653 89.207 -76.2940
0.525434 89.222 -76.7290
0.529241 89.237 -77.1686
0.533076 89.253 -77.6126
0.536939 89.269 -78.0608
0.540830 89.285 -78.5132
0.544749 89.301 -78.9696
0.548696 89.317 -79.4297
0.552673 89.333 -79.8935
0.556677 89.349 -80.3608
0.560711 89.366 -80.8313
0.564774 89.382 -81.3050
0.568867 89.399 -81.7816
0.572989 89.416 -82.2610
0.577141 89.433 -82.7430
0.581324 89.450 -83.2273
0.585536 89.467 -83.7139
0.589779 89.484 -84.2025
0.594053 89.502 -84.6929
0.598358 89.519 -85.1850
0.602694 89.537 -85.6785
0.607061 89.555 -86.1733
0.611460 89.573 -86.6691
0.615891 89.591 -87.1659
0.620354 89.609 -87.6633
0.624849 89.627 -88.1612
0.629377 89.646 -88.6594
0.633938 89.664 -89.1578
0.638532 89.683 -89.6561
0.643159 89.702 -90.1541
0.647819 89.721 -90.6518
0.652514 89.740 -91.1488
0.657242 89.759 -91.6451
0.662005 89.779 -92.1405
0.666802 89.798 -92.6348
0.671634 89.818 -93.1278
0.676501 89.838 -93.6195
0.681403 89.858 -94.1096
0.686341 89.878 -94.5980
0.691314 89.898 -95.0846
0.696324 89.919 -95.5694
0.701370 89.939 -96.0522
0.706452 89.959 -96.5331
0.711571 89.979 -97.0124
0.716728 89.999 -97.4903
0.721921 90.018 -97.9674
0.727153 90.036 -98.4449
0.732422 90.052 -98.9241
0.737729 90.067 -99.4067
0.743075 90.081 -99.8944
0.748460 90.093 -100.3885
0.753883 90.104 -100.8901
0.759346 90.114 -101.3996
0.764849 90.124 -101.9175
0.770391 90.134 -102.4438
0.775974 90.144 -102.9785
0.781597 90.153 -103.5216
0.787261 90.162 -104.0729
0.792966 90.171 -104.6322
0.798712 90.180 -105.1994
0.804500 90.189 -105.7742
0.810329 90.197 -106.3565
0.816201 90.205 -106.9459
0.822116 90.213 -107.5422
0.828073 90.220 -108.1452
0.834074 90.227 -108.7545
0.840118 90.234 -109.3700
0.846206 90.241 -109.9912
0.852338 90.247 -110.6180
0.858514 90.252 -111.2499
0.864735 90.258 -111.8866
0.871001 90.263 -112.5278
0.877313 90.267 -113.1731
0.883670 90.271 -113.8221
0.890074 90.274 -114.4746
0.896524 90.277 -115.1300
0.903020 90.279 -115.7881
0.909564 90.281 -116.4483
0.916155 90.282 -117.1104
0.922794 90.282 -117.7739
0.929481 90.282 -118.4383
0.936216 90.281 -119.1033
0.943000 90.279 -119.7684
0.949834 90.277 -120.4332
0.956717 90.273 -121.0973
0.963649 90.269 -121.7602
0.970632 90.264 -122.4215
0.977666 90.258 -123.0807
0.984750 90.251 -123.7375
0.991886 90.243 -124.3913
0.999074 90.234 -125.0417
1.006314 90.223 -125.6884
1.013606 90.212 -126.3307
1.020951 90.199 -126.9684
1.028349 90.186 -127.6010
1.035801 90.171 -128.2280
1.043307 90.154 -128.8492
1.050867 90.136 -129.4641
1.058482 90.117 -130.0726
1.066152 90.097 -130.6747
1.073878 90.075 -131.2706
1.081660 90.051 -131.8611
1.089498 90.027 -132.4474
1.097393 90.001 -133.0318
1.105345 89.975 -133.6168
1.113355 89.947 -134.2053
1.121423 89.920 -134.8000
1.129549 89.892 -135.4029
1.137734 89.863 -136.0156
1.145979 89.834 -136.6391
1.154283 89.804 -137.2741
1.162647 89.774 -137.9213
1.171072 89.743 -138.5810
1.179558 89.712 -139.2536
1.188106 89.679 -139.9393
1.196715 89.645 -140.6383
1.205387 89.610 -141.3507
1.214122 89.573 -142.0767
1.222920 89.535 -142.8164
1.231782 89.495 -143.5697
1.240708 89.454 -144.3365
1.249699 89.410 -145.1169
1.258754 89.363 -145.9105
1.267876 89.315 -146.7171
1.277063 89.263 -147.5363
1.286318 89.209 -148.3678
1.295639 89.151 -149.2108
1.305027 89.090 -150.0648
1.314484 89.026 -150.9288
1.324009 88.958 -151.8020
1.333604 88.885 -152.6832
1.343268 88.809 -153.5712
1.353002 88.727 -154.4645
1.362806 88.641 -155.3615
1.372681 88.549 -156.2604
1.382628 88.453 -157.1592
1.392647 88.350 -158.0557
1.402739 88.241 -158.9477
1.412904 88.125 -159.8330
1.423142 88.003 -160.7095
1.433455 87.873 -161.5756
1.443843 87.734 -162.4309
1.454305 87.586 -163.2760
1.464844 87.427 -164.1136
1.475459 87.255 -164.9479
1.486150 87.071 -165.7840
1.496920 86.872 -166.6270
1.507767 86.658 -167.4810
1.518693 86.430 -168.3497
1.529698 86.187 -169.2357
1.540783 85.931 -170.1414
1.551948 85.661 -171.0687
1.563194 85.380 -172.0195
1.574521 85.088 -172.9956
1.585931 84.786 -173.9988
1.597423 84.476 -175.0307
1.608999 84.158 -176.0933
1.620658 83.835 -177.1884
1.632402 83.507 -178.3180
1.644232 83.177 -179.4841
1.656146 82.846 179.3113
1.668147 82.515 178.0659
1.680235 82.186 176.7777
1.692411 81.862 175.4443
1.704675 81.545 174.0635
1.717028 81.236 172.6327
1.729470 80.937 171.1495
1.742003 80.652 169.6112
1.754626 80.382 168.0146
1.767341 80.131 166.3560
1.780147 79.899 164.6301
1.793047 79.690 162.8292
1.806040 79.506 160.9410
1.819128 79.347 158.9461
1.832310 79.213 156.8139
1.845587 79.105 154.4994
1.858961 79.021 151.9395
1.872432 78.959 149.0499
1.886001 78.919 145.7173
1.899667 78.899 141.7882
1.913433 78.899 137.0509
1.927299 78.917 131.2138
1.941265 78.954 123.8881
1.955332 79.008 114.6083
1.969501 79.080 102.9776
1.983773 79.167 89.0519
1.998148 79.270 73.8099
2.012627 79.388 58.9924
2.027212 79.520 46.0717
2.041902 79.665 35.5528
2.056698 79.822 27.2152
2.071602 79.992 20.5986
2.086614 80.172 15.2657
2.101734 80.362 10.8751
2.116964 80.563 7.1760
2.132304 80.772 3.9880
2.147756 80.991 1.1798
2.163320 81.221 -1.3455
2.178996 81.463 -3.6606
2.194786 81.719 -5.8206
2.210690 81.992 -7.8658
2.226710 82.285 -9.8243
2.242845 82.599 -11.7131
2.259098 82.934 -13.5417
2.275468 83.290 -15.3146
2.291957 83.664 -17.0336
2.308566 84.054 -18.6997
2.325295 84.458 -20.3135
2.342145 84.873 -21.8757
2.359117 85.296 -23.3875
2.376212 85.724 -24.8501
2.393431 86.154 -26.2656
2.410775 86.582 -27.6360
2.428244 87.005 -28.9637
2.445840 87.421 -30.2516
2.463564 87.825 -31.5029
2.481416 88.215 -32.7213
2.499397 88.589 -33.9113
2.517509 88.944 -35.0786
2.535752 89.279 -36.2300
2.554127 89.594 -37.3733
2.572635 89.889 -38.5169
2.591277 90.165 -39.6684
2.610055 90.424 -40.8325
2.628968 90.668 -42.0109
2.648019 90.897 -43.2024
2.667208 91.114 -44.4040
2.686535 91.318 -45.6115
2.706003 91.512 -46.8201
2.725612 91.696 -48.0253
2.745363 91.871 -49.2225
2.765257 92.037 -50.4073
2.785295 92.197 -51.5760
2.805478 92.351 -52.7255
2.825808 92.501 -53.8532
2.846285 92.646 -54.9576
2.866910 92.788 -56.0388
2.887685 92.927 -57.0981
2.908611 93.064 -58.1394
2.929688 93.198 -59.1685
2.950917 93.328 -60.1924
2.972301 93.453 -61.2177
2.993839 93.572 -62.2487
3.015534 93.686 -63.2874
3.037386 93.794 -64.3334
3.059396 93.896 -65.3845
3.081565 93.992 -66.4375
3.103896 94.082 -67.4884
3.126388 94.167 -68.5329
3.149043 94.248 -69.5665
3.171862 94.324 -70.5847
3.194847 94.396 -71.5837
3.217998 94.464 -72.5602
3.241317 94.528 -73.5125
3.264805 94.589 -74.4404
3.288463 94.646 -75.3463
3.312293 94.699 -76.2341
3.336295 94.748 -77.1090
3.360471 94.792 -77.9754
3.384822 94.830 -78.8358
3.409350 94.864 -79.6907
3.434056 94.893 -80.5393
3.458940 94.918 -81.3793
3.484005 94.938 -82.2072
3.509252 94.956 -83.0190
3.534681 94.969 -83.8106
3.560295 94.981 -84.5773
3.586094 94.989 -85.3147
3.612081 94.995 -86.0194
3.638255 94.999 -86.6888
3.664620 95.001 -87.3222
3.691175 94.999 -87.9203
3.717923 94.994 -88.4852
3.744864 94.986 -89.0188
3.772001 94.975 -89.5228
3.799335 94.961 -89.9984
3.826866 94.945 -90.4460
3.854597 94.928 -90.8652
3.882529 94.911 -91.2548
3.910664 94.893 -91.6125
3.939002 94.877 -91.9348
3.967546 94.862 -92.2173
3.996296 94.850 -92.4548
4.025255 94.840 -92.6439
4.054423 94.832 -92.7855
4.083804 94.825 -92.8868
4.113396 94.821 -92.9584
4.143204 94.819 -93.0100
4.173227 94.819 -93.0490
4.203468 94.821 -93.0795
4.233928 94.827 -93.1036
4.264609 94.837 -93.1215
4.295512 94.852 -93.1320
4.326639 94.872 -93.1333
4.357992 94.899 -93.1232
4.389572 94.931 -93.0995
4.421380 94.971 -93.0609
4.453419 95.016 -93.0074
4.485691 95.069 -92.9420
4.518196 95.127 -92.8690
4.550936 95.191 -92.7946
4.583914 95.260 -92.7261
4.617131 95.334 -92.6709
4.650589 95.411 -92.6360
4.684289 95.491 -92.6277
4.718233 95.575 -92.6504
4.752424 95.662 -92.7065
4.786862 95.752 -92.7966
4.821549 95.845 -92.9194
4.856488 95.941 -93.0734
4.891680 96.040 -93.2574
4.927127 96.141 -93.4709
4.962831 96.243 -93.7141
4.998794 96.345 -93.9874
5.035017 96.446 -94.2920
5.071503 96.545 -94.6290
5.108253 96.642 -94.9998
5.145270 96.737 -95.4049
5.182555 96.829 -95.8442
5.220110 96.919 -96.3159
5.257937 97.006 -96.8171
5.296038 97.091 -97.3438
5.334415 97.172 -97.8916
5.373071 97.250 -98.4565
5.412006 97.324 -99.0355
5.451224 97.394 -99.6265
5.490725 97.459 -100.2291
5.530514 97.519 -100.8438
5.570590 97.574 -101.4706
5.610957 97.624 -102.1084
5.651616 97.670 -102.7539
5.692570 97.712 -103.4028
5.733821 97.749 -104.0502
5.775370 97.782 -104.6912
5.817221 97.811 -105.3220
5.859375 97.835 -105.9407
5.901834 97.856 -106.5466
5.944602 97.872 -107.1399
5.987679 97.885 -107.7202
6.031068 97.894 -108.2863
6.074771 97.901 -108.8356
6.118792 97.905 -109.3652
6.163131 97.908 -109.8722
6.207792 97.910 -110.3539
6.252776 97.910 -110.8087
6.298086 97.910 -111.2363
6.343725 97.909 -111.6378
6.389694 97.908 -112.0143
6.435996 97.907 -112.3678
6.482634 97.908 -112.7000
6.529610 97.911 -113.0117
6.576926 97.917 -113.3038
6.624585 97.925 -113.5769
6.672590 97.936 -113.8318
6.720942 97.951 -114.0708
6.769645 97.969 -114.2977
6.818700 97.990 -114.5172
6.868111 98.015 -114.7339
6.917881 98.043 -114.9521
6.968010 98.076 -115.1748
7.018504 98.112 -115.4037
7.069362 98.152 -115.6404
7.120590 98.195 -115.8872
7.172189 98.241 -116.1470
7.224161 98.289 -116.4229
7.276511 98.338 -116.7178
7.329239 98.389 -117.0339
7.382350 98.441 -117.3721
7.435845 98.493 -117.7323
7.489729 98.545 -118.1135
7.544002 98.598 -118.5148
7.598669 98.649 -118.9348
7.653732 98.698 -119.3729
7.709194 98.745 -119.8284
7.765058 98.791 -120.3000
7.821327 98.833 -120.7860
7.878004 98.873 -121.2834
7.935091 98.911 -121.7886
7.992592 98.945 -122.2981
8.050510 98.976 -122.8092
8.108847 99.004 -123.3198
8.167607 99.029 -123.8282
8.226793 99.051 -124.3320
8.286408 99.070 -124.8286
8.346454 99.087 -125.3149
8.406936 99.102 -125.7886
8.467856 99.115 -126.2477
8.529218 99.127 -126.6915
8.591024 99.138 -127.1196
8.653278 99.148 -127.5318
8.715983 99.158 -127.9281
8.779143 99.169 -128.3083
8.842760 99.180 -128.6730
8.906839 99.192 -129.0230
8.971381 99.205 -129.3602
9.036392 99.220 -129.6869
9.101873 99.236 -130.0055
9.167829 99.254 -130.3182
9.234263 99.274 -130.6268
9.301178 99.296 -130.9335
9.368578 99.320 -131.2403
9.436467 99.345 -131.5497
9.504847 99.371 -131.8638
9.573723 99.398 -132.1842
9.643099 99.425 -132.5117
9.712976 99.451 -132.8470
9.783361 99.476 -133.1901
9.854255 99.499 -133.5412
9.925663 99.519 -133.9000
9.997588 99.536 -134.2660
10.070035 99.550 -134.6379
10.143007 99.560 -135.0143
10.216507 99.567 -135.3935
10.290540 99.572 -135.7739
10.365109 99.573 -136.1541
10.440219 99.572 -136.5328
10.515873 99.569 -136.9083
10.592076 99.564 -137.2792
10.668830 99.558 -137.6445
10.746141 99.551 -138.0034
10.824012 99.543 -138.3557
10.902447 99.534 -138.7013
10.981451 99.525 -139.0403
11.061027 99.516 -139.3731
11.141180 99.507 -139.7004
11.221913 99.498 -140.0232
11.303232 99.489 -140.3426
11.385140 99.480 -140.6597
11.467641 99.472 -140.9756
11.550741 99.463 -141.2913
11.634442 99.455 -141.6075
11.718750 99.448 -141.9250
11.803669 99.440 -142.2444
11.889203 99.433 -142.5659
11.975357 99.425 -142.8891
12.062136 99.417 -143.2140
12.149543 99.409 -143.5400
12.237583 99.400 -143.8668
12.326262 99.391 -144.1935
12.415583 99.381 -144.5195
12.505552 99.371 -144.8442
12.596172 99.360 -145.1672
12.687449 99.348 -145.4883
12.779387 99.336 -145.8074
12.871992 99.324 -146.1247
12.965268 99.312 -146.4406
13.059220 99.301 -146.7558
13.153852 99.289 -147.0712
13.249170 99.278 -147.3876
13.345179 99.268 -147.7061
13.441884 99.258 -148.0273
13.539289 99.248 -148.3521
13.637401 99.239 -148.6810
13.736223 99.229 -149.0143
13.835761 99.219 -149.3517
13.936021 99.209 -149.6929
14.037007 99.198 -150.0374
14.138725 99.187 -150.3841
14.241180 99.174 -150.7321
14.344377 99.161 -151.0800
14.448323 99.147 -151.4271
14.553021 99.133 -151.7723
14.658478 99.118 -152.1150
14.764700 99.104 -152.4547
14.871691 99.089 -152.7914
14.979457 99.075 -153.1257
15.088005 99.062 -153.4581
15.197339 99.049 -153.7896
15.307465 99.038 -154.1214
15.418389 99.027 -154.4547
15.530117 99.017 -154.7905
15.642655 99.008 -155.1299
15.756008 98.999 -155.4735
15.870182 98.990 -155.8214
15.985184 98.981 -156.1735
16.101019 98.972 -156.5291
16.217694 98.962 -156.8873
16.335214 98.952 -157.2467
16.453586 98.942 -157.6060
16.572815 98.931 -157.9637
16.692909 98.920 -158.3186
16.813872 98.909 -158.6697
16.935713 98.898 -159.0164
17.058436 98.888 -159.3583
17.182048 98.879 -159.6959
17.306556 98.870 -160.0294
17.431967 98.862 -160.3599
17.558286 98.854 -160.6884
17.685521 98.847 -161.0157
17.813677 98.841 -161.3428
17.942762 98.835 -161.6702
18.072783 98.829 -161.9984
18.203746 98.823 -162.3271
18.335658 98.817 -162.6561
18.468526 98.810 -162.9847
18.602356 98.803 -163.3121
18.737156 98.796 -163.6376
18.872934 98.789 -163.9605
19.009695 98.781 -164.2803
19.147447 98.774 -164.5968
19.286197 98.767 -164.9100
19.425953 98.759 -165.2202
19.566721 98.752 -165.5280
19.708510 98.745 -165.8338
19.851326 98.737 -166.1382
19.995177 98.729 -166.4417
20.140070 98.721 -166.7443
20.286013 98.713 -167.0464
20.433014 98.704 -167.3479
20.581080 98.695 -167.6487
20.730219 98.686 -167.9487
20.880439 98.676 -168.2479
21.031747 98.666 -168.5466
21.184152 98.657 -168.8450
21.337661 98.647 -169.1436
21.492282 98.637 -169.4429
21.648024 98.628 -169.7434
21.804895 98.618 -170.0455
21.962902 98.608 -170.3492
22.122054 98.598 -170.6545
22.282360 98.588 -170.9612
22.443827 98.577 -171.2687
22.606464 98.565 -171.5768
22.770280 98.554 -171.8850
22.935283 98.542 -172.1932
23.101481 98.530 -172.5014
23.268884 98.519 -172.8101
23.437500 98.507 -173.1195
23.607338 98.496 -173.4304
23.778406 98.484 -173.7430
23.950714 98.472 -174.0577
24.124271 98.461 -174.3744
24.299086 98.449 -174.6924
24.475167 98.437 -175.0114
24.652524 98.424 -175.3303
24.831166 98.412 -175.6484
25.011103 98.399 -175.9653
25.192344 98.387 -176.2805
25.374898 98.375 -176.5941
25.558775 98.363 -176.9063
25.743984 98.352 -177.2175
25.930536 98.341 -177.5281
26.118439 98.330 -177.8381
26.307704 98.319 -178.1476
26.498341 98.308 -178.4563
26.690359 98.297 -178.7637
26.883768 98.286 -179.0695
27.078579 98.274 -179.3730
27.274801 98.263 -179.6743
27.472446 98.251 -179.9733
27.671522 98.239 179.7300
27.872042 98.228 179.4353
28.074014 98.216 179.1423
28.277450 98.203 178.8509
28.482360 98.191 178.5610
28.688755 98.178 178.2725
28.896645 98.165 177.9851
29.106042 98.152 177.6987
29.316957 98.139 177.4130
29.529400 98.125 177.1271
29.743382 98.112 176.8409
29.958915 98.098 176.5538
30.176009 98.084 176.2657
30.394677 98.071 175.9767
30.614929 98.056 175.6871
30.836778 98.042 175.3970
31.060234 98.028 175.1066
31.285309 98.013 174.8158
31.512015 97.998 174.5242
31.740364 97.984 174.2314
31.970368 97.969 173.9370
32.202039 97.955 173.6405
32.435388 97.941 173.3421
32.670428 97.926 173.0421
32.907171 97.911 172.7408
33.145630 97.897 172.4390
33.385817 97.882 172.1369
33.627745 97.867 171.8348
33.871425 97.853 171.5329
34.116871 97.838 171.2311
34.364096 97.823 170.9295
34.613113 97.809 170.6284
34.863934 97.794 170.3282
35.116572 97.779 170.0295
35.371041 97.763 169.7325
35.627354 97.748 169.4377
35.885525 97.732 169.1452
36.145566 97.717 168.8549
36.407492 97.701 168.5666
36.671316 97.685 168.2799
36.937051 97.669 167.9944
37.204712 97.652 167.7098
37.474313 97.636 167.4260
37.745867 97.619 167.1428
38.019389 97.602 166.8602
38.294893 97.585 166.5784
38.572394 97.567 166.2976
38.851905 97.549 166.0177
39.133442 97.531 165.7385
39.417019 97.513 165.4597
39.702651 97.495 165.1808
39.990353 97.476 164.9016
40.280140 97.458 164.6219
40.572026 97.439 164.3420
40.866028 97.420 164.0620
41.162160 97.401 163.7822
41.460438 97.382 163.5028
41.760877 97.363 163.2236
42.063494 97.344 162.9446
42.368303 97.325 162.6655
42.675322 97.306 162.3865
42.984565 97.286 162.1079
43.296048 97.267 161.8298
43.609789 97.247 161.5528
43.925804 97.227 161.2770
44.244108 97.207 161.0024
44.564719 97.186 160.7292
44.887654 97.166 160.4575
45.212928 97.145 160.1870
45.540560 97.125 159.9176
45.870565 97.104 159.6490
46.202962 97.083 159.3810
46.537768 97.062 159.1133
46.875000 97.041 158.8456
47.214676 97.020 158.5779
47.556813 96.999 158.3101
47.901429 96.978 158.0422
48.248542 96.956 157.7745
48.598171 96.935 157.5074
48.950334 96.913 157.2413
49.305048 96.891 156.9764
49.662333 96.869 156.7129
50.022206 96.847 156.4507
50.384688 96.825 156.1895
50.749796 96.803 155.9294
51.117550 96.781 155.6705
51.487969 96.758 155.4130
51.861072 96.736 155.1571
52.236879 96.713 154.9030
52.615409 96.691 154.6503
52.996681 96.669 154.3990
53.380717 96.646 154.1487
53.767536 96.624 153.8992
54.157158 96.602 153.6502
54.549603 96.581 153.4014
54.944892 96.560 153.1523
55.343045 96.538 152.9023
55.744084 96.518 152.6508
56.148028 96.497 152.3973
56.554900 96.476 152.1414
56.964720 96.456 151.8827
57.377510 96.435 151.6209
57.793291 96.414 151.3561
58.212085 96.393 151.0890
58.633914 96.370 150.8204
59.058799 96.348 150.5515
59.486764 96.324 150.2834
59.917829 96.300 150.0164
60.352019 96.275 149.7507
60.789354 96.250 149.4862
61.229859 96.224 149.2232
61.673556 96.198 148.9621
62.120468 96.171 148.7033
62.570618 96.145 148.4471
63.024031 96.117 148.1932
63.480729 96.090 147.9413
63.940736 96.063 147.6909
64.404077 96.036 147.4414
64.870776 96.009 147.1927
65.340856 95.981 146.9449
65.814343 95.954 146.6984
66.291261 95.926 146.4532
66.771635 95.899 146.2097
67.255489 95.871 145.9678
67.742850 95.843 145.7271
68.233743 95.815 145.4874
68.728193 95.787 145.2484
69.226226 95.759 145.0098
69.727867 95.730 144.7714
70.233144 95.702 144.5330
70.742083 95.674 144.2943
71.254709 95.645 144.0552
71.771050 95.616 143.8159
72.291132 95.588 143.5767
72.814984 95.559 143.3380
73.342631 95.530 143.1002
73.874102 95.502 142.8638
74.409424 95.473 142.6285
74.948626 95.445 142.3945
75.491734 95.417 142.1616
76.038779 95.389 141.9301
76.589787 95.361 141.6999
77.144788 95.334 141.4703
77.703811 95.307 141.2399
78.266885 95.280 141.0069
78.834039 95.254 140.7696
79.405303 95.227 140.5268
79.980706 95.200 140.2778
80.560280 95.173 140.0224
81.144053 95.145 139.7606
81.732056 95.116 139.4928
82.324320 95.086 139.2201
82.920876 95.055 138.9440
83.521755 95.022 138.6670
84.126988 94.988 138.3915
84.736607 94.952 138.1207
