* Measurement data measured by REW V5.31.3
* Source: EXCL: Microphone (USB Sound Device        ), no input selected, R, volume: 0.390
* Format: 256k Log Swept Sine, 1 sweep at -15.0 dBFS with no timing reference
* Dated: May 3, 2025 11:44:30 PM
* REW Settings:
*  C-weighting compensation: Off
*  Target level: 75.0 dB
* Note: Astrotech G100 L
* Measurement: L Astrotech G100
* Smoothing: 1/12 octave
* Frequency Step: 96 ppo
* Start Frequency: 0.36621094 Hz
*
* Freq(Hz) SPL(dB) Phase(degrees)
0.366211 94.784 156.3833
0.368865 94.778 156.3587
0.371538 94.770 156.3220
0.374230 94.759 156.2759
0.376942 94.747 156.2227
0.379673 94.734 156.1642
0.382424 94.720 156.1015
0.385196 94.706 156.0355
0.387987 94.692 155.9664
0.390798 94.677 155.8944
0.393630 94.663 155.8197
0.396483 94.648 155.7424
0.399356 94.633 155.6623
0.402250 94.618 155.5796
0.405165 94.603 155.4941
0.408101 94.588 155.4060
0.411058 94.572 155.3150
0.414037 94.557 155.2213
0.417037 94.541 155.1248
0.420059 94.526 155.0254
0.423103 94.510 154.9232
0.426169 94.494 154.8181
0.429257 94.478 154.7101
0.432368 94.462 154.5991
0.435501 94.446 154.4851
0.438656 94.430 154.3682
0.441835 94.413 154.2483
0.445037 94.397 154.1253
0.448262 94.380 153.9993
0.451510 94.363 153.8701
0.454782 94.346 153.7379
0.458077 94.329 153.6026
0.461397 94.312 153.4641
0.464740 94.295 153.3224
0.468108 94.277 153.1775
0.471500 94.260 153.0294
0.474917 94.242 152.8782
0.478358 94.224 152.7237
0.481825 94.206 152.5659
0.485316 94.188 152.4049
0.488833 94.170 152.2406
0.492375 94.152 152.0730
0.495943 94.133 151.9021
0.499537 94.115 151.7279
0.503157 94.096 151.5504
0.506803 94.077 151.3695
0.510475 94.058 151.1854
0.514175 94.039 150.9980
0.517900 94.020 150.8072
0.521653 94.000 150.6131
0.525434 93.981 150.4157
0.529241 93.961 150.2150
0.533076 93.941 150.0110
0.536939 93.921 149.8038
0.540830 93.901 149.5933
0.544749 93.881 149.3795
0.548696 93.860 149.1626
0.552673 93.840 148.9424
0.556677 93.819 148.7191
0.560711 93.798 148.4926
0.564774 93.777 148.2631
0.568867 93.756 148.0305
0.572989 93.735 147.7948
0.577141 93.713 147.5563
0.581324 93.692 147.3148
0.585536 93.670 147.0704
0.589779 93.648 146.8233
0.594053 93.626 146.5734
0.598358 93.604 146.3209
0.602694 93.581 146.0658
0.607061 93.558 145.8082
0.611460 93.536 145.5482
0.615891 93.513 145.2859
0.620354 93.490 145.0213
0.624849 93.466 144.7547
0.629377 93.443 144.4861
0.633938 93.419 144.2156
0.638532 93.396 143.9434
0.643159 93.372 143.6695
0.647819 93.348 143.3942
0.652514 93.323 143.1176
0.657242 93.299 142.8399
0.662005 93.274 142.5612
0.666802 93.249 142.2817
0.671634 93.224 142.0016
0.676501 93.199 141.7211
0.681403 93.174 141.4405
0.686341 93.148 141.1598
0.691314 93.123 140.8794
0.696324 93.097 140.5994
0.701370 93.070 140.3201
0.706452 93.043 140.0415
0.711571 93.016 139.7639
0.716728 92.988 139.4871
0.721921 92.959 139.2110
0.727153 92.928 138.9349
0.732422 92.896 138.6581
0.737729 92.861 138.3796
0.743075 92.824 138.0982
0.748460 92.786 137.8130
0.753883 92.746 137.5231
0.759346 92.705 137.2280
0.764849 92.664 136.9274
0.770391 92.622 136.6210
0.775974 92.579 136.3087
0.781597 92.536 135.9902
0.787261 92.492 135.6656
0.792966 92.447 135.3348
0.798712 92.402 134.9976
0.804500 92.357 134.6541
0.810329 92.310 134.3041
0.816201 92.264 133.9476
0.822116 92.216 133.5846
0.828073 92.168 133.2151
0.834074 92.119 132.8389
0.840118 92.069 132.4561
0.846206 92.019 132.0667
0.852338 91.968 131.6707
0.858514 91.915 131.2680
0.864735 91.862 130.8587
0.871001 91.808 130.4428
0.877313 91.753 130.0203
0.883670 91.698 129.5913
0.890074 91.641 129.1559
0.896524 91.583 128.7140
0.903020 91.523 128.2658
0.909564 91.463 127.8115
0.916155 91.402 127.3511
0.922794 91.339 126.8847
0.929481 91.275 126.4127
0.936216 91.209 125.9350
0.943000 91.142 125.4521
0.949834 91.074 124.9640
0.956717 91.004 124.4712
0.963649 90.933 123.9738
0.970632 90.860 123.4722
0.977666 90.785 122.9668
0.984750 90.709 122.4580
0.991886 90.630 121.9463
0.999074 90.550 121.4320
1.006314 90.468 120.9158
1.013606 90.384 120.3983
1.020951 90.298 119.8799
1.028349 90.210 119.3615
1.035801 90.119 118.8438
1.043307 90.027 118.3274
1.050867 89.932 117.8132
1.058482 89.834 117.3020
1.066152 89.734 116.7947
1.073878 89.632 116.2918
1.081660 89.528 115.7941
1.089498 89.422 115.3018
1.097393 89.315 114.8149
1.105345 89.207 114.3329
1.113355 89.098 113.8551
1.121423 88.990 113.3809
1.129549 88.882 112.9094
1.137734 88.775 112.4400
1.145979 88.668 111.9721
1.154283 88.562 111.5053
1.162647 88.456 111.0392
1.171072 88.350 110.5732
1.179558 88.243 110.1070
1.188106 88.136 109.6401
1.196715 88.027 109.1721
1.205387 87.917 108.7027
1.214122 87.805 108.2312
1.222920 87.691 107.7573
1.231782 87.574 107.2804
1.240708 87.454 106.8000
1.249699 87.330 106.3157
1.258754 87.202 105.8267
1.267876 87.070 105.3326
1.277063 86.932 104.8327
1.286318 86.788 104.3264
1.295639 86.638 103.8131
1.305027 86.481 103.2920
1.314484 86.317 102.7625
1.324009 86.145 102.2238
1.333604 85.964 101.6751
1.343268 85.774 101.1159
1.353002 85.574 100.5452
1.362806 85.362 99.9624
1.372681 85.140 99.3666
1.382628 84.905 98.7573
1.392647 84.657 98.1337
1.402739 84.396 97.4953
1.412904 84.119 96.8417
1.423142 83.826 96.1728
1.433455 83.516 95.4887
1.443843 83.186 94.7900
1.454305 82.835 94.0776
1.464844 82.458 93.3530
1.475459 82.052 92.6178
1.486150 81.614 91.8733
1.496920 81.141 91.1203
1.507767 80.632 90.3585
1.518693 80.085 89.5873
1.529698 79.502 88.8052
1.540783 78.883 88.0103
1.551948 78.232 87.1998
1.563194 77.549 86.3709
1.574521 76.838 85.5197
1.585931 76.102 84.6417
1.597423 75.343 83.7317
1.608999 74.565 82.7830
1.620658 73.771 81.7877
1.632402 72.967 80.7359
1.644232 72.155 79.6152
1.656146 71.340 78.4100
1.668147 70.528 77.1000
1.680235 69.723 75.6589
1.692411 68.931 74.0517
1.704675 68.158 72.2309
1.717028 67.411 70.1304
1.729470 66.698 67.6567
1.742003 66.025 64.6729
1.754626 65.403 60.9734
1.767341 64.841 56.2400
1.780147 64.349 49.9699
1.793047 63.937 41.3697
1.806040 63.617 29.2906
1.819128 63.397 12.6050
1.832310 63.287 -8.1277
1.845587 63.290 -29.1006
1.858961 63.409 -46.3431
1.872432 63.640 -59.0827
1.886001 63.978 -68.3679
1.899667 64.414 -75.3293
1.913433 64.939 -80.7511
1.927299 65.543 -85.1280
1.941265 66.216 -88.7697
1.955332 66.946 -91.8752
1.969501 67.724 -94.5758
1.983773 68.538 -96.9614
1.998148 69.379 -99.0947
2.012627 70.237 -101.0211
2.027212 71.101 -102.7739
2.041902 71.964 -104.3783
2.056698 72.815 -105.8535
2.071602 73.646 -107.2144
2.086614 74.448 -108.4733
2.101734 75.214 -109.6400
2.116964 75.936 -110.7234
2.132304 76.607 -111.7320
2.147756 77.224 -112.6750
2.163320 77.783 -113.5631
2.178996 78.282 -114.4094
2.194786 78.725 -115.2298
2.210690 79.114 -116.0415
2.226710 79.457 -116.8605
2.242845 79.757 -117.6985
2.259098 80.020 -118.5619
2.275468 80.249 -119.4526
2.291957 80.446 -120.3695
2.308566 80.614 -121.3093
2.325295 80.755 -122.2672
2.342145 80.871 -123.2380
2.359117 80.965 -124.2159
2.376212 81.037 -125.1949
2.393431 81.091 -126.1688
2.410775 81.128 -127.1314
2.428244 81.152 -128.0765
2.445840 81.164 -128.9977
2.463564 81.168 -129.8894
2.481416 81.165 -130.7461
2.499397 81.158 -131.5641
2.517509 81.149 -132.3413
2.535752 81.138 -133.0787
2.554127 81.126 -133.7811
2.572635 81.111 -134.4574
2.591277 81.092 -135.1182
2.610055 81.066 -135.7740
2.628968 81.031 -136.4323
2.648019 80.987 -137.0977
2.667208 80.932 -137.7715
2.686535 80.865 -138.4531
2.706003 80.787 -139.1396
2.725612 80.696 -139.8269
2.745363 80.594 -140.5094
2.765257 80.480 -141.1803
2.785295 80.353 -141.8314
2.805478 80.215 -142.4534
2.825808 80.063 -143.0360
2.846285 79.899 -143.5678
2.866910 79.721 -144.0373
2.887685 79.528 -144.4332
2.908611 79.317 -144.7457
2.929688 79.087 -144.9677
2.950917 78.833 -145.0942
2.972301 78.554 -145.1221
2.993839 78.247 -145.0476
3.015534 77.915 -144.8652
3.037386 77.559 -144.5671
3.059396 77.182 -144.1428
3.081565 76.791 -143.5789
3.103896 76.391 -142.8596
3.126388 75.989 -141.9663
3.149043 75.593 -140.8777
3.171862 75.212 -139.5708
3.194847 74.854 -138.0203
3.217998 74.528 -136.1995
3.241317 74.244 -134.0810
3.264805 74.009 -131.6366
3.288463 73.828 -128.8390
3.312293 73.705 -125.6646
3.336295 73.640 -122.1018
3.360471 73.629 -118.1630
3.384822 73.670 -113.8941
3.409350 73.756 -109.3779
3.434056 73.883 -104.7297
3.458940 74.045 -100.0838
3.484005 74.238 -95.5757
3.509252 74.455 -91.3245
3.534681 74.692 -87.4209
3.560295 74.945 -83.9222
3.586094 75.211 -80.8541
3.612081 75.489 -78.2164
3.638255 75.777 -75.9899
3.664620 76.079 -74.1429
3.691175 76.397 -72.6368
3.717923 76.731 -71.4313
3.744864 77.083 -70.4874
3.772001 77.449 -69.7692
3.799335 77.825 -69.2441
3.826866 78.207 -68.8834
3.854597 78.589 -68.6619
3.882529 78.965 -68.5587
3.910664 79.329 -68.5563
3.939002 79.676 -68.6418
3.967546 80.002 -68.8061
3.996296 80.304 -69.0446
4.025255 80.582 -69.3559
4.054423 80.834 -69.7408
4.083804 81.063 -70.1989
4.113396 81.270 -70.7263
4.143204 81.458 -71.3151
4.173227 81.626 -71.9542
4.203468 81.778 -72.6310
4.233928 81.914 -73.3325
4.264609 82.036 -74.0462
4.295512 82.144 -74.7623
4.326639 82.239 -75.4734
4.357992 82.322 -76.1770
4.389572 82.392 -76.8746
4.421380 82.450 -77.5718
4.453419 82.494 -78.2746
4.485691 82.524 -78.9863
4.518196 82.540 -79.7058
4.550936 82.543 -80.4278
4.583914 82.532 -81.1431
4.617131 82.510 -81.8407
4.650589 82.476 -82.5084
4.684289 82.432 -83.1347
4.718233 82.377 -83.7099
4.752424 82.311 -84.2282
4.786862 82.234 -84.6874
4.821549 82.145 -85.0882
4.856488 82.045 -85.4318
4.891680 81.934 -85.7182
4.927127 81.815 -85.9452
4.962831 81.688 -86.1084
4.998794 81.557 -86.2016
5.035017 81.423 -86.2168
5.071503 81.288 -86.1448
5.108253 81.153 -85.9762
5.145270 81.019 -85.7023
5.182555 80.886 -85.3170
5.220110 80.754 -84.8186
5.257937 80.625 -84.2102
5.296038 80.500 -83.5004
5.334415 80.383 -82.7014
5.373071 80.277 -81.8280
5.412006 80.186 -80.8958
5.451224 80.113 -79.9188
5.490725 80.060 -78.9079
5.530514 80.028 -77.8715
5.570590 80.018 -76.8190
5.610957 80.028 -75.7637
5.651616 80.057 -74.7245
5.692570 80.101 -73.7243
5.733821 80.160 -72.7873
5.775370 80.230 -71.9354
5.817221 80.311 -71.1866
5.859375 80.401 -70.5520
5.901834 80.501 -70.0364
5.944602 80.609 -69.6393
5.987679 80.724 -69.3578
6.031068 80.843 -69.1883
6.074771 80.964 -69.1277
6.118792 81.082 -69.1733
6.163131 81.195 -69.3238
6.207792 81.302 -69.5786
6.252776 81.400 -69.9365
6.298086 81.489 -70.3943
6.343725 81.569 -70.9447
6.389694 81.639 -71.5767
6.435996 81.700 -72.2773
6.482634 81.750 -73.0334
6.529610 81.789 -73.8347
6.576926 81.817 -74.6747
6.624585 81.832 -75.5508
6.672590 81.834 -76.4615
6.720942 81.825 -77.4031
6.769645 81.803 -78.3676
6.818700 81.771 -79.3439
6.868111 81.729 -80.3196
6.917881 81.677 -81.2834
6.968010 81.615 -82.2278
7.018504 81.545 -83.1488
7.069362 81.466 -84.0444
7.120590 81.380 -84.9117
7.172189 81.288 -85.7457
7.224161 81.193 -86.5393
7.276511 81.096 -87.2848
7.329239 80.999 -87.9750
7.382350 80.903 -88.6059
7.435845 80.808 -89.1768
7.489729 80.718 -89.6908
7.544002 80.633 -90.1533
7.598669 80.557 -90.5699
7.653732 80.492 -90.9459
7.709194 80.439 -91.2853
7.765058 80.400 -91.5926
7.821327 80.374 -91.8752
7.878004 80.364 -92.1446
7.935091 80.368 -92.4152
7.992592 80.387 -92.7014
8.050510 80.420 -93.0153
8.108847 80.468 -93.3648
8.167607 80.530 -93.7553
8.226793 80.605 -94.1917
8.286408 80.689 -94.6789
8.346454 80.782 -95.2222
8.406936 80.881 -95.8251
8.467856 80.986 -96.4885
8.529218 81.093 -97.2098
8.591024 81.204 -97.9834
8.653278 81.314 -98.8022
8.715983 81.425 -99.6591
8.779143 81.533 -100.5480
8.842760 81.637 -101.4629
8.906839 81.739 -102.3970
8.971381 81.836 -103.3415
9.036392 81.929 -104.2861
9.101873 82.017 -105.2206
9.167829 82.101 -106.1367
9.234263 82.181 -107.0284
9.301178 82.256 -107.8899
9.368578 82.328 -108.7153
9.436467 82.398 -109.4983
9.504847 82.465 -110.2332
9.573723 82.532 -110.9165
9.643099 82.597 -111.5467
9.712976 82.664 -112.1239
9.783361 82.731 -112.6490
9.854255 82.801 -113.1236
9.925663 82.873 -113.5497
9.997588 82.948 -113.9304
10.070035 83.027 -114.2705
10.143007 83.110 -114.5759
10.216507 83.196 -114.8527
10.290540 83.285 -115.1062
10.365109 83.378 -115.3412
10.440219 83.474 -115.5621
10.515873 83.571 -115.7736
10.592076 83.669 -115.9795
10.668830 83.768 -116.1826
10.746141 83.867 -116.3846
10.824012 83.964 -116.5858
10.902447 84.060 -116.7858
10.981451 84.153 -116.9841
11.061027 84.243 -117.1794
11.141180 84.330 -117.3702
11.221913 84.414 -117.5543
11.303232 84.493 -117.7293
11.385140 84.569 -117.8933
11.467641 84.642 -118.0448
11.550741 84.711 -118.1829
11.634442 84.777 -118.3070
11.718750 84.841 -118.4169
11.803669 84.901 -118.5132
11.889203 84.960 -118.5971
11.975357 85.016 -118.6705
12.062136 85.071 -118.7355
12.149543 85.124 -118.7946
12.237583 85.175 -118.8499
12.326262 85.224 -118.9040
12.415583 85.271 -118.9589
12.505552 85.315 -119.0166
12.596172 85.357 -119.0781
12.687449 85.395 -119.1442
12.779387 85.431 -119.2150
12.871992 85.463 -119.2903
12.965268 85.492 -119.3695
13.059220 85.517 -119.4515
13.153852 85.538 -119.5353
13.249170 85.557 -119.6200
13.345179 85.572 -119.7050
13.441884 85.585 -119.7902
13.539289 85.596 -119.8761
13.637401 85.605 -119.9636
13.736223 85.614 -120.0546
13.835761 85.621 -120.1516
13.936021 85.628 -120.2575
14.037007 85.634 -120.3755
14.138725 85.641 -120.5090
14.241180 85.648 -120.6613
14.344377 85.654 -120.8352
14.448323 85.659 -121.0329
14.553021 85.664 -121.2556
14.658478 85.668 -121.5038
14.764700 85.670 -121.7768
14.871691 85.670 -122.0732
14.979457 85.669 -122.3905
15.088005 85.666 -122.7258
15.197339 85.661 -123.0759
15.307465 85.655 -123.4375
15.418389 85.648 -123.8076
15.530117 85.641 -124.1838
15.642655 85.635 -124.5643
15.756008 85.630 -124.9483
15.870182 85.628 -125.3359
15.985184 85.628 -125.7281
16.101019 85.632 -126.1263
16.217694 85.639 -126.5326
16.335214 85.649 -126.9488
16.453586 85.664 -127.3768
16.572815 85.682 -127.8174
16.692909 85.703 -128.2709
16.813872 85.727 -128.7362
16.935713 85.752 -129.2113
17.058436 85.780 -129.6932
17.182048 85.809 -130.1780
17.306556 85.838 -130.6614
17.431967 85.869 -131.1390
17.558286 85.901 -131.6064
17.685521 85.934 -132.0599
17.813677 85.969 -132.4966
17.942762 86.005 -132.9146
18.072783 86.043 -133.3130
18.203746 86.084 -133.6917
18.335658 86.126 -134.0515
18.468526 86.170 -134.3935
18.602356 86.216 -134.7191
18.737156 86.264 -135.0296
18.872934 86.312 -135.3258
19.009695 86.360 -135.6082
19.147447 86.408 -135.8769
19.286197 86.456 -136.1313
19.425953 86.502 -136.3710
19.566721 86.547 -136.5954
19.708510 86.591 -136.8040
19.851326 86.633 -136.9969
19.995177 86.673 -137.1745
20.140070 86.711 -137.3379
20.286013 86.748 -137.4886
20.433014 86.783 -137.6281
20.581080 86.815 -137.7582
20.730219 86.846 -137.8805
20.880439 86.873 -137.9966
21.031747 86.899 -138.1076
21.184152 86.921 -138.2144
21.337661 86.941 -138.3181
21.492282 86.958 -138.4194
21.648024 86.973 -138.5199
21.804895 86.986 -138.6209
21.962902 86.996 -138.7247
22.122054 87.005 -138.8337
22.282360 87.012 -138.9503
22.443827 87.018 -139.0771
22.606464 87.022 -139.2160
22.770280 87.025 -139.3685
22.935283 87.026 -139.5354
23.101481 87.025 -139.7166
23.268884 87.023 -139.9115
23.437500 87.020 -140.1190
23.607338 87.016 -140.3383
23.778406 87.012 -140.5684
23.950714 87.008 -140.8090
24.124271 87.004 -141.0602
24.299086 87.002 -141.3224
24.475167 87.001 -141.5960
24.652524 87.002 -141.8814
24.831166 87.005 -142.1784
25.011103 87.009 -142.4858
25.192344 87.015 -142.8020
25.374898 87.022 -143.1246
25.558775 87.031 -143.4506
25.743984 87.041 -143.7772
25.930536 87.053 -144.1015
26.118439 87.067 -144.4212
26.307704 87.083 -144.7343
26.498341 87.101 -145.0394
26.690359 87.120 -145.3355
26.883768 87.141 -145.6215
27.078579 87.163 -145.8964
27.274801 87.186 -146.1594
27.472446 87.209 -146.4094
27.671522 87.233 -146.6457
27.872042 87.258 -146.8680
28.074014 87.282 -147.0761
28.277450 87.305 -147.2705
28.482360 87.329 -147.4521
28.688755 87.351 -147.6218
28.896645 87.373 -147.7806
29.106042 87.392 -147.9298
29.316957 87.411 -148.0703
29.529400 87.428 -148.2035
29.743382 87.443 -148.3307
29.958915 87.456 -148.4538
30.176009 87.468 -148.5748
30.394677 87.478 -148.6959
30.614929 87.486 -148.8192
30.836778 87.492 -148.9467
31.060234 87.497 -149.0795
31.285309 87.501 -149.2185
31.512015 87.502 -149.3639
31.740364 87.503 -149.5160
31.970368 87.503 -149.6751
32.202039 87.502 -149.8417
32.435388 87.501 -150.0164
32.670428 87.500 -150.2002
32.907171 87.500 -150.3934
33.145630 87.500 -150.5962
33.385817 87.501 -150.8079
33.627745 87.503 -151.0273
33.871425 87.505 -151.2528
34.116871 87.508 -151.4823
34.364096 87.512 -151.7135
34.613113 87.516 -151.9443
34.863934 87.522 -152.1727
35.116572 87.528 -152.3967
35.371041 87.536 -152.6148
35.627354 87.544 -152.8257
35.885525 87.553 -153.0287
36.145566 87.562 -153.2235
36.407492 87.572 -153.4104
36.671316 87.582 -153.5898
36.937051 87.592 -153.7621
37.204712 87.602 -153.9276
37.474313 87.611 -154.0864
37.745867 87.619 -154.2386
38.019389 87.627 -154.3845
38.294893 87.633 -154.5244
38.572394 87.638 -154.6592
38.851905 87.642 -154.7901
39.133442 87.645 -154.9185
39.417019 87.647 -155.0461
39.702651 87.649 -155.1743
39.990353 87.650 -155.3044
40.280140 87.650 -155.4374
40.572026 87.650 -155.5735
40.866028 87.649 -155.7126
41.162160 87.648 -155.8541
41.460438 87.647 -155.9971
41.760877 87.646 -156.1412
42.063494 87.645 -156.2866
42.368303 87.646 -156.4339
42.675322 87.646 -156.5836
42.984565 87.648 -156.7361
43.296048 87.650 -156.8907
43.609789 87.651 -157.0461
43.925804 87.653 -157.2004
44.244108 87.655 -157.3517
44.564719 87.656 -157.4989
44.887654 87.658 -157.6414
45.212928 87.660 -157.7796
45.540560 87.661 -157.9142
45.870565 87.663 -158.0462
46.202962 87.665 -158.1763
46.537768 87.666 -158.3051
46.875000 87.667 -158.4331
47.214676 87.668 -158.5604
47.556813 87.668 -158.6871
47.901429 87.668 -158.8135
48.248542 87.668 -158.9400
48.598171 87.668 -159.0671
48.950334 87.668 -159.1952
49.305048 87.667 -159.3240
49.662333 87.666 -159.4528
50.022206 87.665 -159.5801
50.384688 87.664 -159.7045
50.749796 87.663 -159.8245
51.117550 87.661 -159.9395
51.487969 87.659 -160.0491
51.861072 87.658 -160.1540
52.236879 87.657 -160.2548
52.615409 87.656 -160.3526
52.996681 87.654 -160.4483
53.380717 87.653 -160.5427
53.767536 87.652 -160.6366
54.157158 87.650 -160.7310
54.549603 87.648 -160.8270
54.944892 87.647 -160.9257
55.343045 87.645 -161.0282
55.744084 87.643 -161.1348
56.148028 87.641 -161.2456
56.554900 87.639 -161.3604
56.964720 87.637 -161.4789
57.377510 87.635 -161.6010
57.793291 87.633 -161.7258
58.212085 87.631 -161.8518
58.633914 87.629 -161.9765
59.058799 87.627 -162.0977
59.486764 87.625 -162.2140
59.917829 87.623 -162.3255
60.352019 87.620 -162.4337
60.789354 87.618 -162.5401
61.229859 87.615 -162.6452
61.673556 87.612 -162.7486
62.120468 87.607 -162.8489
62.570618 87.602 -162.9456
63.024031 87.596 -163.0388
63.480729 87.590 -163.1298
63.940736 87.584 -163.2202
64.404077 87.578 -163.3119
64.870776 87.572 -163.4058
65.340856 87.565 -163.5019
65.814343 87.559 -163.5989
66.291261 87.553 -163.6954
66.771635 87.547 -163.7904
67.255489 87.541 -163.8832
67.742850 87.536 -163.9736
68.233743 87.530 -164.0609
68.728193 87.524 -164.1442
69.226226 87.518 -164.2231
69.727867 87.512 -164.2976
70.233144 87.506 -164.3684
70.742083 87.500 -164.4359
71.254709 87.493 -164.5008
71.771050 87.487 -164.5639
72.291132 87.480 -164.6262
72.814984 87.473 -164.6888
73.342631 87.467 -164.7526
73.874102 87.460 -164.8179
74.409424 87.454 -164.8849
74.948626 87.448 -164.9536
75.491734 87.442 -165.0233
76.038779 87.436 -165.0937
76.589787 87.430 -165.1644
77.144788 87.424 -165.2358
77.703811 87.418 -165.3084
78.266885 87.413 -165.3831
78.834039 87.407 -165.4604
79.405303 87.401 -165.5407
79.980706 87.396 -165.6250
80.560280 87.390 -165.7144
81.144053 87.384 -165.8096
81.732056 87.377 -165.9105
82.324320 87.369 -166.0161
82.920876 87.360 -166.1240
83.521755 87.348 -166.2310
84.126988 87.335 -166.3338
