* Measurement data measured by REW V5.31
* Source: EXCL: Microphone (USB Sound Device        ), MICROPHONE (Master Volume), R, volume: 0.390
* Format: 256k Log Swept Sine, 1 sweep at -15.0 dBFS with no timing reference
* Dated: Dec 22, 2024 11:47:36 PM
* REW Settings:
*  C-weighting compensation: Off
*  Target level: 75.0 dB
* Note: BLON BL03 II R
* Measurement: R BLON BL03 II
* Smoothing: 1/12 octave
* Frequency Step: 96 ppo
* Start Frequency: 0.36621094 Hz
*
* Freq(Hz) SPL(dB) Phase(degrees)
0.366211 95.501 158.8764
0.368865 95.495 158.8542
0.371538 95.487 158.8210
0.374230 95.476 158.7793
0.376942 95.464 158.7312
0.379673 95.451 158.6784
0.382424 95.437 158.6218
0.385196 95.423 158.5622
0.387987 95.409 158.4998
0.390798 95.395 158.4349
0.393630 95.380 158.3675
0.396483 95.366 158.2978
0.399356 95.351 158.2256
0.402250 95.336 158.1511
0.405165 95.321 158.0741
0.408101 95.306 157.9947
0.411058 95.291 157.9128
0.414037 95.276 157.8285
0.417037 95.260 157.7416
0.420059 95.245 157.6522
0.423103 95.229 157.5602
0.426169 95.213 157.4657
0.429257 95.197 157.3686
0.432368 95.181 157.2688
0.435501 95.165 157.1664
0.438656 95.149 157.0614
0.441835 95.133 156.9536
0.445037 95.116 156.8431
0.448262 95.100 156.7299
0.451510 95.083 156.6140
0.454782 95.066 156.4953
0.458077 95.049 156.3737
0.461397 95.032 156.2494
0.464740 95.015 156.1223
0.468108 94.998 155.9923
0.471500 94.981 155.8595
0.474917 94.963 155.7237
0.478358 94.945 155.5851
0.481825 94.928 155.4436
0.485316 94.910 155.2992
0.488833 94.892 155.1519
0.492375 94.873 155.0016
0.495943 94.855 154.8484
0.499537 94.837 154.6922
0.503157 94.818 154.5331
0.506803 94.799 154.3710
0.510475 94.780 154.2060
0.514175 94.761 154.0380
0.517900 94.742 153.8670
0.521653 94.723 153.6931
0.525434 94.704 153.5162
0.529241 94.684 153.3364
0.533076 94.664 153.1536
0.536939 94.645 152.9679
0.540830 94.625 152.7793
0.544749 94.604 152.5877
0.548696 94.584 152.3933
0.552673 94.564 152.1960
0.556677 94.543 151.9959
0.560711 94.523 151.7930
0.564774 94.502 151.5872
0.568867 94.481 151.3788
0.572989 94.459 151.1676
0.577141 94.438 150.9537
0.581324 94.417 150.7372
0.585536 94.395 150.5181
0.589779 94.373 150.2965
0.594053 94.351 150.0724
0.598358 94.329 149.8459
0.602694 94.307 149.6170
0.607061 94.285 149.3859
0.611460 94.262 149.1526
0.615891 94.239 148.9171
0.620354 94.216 148.6796
0.624849 94.193 148.4401
0.629377 94.170 148.1989
0.633938 94.147 147.9558
0.638532 94.123 147.7111
0.643159 94.099 147.4649
0.647819 94.075 147.2173
0.652514 94.051 146.9685
0.657242 94.027 146.7185
0.662005 94.002 146.4676
0.666802 93.978 146.2158
0.671634 93.953 145.9634
0.676501 93.928 145.7105
0.681403 93.903 145.4573
0.686341 93.877 145.2040
0.691314 93.852 144.9508
0.696324 93.826 144.6978
0.701370 93.800 144.4452
0.706452 93.773 144.1932
0.711571 93.746 143.9418
0.716728 93.719 143.6911
0.721921 93.690 143.4407
0.727153 93.659 143.1903
0.732422 93.627 142.9391
0.737729 93.592 142.6861
0.743075 93.556 142.4304
0.748460 93.518 142.1711
0.753883 93.478 141.9075
0.759346 93.438 141.6392
0.764849 93.396 141.3658
0.770391 93.354 141.0871
0.775974 93.312 140.8029
0.781597 93.269 140.5131
0.787261 93.225 140.2177
0.792966 93.181 139.9165
0.798712 93.136 139.6095
0.804500 93.091 139.2967
0.810329 93.045 138.9779
0.816201 92.998 138.6532
0.822116 92.951 138.3225
0.828073 92.903 137.9858
0.834074 92.854 137.6429
0.840118 92.805 137.2940
0.846206 92.754 136.9390
0.852338 92.703 136.5778
0.858514 92.651 136.2104
0.864735 92.599 135.8370
0.871001 92.545 135.4573
0.877313 92.490 135.0716
0.883670 92.435 134.6797
0.890074 92.378 134.2818
0.896524 92.320 133.8779
0.903020 92.261 133.4681
0.909564 92.201 133.0524
0.916155 92.140 132.6309
0.922794 92.078 132.2038
0.929481 92.014 131.7711
0.936216 91.949 131.3331
0.943000 91.882 130.8898
0.949834 91.814 130.4415
0.956717 91.745 129.9884
0.963649 91.674 129.5307
0.970632 91.601 129.0687
0.977666 91.527 128.6027
0.984750 91.451 128.1330
0.991886 91.374 127.6600
0.999074 91.294 127.1840
1.006314 91.213 126.7055
1.013606 91.129 126.2250
1.020951 91.044 125.7429
1.028349 90.956 125.2598
1.035801 90.866 124.7764
1.043307 90.774 124.2931
1.050867 90.680 123.8108
1.058482 90.583 123.3300
1.066152 90.484 122.8515
1.073878 90.382 122.3758
1.081660 90.278 121.9034
1.089498 90.171 121.4345
1.097393 90.062 120.9691
1.105345 89.951 120.5066
1.113355 89.837 120.0466
1.121423 89.722 119.5882
1.129549 89.604 119.1307
1.137734 89.484 118.6737
1.145979 89.362 118.2164
1.154283 89.239 117.7584
1.162647 89.113 117.2993
1.171072 88.985 116.8385
1.179558 88.854 116.3757
1.188106 88.721 115.9104
1.196715 88.586 115.4421
1.205387 88.448 114.9702
1.214122 88.308 114.4943
1.222920 88.164 114.0138
1.231782 88.018 113.5280
1.240708 87.869 113.0364
1.249699 87.717 112.5382
1.258754 87.561 112.0328
1.267876 87.403 111.5194
1.277063 87.240 110.9972
1.286318 87.074 110.4654
1.295639 86.905 109.9231
1.305027 86.731 109.3692
1.314484 86.554 108.8029
1.324009 86.373 108.2231
1.333604 86.187 107.6286
1.343268 85.997 107.0183
1.353002 85.802 106.3909
1.362806 85.602 105.7451
1.372681 85.398 105.0797
1.382628 85.188 104.3932
1.392647 84.973 103.6842
1.402739 84.753 102.9513
1.412904 84.526 102.1932
1.423142 84.293 101.4086
1.433455 84.054 100.5963
1.443843 83.806 99.7554
1.454305 83.548 98.8850
1.464844 83.280 97.9846
1.475459 82.997 97.0532
1.486150 82.699 96.0895
1.496920 82.383 95.0914
1.507767 82.049 94.0557
1.518693 81.697 92.9783
1.529698 81.326 91.8539
1.540783 80.937 90.6765
1.551948 80.533 89.4386
1.563194 80.114 88.1317
1.574521 79.682 86.7457
1.585931 79.238 85.2687
1.597423 78.785 83.6868
1.608999 78.325 81.9834
1.620658 77.860 80.1389
1.632402 77.392 78.1302
1.644232 76.923 75.9295
1.656146 76.457 73.5040
1.668147 75.996 70.8148
1.680235 75.543 67.8164
1.692411 75.101 64.4560
1.704675 74.674 60.6744
1.717028 74.265 56.4077
1.729470 73.878 51.5930
1.742003 73.517 46.1766
1.754626 73.186 40.1300
1.767341 72.891 33.4685
1.780147 72.634 26.2708
1.793047 72.422 18.6877
1.806040 72.260 10.9301
1.819128 72.150 3.2324
1.832310 72.097 -4.1941
1.845587 72.104 -11.1961
1.858961 72.170 -17.6882
1.872432 72.294 -23.6407
1.886001 72.476 -29.0623
1.899667 72.711 -33.9834
1.913433 72.995 -38.4452
1.927299 73.325 -42.4921
1.941265 73.696 -46.1674
1.955332 74.102 -49.5116
1.969501 74.539 -52.5613
1.983773 75.002 -55.3483
1.998148 75.485 -57.9006
2.012627 75.983 -60.2424
2.027212 76.491 -62.3942
2.041902 77.003 -64.3738
2.056698 77.514 -66.1962
2.071602 78.019 -67.8744
2.086614 78.512 -69.4195
2.101734 78.988 -70.8414
2.116964 79.444 -72.1487
2.132304 79.873 -73.3499
2.147756 80.273 -74.4535
2.163320 80.642 -75.4689
2.178996 80.978 -76.4069
2.194786 81.283 -77.2801
2.210690 81.560 -78.1023
2.226710 81.811 -78.8865
2.242845 82.040 -79.6431
2.259098 82.250 -80.3793
2.275468 82.442 -81.0991
2.291957 82.619 -81.8042
2.308566 82.782 -82.4949
2.325295 82.933 -83.1703
2.342145 83.071 -83.8289
2.359117 83.198 -84.4687
2.376212 83.316 -85.0872
2.393431 83.425 -85.6818
2.410775 83.527 -86.2497
2.428244 83.622 -86.7879
2.445840 83.713 -87.2932
2.463564 83.800 -87.7626
2.481416 83.884 -88.1931
2.499397 83.966 -88.5822
2.517509 84.047 -88.9281
2.535752 84.127 -89.2301
2.554127 84.205 -89.4890
2.572635 84.281 -89.7072
2.591277 84.352 -89.8882
2.610055 84.419 -90.0355
2.628968 84.479 -90.1520
2.648019 84.533 -90.2397
2.667208 84.580 -90.3001
2.686535 84.622 -90.3336
2.706003 84.659 -90.3406
2.725612 84.692 -90.3208
2.745363 84.721 -90.2740
2.765257 84.749 -90.1997
2.785295 84.774 -90.0974
2.805478 84.800 -89.9665
2.825808 84.827 -89.8063
2.846285 84.855 -89.6160
2.866910 84.887 -89.3948
2.887685 84.921 -89.1415
2.908611 84.960 -88.8545
2.929688 85.002 -88.5323
2.950917 85.046 -88.1731
2.972301 85.094 -87.7760
2.993839 85.143 -87.3413
3.015534 85.194 -86.8703
3.037386 85.246 -86.3659
3.059396 85.300 -85.8317
3.081565 85.356 -85.2721
3.103896 85.414 -84.6919
3.126388 85.475 -84.0964
3.149043 85.539 -83.4909
3.171862 85.607 -82.8809
3.194847 85.680 -82.2713
3.217998 85.757 -81.6668
3.241317 85.840 -81.0705
3.264805 85.929 -80.4843
3.288463 86.024 -79.9081
3.312293 86.125 -79.3402
3.336295 86.234 -78.7787
3.360471 86.349 -78.2226
3.384822 86.471 -77.6729
3.409350 86.598 -77.1323
3.434056 86.731 -76.6048
3.458940 86.867 -76.0950
3.484005 87.007 -75.6083
3.509252 87.150 -75.1495
3.534681 87.294 -74.7236
3.560295 87.439 -74.3348
3.586094 87.584 -73.9866
3.612081 87.729 -73.6814
3.638255 87.874 -73.4204
3.664620 88.018 -73.2030
3.691175 88.162 -73.0275
3.717923 88.306 -72.8913
3.744864 88.451 -72.7915
3.772001 88.596 -72.7258
3.799335 88.741 -72.6918
3.826866 88.886 -72.6876
3.854597 89.029 -72.7116
3.882529 89.171 -72.7624
3.910664 89.310 -72.8389
3.939002 89.446 -72.9405
3.967546 89.579 -73.0667
3.996296 89.708 -73.2178
4.025255 89.832 -73.3941
4.054423 89.953 -73.5963
4.083804 90.069 -73.8242
4.113396 90.181 -74.0768
4.143204 90.289 -74.3522
4.173227 90.393 -74.6476
4.203468 90.494 -74.9595
4.233928 90.590 -75.2846
4.264609 90.683 -75.6196
4.295512 90.771 -75.9616
4.326639 90.855 -76.3086
4.357992 90.935 -76.6596
4.389572 91.011 -77.0149
4.421380 91.082 -77.3755
4.453419 91.148 -77.7427
4.485691 91.210 -78.1168
4.518196 91.267 -78.4967
4.550936 91.320 -78.8803
4.583914 91.368 -79.2646
4.617131 91.413 -79.6461
4.650589 91.455 -80.0212
4.684289 91.494 -80.3868
4.718233 91.529 -80.7406
4.752424 91.561 -81.0812
4.786862 91.591 -81.4085
4.821549 91.617 -81.7234
4.856488 91.640 -82.0266
4.891680 91.660 -82.3184
4.927127 91.677 -82.5987
4.962831 91.693 -82.8669
4.998794 91.707 -83.1219
5.035017 91.720 -83.3623
5.071503 91.733 -83.5868
5.108253 91.746 -83.7941
5.145270 91.759 -83.9833
5.182555 91.772 -84.1543
5.220110 91.784 -84.3079
5.257937 91.798 -84.4455
5.296038 91.811 -84.5695
5.334415 91.826 -84.6823
5.373071 91.842 -84.7866
5.412006 91.860 -84.8845
5.451224 91.880 -84.9776
5.490725 91.903 -85.0665
5.530514 91.929 -85.1517
5.570590 91.958 -85.2335
5.610957 91.989 -85.3134
5.651616 92.023 -85.3940
5.692570 92.059 -85.4787
5.733821 92.098 -85.5714
5.775370 92.139 -85.6758
5.817221 92.183 -85.7948
5.859375 92.229 -85.9302
5.901834 92.278 -86.0831
5.944602 92.328 -86.2536
5.987679 92.381 -86.4422
6.031068 92.436 -86.6497
6.074771 92.491 -86.8774
6.118792 92.548 -87.1269
6.163131 92.605 -87.3996
6.207792 92.661 -87.6968
6.252776 92.718 -88.0192
6.298086 92.774 -88.3667
6.343725 92.830 -88.7381
6.389694 92.886 -89.1320
6.435996 92.940 -89.5464
6.482634 92.993 -89.9795
6.529610 93.044 -90.4300
6.576926 93.094 -90.8970
6.624585 93.141 -91.3799
6.672590 93.186 -91.8780
6.720942 93.229 -92.3900
6.769645 93.270 -92.9135
6.818700 93.309 -93.4457
6.868111 93.346 -93.9835
6.917881 93.381 -94.5245
6.968010 93.414 -95.0671
7.018504 93.445 -95.6104
7.069362 93.474 -96.1533
7.120590 93.502 -96.6948
7.172189 93.528 -97.2330
7.224161 93.554 -97.7658
7.276511 93.578 -98.2914
7.329239 93.603 -98.8081
7.382350 93.627 -99.3152
7.435845 93.651 -99.8126
7.489729 93.676 -100.3005
7.544002 93.701 -100.7791
7.598669 93.727 -101.2487
7.653732 93.755 -101.7095
7.709194 93.784 -102.1614
7.765058 93.816 -102.6048
7.821327 93.849 -103.0408
7.878004 93.885 -103.4707
7.935091 93.923 -103.8964
7.992592 93.963 -104.3196
8.050510 94.006 -104.7419
8.108847 94.051 -105.1641
8.167607 94.099 -105.5874
8.226793 94.149 -106.0127
8.286408 94.201 -106.4414
8.346454 94.255 -106.8748
8.406936 94.311 -107.3142
8.467856 94.368 -107.7602
8.529218 94.427 -108.2131
8.591024 94.487 -108.6725
8.653278 94.547 -109.1382
8.715983 94.608 -109.6099
8.779143 94.669 -110.0872
8.842760 94.730 -110.5694
8.906839 94.791 -111.0558
8.971381 94.851 -111.5450
9.036392 94.911 -112.0355
9.101873 94.970 -112.5256
9.167829 95.028 -113.0140
9.234263 95.085 -113.4995
9.301178 95.141 -113.9808
9.368578 95.197 -114.4566
9.436467 95.251 -114.9254
9.504847 95.305 -115.3858
9.573723 95.357 -115.8370
9.643099 95.409 -116.2781
9.712976 95.459 -116.7089
9.783361 95.507 -117.1290
9.854255 95.553 -117.5381
9.925663 95.597 -117.9361
9.997588 95.638 -118.3232
10.070035 95.678 -118.6999
10.143007 95.716 -119.0670
10.216507 95.752 -119.4251
10.290540 95.787 -119.7751
10.365109 95.821 -120.1175
10.440219 95.854 -120.4534
10.515873 95.887 -120.7835
10.592076 95.919 -121.1088
10.668830 95.951 -121.4300
10.746141 95.983 -121.7476
10.824012 96.014 -122.0620
10.902447 96.045 -122.3738
10.981451 96.075 -122.6831
11.061027 96.104 -122.9901
11.141180 96.132 -123.2949
11.221913 96.160 -123.5974
11.303232 96.186 -123.8975
11.385140 96.211 -124.1951
11.467641 96.235 -124.4899
11.550741 96.258 -124.7820
11.634442 96.280 -125.0713
11.718750 96.301 -125.3576
11.803669 96.322 -125.6411
11.889203 96.341 -125.9218
11.975357 96.360 -126.2001
12.062136 96.378 -126.4761
12.149543 96.396 -126.7504
12.237583 96.413 -127.0231
12.326262 96.429 -127.2948
12.415583 96.444 -127.5660
12.505552 96.458 -127.8371
12.596172 96.471 -128.1085
12.687449 96.483 -128.3805
12.779387 96.494 -128.6535
12.871992 96.503 -128.9279
12.965268 96.512 -129.2037
13.059220 96.520 -129.4812
13.153852 96.528 -129.7606
13.249170 96.534 -130.0420
13.345179 96.540 -130.3257
13.441884 96.546 -130.6118
13.539289 96.551 -130.9006
13.637401 96.556 -131.1925
13.736223 96.560 -131.4879
13.835761 96.564 -131.7871
13.936021 96.568 -132.0909
14.037007 96.571 -132.3996
14.138725 96.574 -132.7138
14.241180 96.577 -133.0341
14.344377 96.579 -133.3607
14.448323 96.581 -133.6942
14.553021 96.583 -134.0346
14.658478 96.584 -134.3819
14.764700 96.586 -134.7361
14.871691 96.587 -135.0967
14.979457 96.588 -135.4632
15.088005 96.588 -135.8351
15.197339 96.589 -136.2116
15.307465 96.590 -136.5921
15.418389 96.590 -136.9756
15.530117 96.591 -137.3616
15.642655 96.592 -137.7494
15.756008 96.593 -138.1385
15.870182 96.595 -138.5287
15.985184 96.597 -138.9197
16.101019 96.600 -139.3114
16.217694 96.604 -139.7040
16.335214 96.609 -140.0974
16.453586 96.615 -140.4917
16.572815 96.622 -140.8871
16.692909 96.630 -141.2833
16.813872 96.639 -141.6802
16.935713 96.648 -142.0773
17.058436 96.659 -142.4741
17.182048 96.671 -142.8699
17.306556 96.683 -143.2638
17.431967 96.696 -143.6549
17.558286 96.708 -144.0423
17.685521 96.721 -144.4251
17.813677 96.735 -144.8026
17.942762 96.748 -145.1741
18.072783 96.762 -145.5391
18.203746 96.776 -145.8974
18.335658 96.790 -146.2489
18.468526 96.804 -146.5936
18.602356 96.819 -146.9316
18.737156 96.834 -147.2632
18.872934 96.849 -147.5884
19.009695 96.864 -147.9077
19.147447 96.879 -148.2212
19.286197 96.894 -148.5291
19.425953 96.909 -148.8316
19.566721 96.923 -149.1290
19.708510 96.936 -149.4215
19.851326 96.949 -149.7093
19.995177 96.961 -149.9929
20.140070 96.972 -150.2725
20.286013 96.982 -150.5488
20.433014 96.992 -150.8221
20.581080 97.000 -151.0928
20.730219 97.007 -151.3616
20.880439 97.014 -151.6288
21.031747 97.019 -151.8949
21.184152 97.024 -152.1601
21.337661 97.028 -152.4250
21.492282 97.031 -152.6899
21.648024 97.033 -152.9554
21.804895 97.034 -153.2220
21.962902 97.035 -153.4903
22.122054 97.035 -153.7610
22.282360 97.035 -154.0349
22.443827 97.034 -154.3125
22.606464 97.032 -154.5945
22.770280 97.030 -154.8810
22.935283 97.028 -155.1724
23.101481 97.025 -155.4686
23.268884 97.021 -155.7694
23.437500 97.017 -156.0745
23.607338 97.013 -156.3836
23.778406 97.009 -156.6962
23.950714 97.004 -157.0122
24.124271 97.000 -157.3312
24.299086 96.996 -157.6533
24.475167 96.993 -157.9781
24.652524 96.989 -158.3057
24.831166 96.987 -158.6355
25.011103 96.984 -158.9673
25.192344 96.983 -159.3004
25.374898 96.981 -159.6338
25.558775 96.980 -159.9666
25.743984 96.980 -160.2978
25.930536 96.980 -160.6265
26.118439 96.980 -160.9518
26.307704 96.981 -161.2729
26.498341 96.982 -161.5894
26.690359 96.983 -161.9010
26.883768 96.985 -162.2075
27.078579 96.987 -162.5088
27.274801 96.989 -162.8049
27.472446 96.992 -163.0959
27.671522 96.994 -163.3819
27.872042 96.996 -163.6630
28.074014 96.998 -163.9395
28.277450 96.999 -164.2115
28.482360 97.000 -164.4796
28.688755 97.000 -164.7442
28.896645 96.999 -165.0055
29.106042 96.998 -165.2641
29.316957 96.996 -165.5203
29.529400 96.993 -165.7747
29.743382 96.989 -166.0276
29.958915 96.985 -166.2797
30.176009 96.980 -166.5316
30.394677 96.975 -166.7840
30.614929 96.969 -167.0375
30.836778 96.963 -167.2927
31.060234 96.955 -167.5499
31.285309 96.948 -167.8095
31.512015 96.940 -168.0715
31.740364 96.932 -168.3360
31.970368 96.923 -168.6033
32.202039 96.915 -168.8734
32.435388 96.907 -169.1469
32.670428 96.899 -169.4239
32.907171 96.891 -169.7047
33.145630 96.884 -169.9893
33.385817 96.876 -170.2771
33.627745 96.869 -170.5675
33.871425 96.862 -170.8592
34.116871 96.855 -171.1512
34.364096 96.848 -171.4423
34.613113 96.841 -171.7317
34.863934 96.834 -172.0190
35.116572 96.828 -172.3038
35.371041 96.822 -172.5861
35.627354 96.816 -172.8656
35.885525 96.809 -173.1423
36.145566 96.803 -173.4156
36.407492 96.796 -173.6852
36.671316 96.789 -173.9507
36.937051 96.781 -174.2120
37.204712 96.774 -174.4694
37.474313 96.765 -174.7234
37.745867 96.757 -174.9747
38.019389 96.748 -175.2242
38.294893 96.739 -175.4724
38.572394 96.729 -175.7200
38.851905 96.719 -175.9670
39.133442 96.709 -176.2139
39.417019 96.698 -176.4607
39.702651 96.686 -176.7079
39.990353 96.675 -176.9560
40.280140 96.663 -177.2052
40.572026 96.651 -177.4559
40.866028 96.638 -177.7079
41.162160 96.626 -177.9604
41.460438 96.613 -178.2126
41.760877 96.600 -178.4637
42.063494 96.587 -178.7131
42.368303 96.574 -178.9607
42.675322 96.561 -179.2068
42.984565 96.548 -179.4519
43.296048 96.536 -179.6965
43.609789 96.523 -179.9408
43.925804 96.511 179.8149
44.244108 96.498 179.5710
44.564719 96.485 179.3278
44.887654 96.472 179.0857
45.212928 96.458 178.8450
45.540560 96.444 178.6060
45.870565 96.429 178.3688
46.202962 96.415 178.1334
46.537768 96.400 177.8994
46.875000 96.385 177.6666
47.214676 96.370 177.4344
47.556813 96.355 177.2027
47.901429 96.340 176.9711
48.248542 96.325 176.7397
48.598171 96.310 176.5085
48.950334 96.295 176.2777
49.305048 96.280 176.0473
49.662333 96.265 175.8176
50.022206 96.250 175.5889
50.384688 96.234 175.3617
50.749796 96.219 175.1362
51.117550 96.204 174.9125
51.487969 96.188 174.6909
51.861072 96.172 174.4712
52.236879 96.156 174.2537
52.615409 96.140 174.0386
52.996681 96.124 173.8261
53.380717 96.108 173.6163
53.767536 96.091 173.4086
54.157158 96.075 173.2023
54.549603 96.060 172.9964
54.944892 96.044 172.7899
55.343045 96.029 172.5818
55.744084 96.014 172.3715
56.148028 96.000 172.1581
56.554900 95.985 171.9412
56.964720 95.971 171.7202
57.377510 95.956 171.4955
57.793291 95.941 171.2679
58.212085 95.926 171.0389
58.633914 95.909 170.8101
59.058799 95.893 170.5828
59.486764 95.875 170.3580
59.917829 95.857 170.1356
60.352019 95.838 169.9155
60.789354 95.818 169.6971
61.229859 95.798 169.4800
61.673556 95.777 169.2641
62.120468 95.756 169.0492
62.570618 95.733 168.8353
63.024031 95.711 168.6227
63.480729 95.687 168.4112
63.940736 95.664 168.2010
64.404077 95.640 167.9920
64.870776 95.616 167.7841
65.340856 95.593 167.5770
65.814343 95.569 167.3708
66.291261 95.546 167.1653
66.771635 95.523 166.9611
67.255489 95.500 166.7585
67.742850 95.477 166.5580
68.233743 95.454 166.3600
68.728193 95.431 166.1644
69.226226 95.408 165.9709
69.727867 95.385 165.7794
70.233144 95.362 165.5896
70.742083 95.338 165.4013
71.254709 95.314 165.2142
71.771050 95.289 165.0278
72.291132 95.265 164.8418
72.814984 95.240 164.6559
73.342631 95.215 164.4704
73.874102 95.190 164.2850
74.409424 95.164 164.0997
74.948626 95.139 163.9143
75.491734 95.114 163.7289
76.038779 95.089 163.5439
76.589787 95.065 163.3596
77.144788 95.040 163.1762
77.703811 95.016 162.9935
78.266885 94.991 162.8106
78.834039 94.967 162.6264
79.405303 94.943 162.4396
79.980706 94.919 162.2490
80.560280 94.894 162.0539
81.144053 94.869 161.8542
81.732056 94.842 161.6498
82.324320 94.815 161.4405
82.920876 94.786 161.2262
83.521755 94.755 161.0079
84.126988 94.723 160.7884
84.736607 94.689 160.5716
85.350643 94.654 160.3613
85.969129 94.618 160.1606
86.592097 94.581 159.9712
87.219579 94.544 159.7938
