* Measurement data measured by REW V5.31
* Source: EXCL: Microphone (USB Sound Device        ), MICROPHONE (Master Volume), R, volume: 0.390
* Format: 256k Log Swept Sine, 1 sweep at -15.0 dBFS with no timing reference
* Dated: Dec 23, 2024 12:51:17 AM
* REW Settings:
*  C-weighting compensation: Off
*  Target level: 75.0 dB
* Note: Purple
* Measurement: L Purple
* Smoothing: 1/12 octave
* Frequency Step: 96 ppo
* Start Frequency: 0.36621094 Hz
*
* Freq(Hz) SPL(dB) Phase(degrees)
0.366211 94.124 163.8609
0.368865 94.118 163.8436
0.371538 94.110 163.8179
0.374230 94.100 163.7855
0.376942 94.089 163.7482
0.379673 94.077 163.7072
0.382424 94.064 163.6634
0.385196 94.051 163.6172
0.387987 94.038 163.5690
0.390798 94.025 163.5188
0.393630 94.012 163.4668
0.396483 93.998 163.4129
0.399356 93.984 163.3572
0.402250 93.971 163.2997
0.405165 93.957 163.2404
0.408101 93.943 163.1792
0.411058 93.929 163.1162
0.414037 93.915 163.0513
0.417037 93.900 162.9845
0.420059 93.886 162.9157
0.423103 93.871 162.8451
0.426169 93.857 162.7725
0.429257 93.842 162.6979
0.432368 93.827 162.6214
0.435501 93.812 162.5428
0.438656 93.797 162.4622
0.441835 93.782 162.3797
0.445037 93.767 162.2950
0.448262 93.752 162.2084
0.451510 93.736 162.1196
0.454782 93.721 162.0288
0.458077 93.705 161.9359
0.461397 93.689 161.8408
0.464740 93.673 161.7437
0.468108 93.657 161.6444
0.471500 93.641 161.5430
0.474917 93.625 161.4394
0.478358 93.609 161.3336
0.481825 93.592 161.2257
0.485316 93.576 161.1156
0.488833 93.559 161.0033
0.492375 93.542 160.8888
0.495943 93.525 160.7722
0.499537 93.508 160.6533
0.503157 93.491 160.5322
0.506803 93.473 160.4089
0.510475 93.456 160.2834
0.514175 93.438 160.1557
0.517900 93.421 160.0257
0.521653 93.403 159.8936
0.525434 93.385 159.7592
0.529241 93.367 159.6227
0.533076 93.348 159.4840
0.536939 93.330 159.3431
0.540830 93.312 159.2000
0.544749 93.293 159.0547
0.548696 93.274 158.9073
0.552673 93.255 158.7578
0.556677 93.236 158.6062
0.560711 93.217 158.4524
0.564774 93.198 158.2966
0.568867 93.178 158.1388
0.572989 93.159 157.9789
0.577141 93.139 157.8170
0.581324 93.119 157.6532
0.585536 93.099 157.4874
0.589779 93.079 157.3198
0.594053 93.059 157.1503
0.598358 93.038 156.9790
0.602694 93.017 156.8060
0.607061 92.997 156.6313
0.611460 92.976 156.4549
0.615891 92.955 156.2769
0.620354 92.933 156.0974
0.624849 92.912 155.9165
0.629377 92.891 155.7342
0.633938 92.869 155.5505
0.638532 92.847 155.3656
0.643159 92.825 155.1796
0.647819 92.803 154.9925
0.652514 92.781 154.8045
0.657242 92.758 154.6156
0.662005 92.735 154.4259
0.666802 92.713 154.2357
0.671634 92.690 154.0449
0.676501 92.666 153.8537
0.681403 92.643 153.6623
0.686341 92.620 153.4707
0.691314 92.596 153.2791
0.696324 92.572 153.0878
0.701370 92.548 152.8966
0.706452 92.523 152.7059
0.711571 92.498 152.5156
0.716728 92.472 152.3257
0.721921 92.446 152.1360
0.727153 92.417 151.9462
0.732422 92.387 151.7558
0.737729 92.355 151.5640
0.743075 92.321 151.3701
0.748460 92.286 151.1735
0.753883 92.249 150.9736
0.759346 92.211 150.7702
0.764849 92.173 150.5629
0.770391 92.134 150.3517
0.775974 92.094 150.1363
0.781597 92.054 149.9168
0.787261 92.014 149.6931
0.792966 91.973 149.4651
0.798712 91.932 149.2328
0.804500 91.890 148.9961
0.810329 91.847 148.7551
0.816201 91.804 148.5097
0.822116 91.761 148.2599
0.828073 91.717 148.0057
0.834074 91.672 147.7470
0.840118 91.626 147.4839
0.846206 91.580 147.2162
0.852338 91.533 146.9442
0.858514 91.485 146.6676
0.864735 91.436 146.3866
0.871001 91.386 146.1012
0.877313 91.336 145.8113
0.883670 91.284 145.5170
0.890074 91.232 145.2184
0.896524 91.178 144.9154
0.903020 91.124 144.6082
0.909564 91.068 144.2968
0.916155 91.011 143.9812
0.922794 90.953 143.6616
0.929481 90.893 143.3380
0.936216 90.833 143.0107
0.943000 90.771 142.6795
0.949834 90.707 142.3448
0.956717 90.642 142.0067
0.963649 90.576 141.6653
0.970632 90.507 141.3208
0.977666 90.438 140.9735
0.984750 90.366 140.6236
0.991886 90.293 140.2712
0.999074 90.217 139.9168
1.006314 90.140 139.5606
1.013606 90.061 139.2029
1.020951 89.980 138.8441
1.028349 89.896 138.4846
1.035801 89.811 138.1248
1.043307 89.723 137.7652
1.050867 89.632 137.4061
1.058482 89.539 137.0482
1.066152 89.444 136.6918
1.073878 89.346 136.3374
1.081660 89.246 135.9853
1.089498 89.143 135.6357
1.097393 89.037 135.2884
1.105345 88.930 134.9432
1.113355 88.820 134.5997
1.121423 88.708 134.2573
1.129549 88.595 133.9155
1.137734 88.479 133.5741
1.145979 88.362 133.2325
1.154283 88.243 132.8906
1.162647 88.122 132.5480
1.171072 87.999 132.2045
1.179558 87.874 131.8598
1.188106 87.746 131.5136
1.196715 87.616 131.1657
1.205387 87.484 130.8157
1.214122 87.349 130.4633
1.222920 87.211 130.1082
1.231782 87.070 129.7500
1.240708 86.926 129.3883
1.249699 86.779 129.0227
1.258754 86.629 128.6527
1.267876 86.475 128.2779
1.277063 86.317 127.8977
1.286318 86.156 127.5116
1.295639 85.990 127.1190
1.305027 85.821 126.7193
1.314484 85.647 126.3117
1.324009 85.468 125.8955
1.333604 85.285 125.4699
1.343268 85.097 125.0340
1.353002 84.904 124.5869
1.362806 84.705 124.1276
1.372681 84.501 123.6549
1.382628 84.291 123.1677
1.392647 84.075 122.6648
1.402739 83.852 122.1447
1.412904 83.623 121.6061
1.423142 83.386 121.0475
1.433455 83.141 120.4674
1.443843 82.886 119.8642
1.454305 82.621 119.2367
1.464844 82.342 118.5832
1.475459 82.048 117.9023
1.486150 81.734 117.1920
1.496920 81.400 116.4496
1.507767 81.045 115.6720
1.518693 80.668 114.8548
1.529698 80.269 113.9930
1.540783 79.850 113.0802
1.551948 79.412 112.1089
1.563194 78.957 111.0702
1.574521 78.486 109.9530
1.585931 78.003 108.7441
1.597423 77.508 107.4273
1.608999 77.005 105.9825
1.620658 76.495 104.3845
1.632402 75.983 102.6020
1.644232 75.470 100.5947
1.656146 74.961 98.3113
1.668147 74.457 95.6851
1.680235 73.964 92.6297
1.692411 73.484 89.0318
1.704675 73.022 84.7452
1.717028 72.582 79.5843
1.729470 72.170 73.3275
1.742003 71.788 65.7420
1.754626 71.445 56.6581
1.767341 71.144 46.1105
1.780147 70.892 34.4993
1.793047 70.695 22.6043
1.806040 70.559 11.3183
1.819128 70.490 1.2789
1.832310 70.491 -7.2818
1.845587 70.567 -14.4357
1.858961 70.716 -20.3894
1.872432 70.939 -25.3707
1.886001 71.232 -29.5797
1.899667 71.591 -33.1770
1.913433 72.011 -36.2871
1.927299 72.485 -39.0054
1.941265 73.008 -41.4050
1.955332 73.572 -43.5421
1.969501 74.173 -45.4606
1.983773 74.802 -47.1947
1.998148 75.454 -48.7719
2.012627 76.121 -50.2137
2.027212 76.797 -51.5377
2.041902 77.476 -52.7583
2.056698 78.151 -53.8872
2.071602 78.816 -54.9340
2.086614 79.464 -55.9070
2.101734 80.089 -56.8130
2.116964 80.687 -57.6581
2.132304 81.251 -58.4479
2.147756 81.778 -59.1877
2.163320 82.266 -59.8830
2.178996 82.714 -60.5397
2.194786 83.124 -61.1644
2.210690 83.497 -61.7638
2.226710 83.839 -62.3441
2.242845 84.154 -62.9099
2.259098 84.444 -63.4646
2.275468 84.712 -64.0098
2.291957 84.960 -64.5463
2.308566 85.190 -65.0740
2.325295 85.403 -65.5926
2.342145 85.602 -66.1015
2.359117 85.787 -66.5999
2.376212 85.961 -67.0871
2.393431 86.124 -67.5620
2.410775 86.279 -68.0239
2.428244 86.428 -68.4718
2.445840 86.572 -68.9049
2.463564 86.713 -69.3223
2.481416 86.852 -69.7234
2.499397 86.993 -70.1078
2.517509 87.134 -70.4756
2.535752 87.278 -70.8271
2.554127 87.423 -71.1635
2.572635 87.568 -71.4868
2.591277 87.713 -71.7991
2.610055 87.854 -72.1024
2.628968 87.992 -72.3983
2.648019 88.125 -72.6877
2.667208 88.253 -72.9712
2.686535 88.377 -73.2489
2.706003 88.496 -73.5209
2.725612 88.611 -73.7868
2.745363 88.722 -74.0465
2.765257 88.830 -74.2995
2.785295 88.936 -74.5453
2.805478 89.039 -74.7835
2.825808 89.141 -75.0137
2.846285 89.242 -75.2354
2.866910 89.342 -75.4481
2.887685 89.442 -75.6517
2.908611 89.541 -75.8461
2.929688 89.639 -76.0314
2.950917 89.737 -76.2079
2.972301 89.833 -76.3762
2.993839 89.928 -76.5370
3.015534 90.020 -76.6906
3.037386 90.111 -76.8378
3.059396 90.200 -76.9789
3.081565 90.286 -77.1144
3.103896 90.372 -77.2446
3.126388 90.456 -77.3700
3.149043 90.539 -77.4908
3.171862 90.622 -77.6073
3.194847 90.704 -77.7196
3.217998 90.786 -77.8279
3.241317 90.867 -77.9322
3.264805 90.949 -78.0322
3.288463 91.032 -78.1277
3.312293 91.114 -78.2182
3.336295 91.196 -78.3035
3.360471 91.277 -78.3836
3.384822 91.359 -78.4588
3.409350 91.440 -78.5300
3.434056 91.520 -78.5981
3.458940 91.600 -78.6642
3.484005 91.680 -78.7297
3.509252 91.759 -78.7959
3.534681 91.839 -78.8639
3.560295 91.918 -78.9349
3.586094 91.997 -79.0099
3.612081 92.076 -79.0897
3.638255 92.155 -79.1745
3.664620 92.234 -79.2643
3.691175 92.314 -79.3586
3.717923 92.393 -79.4571
3.744864 92.472 -79.5594
3.772001 92.551 -79.6654
3.799335 92.630 -79.7755
3.826866 92.709 -79.8900
3.854597 92.787 -80.0095
3.882529 92.865 -80.1345
3.910664 92.943 -80.2658
3.939002 93.020 -80.4039
3.967546 93.096 -80.5494
3.996296 93.172 -80.7026
4.025255 93.247 -80.8637
4.054423 93.321 -81.0329
4.083804 93.395 -81.2098
4.113396 93.468 -81.3944
4.143204 93.541 -81.5864
4.173227 93.612 -81.7855
4.203468 93.683 -81.9916
4.233928 93.753 -82.2046
4.264609 93.821 -82.4243
4.295512 93.889 -82.6509
4.326639 93.956 -82.8843
4.357992 94.021 -83.1248
4.389572 94.085 -83.3727
4.421380 94.147 -83.6283
4.453419 94.208 -83.8916
4.485691 94.268 -84.1627
4.518196 94.327 -84.4409
4.550936 94.384 -84.7258
4.583914 94.439 -85.0165
4.617131 94.493 -85.3121
4.650589 94.546 -85.6119
4.684289 94.598 -85.9152
4.718233 94.648 -86.2216
4.752424 94.697 -86.5312
4.786862 94.744 -86.8441
4.821549 94.789 -87.1605
4.856488 94.833 -87.4807
4.891680 94.876 -87.8043
4.927127 94.917 -88.1310
4.962831 94.957 -88.4601
4.998794 94.995 -88.7908
5.035017 95.033 -89.1224
5.071503 95.069 -89.4543
5.108253 95.105 -89.7860
5.145270 95.139 -90.1177
5.182555 95.172 -90.4493
5.220110 95.204 -90.7812
5.257937 95.236 -91.1134
5.296038 95.266 -91.4461
5.334415 95.295 -91.7791
5.373071 95.324 -92.1123
5.412006 95.353 -92.4454
5.451224 95.381 -92.7783
5.490725 95.409 -93.1109
5.530514 95.437 -93.4430
5.570590 95.464 -93.7749
5.610957 95.491 -94.1069
5.651616 95.519 -94.4394
5.692570 95.546 -94.7729
5.733821 95.573 -95.1079
5.775370 95.600 -95.4448
5.817221 95.627 -95.7840
5.859375 95.655 -96.1255
5.901834 95.684 -96.4697
5.944602 95.712 -96.8165
5.987679 95.741 -97.1664
6.031068 95.771 -97.5199
6.074771 95.800 -97.8777
6.118792 95.831 -98.2404
6.163131 95.861 -98.6088
6.207792 95.892 -98.9832
6.252776 95.924 -99.3641
6.298086 95.956 -99.7514
6.343725 95.988 -100.1453
6.389694 96.021 -100.5459
6.435996 96.054 -100.9532
6.482634 96.088 -101.3676
6.529610 96.121 -101.7893
6.576926 96.155 -102.2183
6.624585 96.189 -102.6550
6.672590 96.223 -103.0991
6.720942 96.257 -103.5506
6.769645 96.291 -104.0089
6.818700 96.325 -104.4737
6.868111 96.359 -104.9444
6.917881 96.393 -105.4209
6.968010 96.427 -105.9027
7.018504 96.461 -106.3897
7.069362 96.494 -106.8816
7.120590 96.527 -107.3777
7.172189 96.560 -107.8773
7.224161 96.593 -108.3795
7.276511 96.625 -108.8835
7.329239 96.658 -109.3888
7.382350 96.690 -109.8949
7.435845 96.722 -110.4014
7.489729 96.754 -110.9079
7.544002 96.786 -111.4137
7.598669 96.818 -111.9181
7.653732 96.850 -112.4205
7.709194 96.883 -112.9203
7.765058 96.915 -113.4172
7.821327 96.948 -113.9111
7.878004 96.981 -114.4017
7.935091 97.015 -114.8889
7.992592 97.049 -115.3724
8.050510 97.084 -115.8519
8.108847 97.120 -116.3274
8.167607 97.156 -116.7989
8.226793 97.193 -117.2665
8.286408 97.230 -117.7303
8.346454 97.269 -118.1906
8.406936 97.308 -118.6475
8.467856 97.348 -119.1011
8.529218 97.388 -119.5516
8.591024 97.430 -119.9991
8.653278 97.472 -120.4438
8.715983 97.514 -120.8860
8.779143 97.558 -121.3258
8.842760 97.601 -121.7634
8.906839 97.645 -122.1987
8.971381 97.690 -122.6318
9.036392 97.734 -123.0626
9.101873 97.779 -123.4909
9.167829 97.824 -123.9168
9.234263 97.869 -124.3400
9.301178 97.913 -124.7603
9.368578 97.958 -125.1774
9.436467 98.002 -125.5909
9.504847 98.046 -126.0005
9.573723 98.089 -126.4057
9.643099 98.131 -126.8062
9.712976 98.171 -127.2018
9.783361 98.209 -127.5919
9.854255 98.246 -127.9762
9.925663 98.279 -128.3544
9.997588 98.309 -128.7261
10.070035 98.337 -129.0913
10.143007 98.362 -129.4497
10.216507 98.385 -129.8013
10.290540 98.406 -130.1460
10.365109 98.425 -130.4837
10.440219 98.443 -130.8148
10.515873 98.460 -131.1393
10.592076 98.476 -131.4576
10.668830 98.491 -131.7699
10.746141 98.506 -132.0765
10.824012 98.520 -132.3778
10.902447 98.533 -132.6743
10.981451 98.546 -132.9665
11.061027 98.558 -133.2548
11.141180 98.570 -133.5395
11.221913 98.580 -133.8211
11.303232 98.590 -134.1001
11.385140 98.600 -134.3767
11.467641 98.608 -134.6514
11.550741 98.616 -134.9243
11.634442 98.623 -135.1957
11.718750 98.629 -135.4658
11.803669 98.635 -135.7348
11.889203 98.640 -136.0028
11.975357 98.645 -136.2698
12.062136 98.648 -136.5360
12.149543 98.651 -136.8014
12.237583 98.653 -137.0661
12.326262 98.654 -137.3301
12.415583 98.655 -137.5936
12.505552 98.654 -137.8567
12.596172 98.652 -138.1194
12.687449 98.649 -138.3820
12.779387 98.645 -138.6448
12.871992 98.641 -138.9079
12.965268 98.636 -139.1718
13.059220 98.630 -139.4366
13.153852 98.623 -139.7029
13.249170 98.617 -139.9711
13.345179 98.610 -140.2415
13.441884 98.603 -140.5145
13.539289 98.595 -140.7907
13.637401 98.588 -141.0704
13.736223 98.580 -141.3541
13.835761 98.572 -141.6422
13.936021 98.564 -141.9349
14.037007 98.556 -142.2325
14.138725 98.547 -142.5353
14.241180 98.539 -142.8436
14.344377 98.529 -143.1572
14.448323 98.520 -143.4765
14.553021 98.510 -143.8012
14.658478 98.501 -144.1313
14.764700 98.491 -144.4667
14.871691 98.481 -144.8071
14.979457 98.472 -145.1522
15.088005 98.463 -145.5018
15.197339 98.453 -145.8555
15.307465 98.445 -146.2128
15.418389 98.436 -146.5733
15.530117 98.428 -146.9367
15.642655 98.420 -147.3024
15.756008 98.412 -147.6700
15.870182 98.405 -148.0391
15.985184 98.399 -148.4092
16.101019 98.393 -148.7799
16.217694 98.387 -149.1509
16.335214 98.382 -149.5218
16.453586 98.378 -149.8921
16.572815 98.375 -150.2615
16.692909 98.373 -150.6297
16.813872 98.372 -150.9963
16.935713 98.372 -151.3609
17.058436 98.372 -151.7231
17.182048 98.374 -152.0826
17.306556 98.376 -152.4388
17.431967 98.379 -152.7914
17.558286 98.383 -153.1399
17.685521 98.387 -153.4840
17.813677 98.391 -153.8233
17.942762 98.395 -154.1575
18.072783 98.400 -154.4861
18.203746 98.405 -154.8091
18.335658 98.410 -155.1261
18.468526 98.415 -155.4372
18.602356 98.420 -155.7422
18.737156 98.425 -156.0410
18.872934 98.431 -156.3339
19.009695 98.436 -156.6209
19.147447 98.441 -156.9020
19.286197 98.446 -157.1776
19.425953 98.450 -157.4478
19.566721 98.454 -157.7128
19.708510 98.458 -157.9730
19.851326 98.461 -158.2287
19.995177 98.463 -158.4801
20.140070 98.464 -158.7279
20.286013 98.464 -158.9722
20.433014 98.464 -159.2138
20.581080 98.462 -159.4531
20.730219 98.460 -159.6906
20.880439 98.457 -159.9270
21.031747 98.453 -160.1628
21.184152 98.449 -160.3986
21.337661 98.444 -160.6349
21.492282 98.438 -160.8723
21.648024 98.432 -161.1112
21.804895 98.425 -161.3520
21.962902 98.417 -161.5952
22.122054 98.409 -161.8412
22.282360 98.400 -162.0903
22.443827 98.390 -162.3429
22.606464 98.381 -162.5992
22.770280 98.370 -162.8596
22.935283 98.360 -163.1243
23.101481 98.349 -163.3934
23.268884 98.338 -163.6669
23.437500 98.327 -163.9449
23.607338 98.316 -164.2272
23.778406 98.305 -164.5134
23.950714 98.294 -164.8033
24.124271 98.283 -165.0962
24.299086 98.272 -165.3917
24.475167 98.261 -165.6893
24.652524 98.251 -165.9883
24.831166 98.242 -166.2882
25.011103 98.233 -166.5886
25.192344 98.225 -166.8889
25.374898 98.218 -167.1886
25.558775 98.211 -167.4875
25.743984 98.205 -167.7848
25.930536 98.199 -168.0803
26.118439 98.194 -168.3733
26.307704 98.190 -168.6632
26.498341 98.186 -168.9496
26.690359 98.182 -169.2319
26.883768 98.178 -169.5097
27.078579 98.175 -169.7825
27.274801 98.171 -170.0500
27.472446 98.168 -170.3123
27.671522 98.164 -170.5691
27.872042 98.160 -170.8208
28.074014 98.155 -171.0674
28.277450 98.151 -171.3095
28.482360 98.145 -171.5473
28.688755 98.139 -171.7815
28.896645 98.133 -172.0124
29.106042 98.126 -172.2407
29.316957 98.118 -172.4670
29.529400 98.109 -172.6919
29.743382 98.100 -172.9160
29.958915 98.090 -173.1399
30.176009 98.080 -173.3643
30.394677 98.069 -173.5896
30.614929 98.058 -173.8165
30.836778 98.046 -174.0455
31.060234 98.034 -174.2770
31.285309 98.021 -174.5114
31.512015 98.008 -174.7491
31.740364 97.995 -174.9904
31.970368 97.982 -175.2357
32.202039 97.969 -175.4850
32.435388 97.956 -175.7383
32.670428 97.943 -175.9955
32.907171 97.931 -176.2563
33.145630 97.918 -176.5201
33.385817 97.906 -176.7862
33.627745 97.894 -177.0540
33.871425 97.882 -177.3225
34.116871 97.870 -177.5907
34.364096 97.859 -177.8580
34.613113 97.848 -178.1234
34.863934 97.837 -178.3864
35.116572 97.826 -178.6464
35.371041 97.816 -178.9031
35.627354 97.805 -179.1563
35.885525 97.795 -179.4060
36.145566 97.785 -179.6521
36.407492 97.774 -179.8948
36.671316 97.764 179.8658
36.937051 97.753 179.6294
37.204712 97.742 179.3960
37.474313 97.730 179.1652
37.745867 97.718 178.9368
38.019389 97.705 178.7103
38.294893 97.692 178.4853
38.572394 97.679 178.2613
38.851905 97.665 178.0379
39.133442 97.651 177.8149
39.417019 97.636 177.5920
39.702651 97.620 177.3692
39.990353 97.605 177.1466
40.280140 97.589 176.9240
40.572026 97.573 176.7010
40.866028 97.557 176.4773
41.162160 97.541 176.2525
41.460438 97.525 176.0264
41.760877 97.510 175.7993
42.063494 97.494 175.5717
42.368303 97.478 175.3441
42.675322 97.462 175.1174
42.984565 97.446 174.8918
43.296048 97.430 174.6673
43.609789 97.414 174.4436
43.925804 97.399 174.2203
44.244108 97.383 173.9972
44.564719 97.367 173.7743
44.887654 97.351 173.5519
45.212928 97.335 173.3304
45.540560 97.318 173.1098
45.870565 97.301 172.8903
46.202962 97.284 172.6714
46.537768 97.267 172.4532
46.875000 97.249 172.2356
47.214676 97.231 172.0187
47.556813 97.213 171.8030
47.901429 97.195 171.5888
48.248542 97.177 171.3761
48.598171 97.159 171.1646
48.950334 97.141 170.9540
49.305048 97.124 170.7441
49.662333 97.106 170.5344
50.022206 97.089 170.3250
50.384688 97.071 170.1159
50.749796 97.054 169.9071
51.117550 97.036 169.6991
51.487969 97.018 169.4924
51.861072 96.999 169.2877
52.236879 96.980 169.0858
52.615409 96.962 168.8873
52.996681 96.943 168.6920
53.380717 96.924 168.4996
53.767536 96.905 168.3089
54.157158 96.887 168.1189
54.549603 96.868 167.9285
54.944892 96.851 167.7369
55.343045 96.833 167.5433
55.744084 96.815 167.3471
56.148028 96.798 167.1479
56.554900 96.781 166.9454
56.964720 96.764 166.7395
57.377510 96.746 166.5305
57.793291 96.728 166.3191
58.212085 96.710 166.1065
58.633914 96.691 165.8938
59.058799 96.671 165.6822
59.486764 96.651 165.4721
59.917829 96.631 165.2638
60.352019 96.609 165.0569
60.789354 96.587 164.8515
61.229859 96.565 164.6479
61.673556 96.541 164.4465
62.120468 96.517 164.2476
62.570618 96.493 164.0513
63.024031 96.468 163.8572
63.480729 96.443 163.6648
63.940736 96.418 163.4736
64.404077 96.393 163.2833
64.870776 96.369 163.0936
65.340856 96.344 162.9044
65.814343 96.319 162.7159
66.291261 96.294 162.5288
66.771635 96.268 162.3439
67.255489 96.243 162.1617
67.742850 96.217 161.9824
68.233743 96.192 161.8060
68.728193 96.166 161.6323
69.226226 96.139 161.4612
69.727867 96.113 161.2923
70.233144 96.087 161.1251
70.742083 96.060 160.9590
71.254709 96.033 160.7937
71.771050 96.006 160.6284
72.291132 95.979 160.4623
72.814984 95.953 160.2951
73.342631 95.926 160.1267
73.874102 95.899 159.9579
74.409424 95.871 159.7898
74.948626 95.844 159.6234
75.491734 95.816 159.4596
76.038779 95.789 159.2986
76.589787 95.762 159.1398
77.144788 95.735 158.9815
77.703811 95.709 158.8221
78.266885 95.682 158.6611
78.834039 95.655 158.4988
79.405303 95.628 158.3362
79.980706 95.600 158.1734
80.560280 95.571 158.0101
81.144053 95.543 157.8462
81.732056 95.513 157.6818
82.324320 95.482 157.5175
82.920876 95.451 157.3542
83.521755 95.418 157.1934
84.126988 95.384 157.0370
84.736607 95.349 156.8878
85.350643 95.313 156.7487
85.969129 95.276 156.6229
86.592097 95.239 156.5129
87.219579 95.203 156.4199
