* Measurement data measured by REW V5.31
* Source: EXCL: Microphone (USB Sound Device        ), MICROPHONE (Master Volume), R, volume: 0.390
* Format: 256k Log Swept Sine, 1 sweep at -15.0 dBFS with no timing reference
* Dated: Dec 22, 2024 11:45:35 PM
* REW Settings:
*  C-weighting compensation: Off
*  Target level: 75.0 dB
* Note: BLON BL03 II L
* Measurement: L BLON BL03 II
* Smoothing: 1/12 octave
* Frequency Step: 96 ppo
* Start Frequency: 0.36621094 Hz
*
* Freq(Hz) SPL(dB) Phase(degrees)
0.366211 95.351 159.4035
0.368865 95.345 159.3819
0.371538 95.336 159.3495
0.374230 95.325 159.3089
0.376942 95.313 159.2620
0.379673 95.300 159.2105
0.382424 95.286 159.1554
0.385196 95.272 159.0973
0.387987 95.258 159.0365
0.390798 95.244 158.9732
0.393630 95.229 158.9076
0.396483 95.214 158.8396
0.399356 95.200 158.7693
0.402250 95.185 158.6966
0.405165 95.170 158.6216
0.408101 95.154 158.5443
0.411058 95.139 158.4645
0.414037 95.124 158.3823
0.417037 95.108 158.2976
0.420059 95.093 158.2105
0.423103 95.077 158.1209
0.426169 95.061 158.0288
0.429257 95.045 157.9341
0.432368 95.029 157.8369
0.435501 95.013 157.7372
0.438656 94.997 157.6348
0.441835 94.980 157.5298
0.445037 94.964 157.4221
0.448262 94.947 157.3118
0.451510 94.930 157.1989
0.454782 94.913 157.0832
0.458077 94.896 156.9648
0.461397 94.879 156.8437
0.464740 94.862 156.7198
0.468108 94.845 156.5931
0.471500 94.827 156.4637
0.474917 94.809 156.3315
0.478358 94.792 156.1964
0.481825 94.774 156.0586
0.485316 94.756 155.9179
0.488833 94.738 155.7743
0.492375 94.719 155.6279
0.495943 94.701 155.4786
0.499537 94.682 155.3265
0.503157 94.664 155.1715
0.506803 94.645 155.0136
0.510475 94.626 154.8528
0.514175 94.607 154.6891
0.517900 94.588 154.5225
0.521653 94.568 154.3531
0.525434 94.549 154.1808
0.529241 94.529 154.0056
0.533076 94.509 153.8275
0.536939 94.489 153.6466
0.540830 94.469 153.4628
0.544749 94.449 153.2762
0.548696 94.429 153.0868
0.552673 94.408 152.8946
0.556677 94.387 152.6996
0.560711 94.367 152.5019
0.564774 94.346 152.3015
0.568867 94.325 152.0984
0.572989 94.303 151.8926
0.577141 94.282 151.6843
0.581324 94.260 151.4734
0.585536 94.238 151.2599
0.589779 94.217 151.0440
0.594053 94.195 150.8257
0.598358 94.172 150.6050
0.602694 94.150 150.3820
0.607061 94.127 150.1568
0.611460 94.105 149.9295
0.615891 94.082 149.7001
0.620354 94.059 149.4687
0.624849 94.036 149.2354
0.629377 94.012 149.0003
0.633938 93.989 148.7634
0.638532 93.965 148.5250
0.643159 93.941 148.2851
0.647819 93.917 148.0439
0.652514 93.893 147.8014
0.657242 93.868 147.5578
0.662005 93.844 147.3133
0.666802 93.819 147.0680
0.671634 93.794 146.8220
0.676501 93.769 146.5756
0.681403 93.744 146.3289
0.686341 93.718 146.0820
0.691314 93.692 145.8352
0.696324 93.666 145.5887
0.701370 93.640 145.3426
0.706452 93.614 145.0970
0.711571 93.586 144.8521
0.716728 93.558 144.6077
0.721921 93.529 144.3637
0.727153 93.499 144.1197
0.732422 93.466 143.8749
0.737729 93.431 143.6284
0.743075 93.395 143.3792
0.748460 93.356 143.1266
0.753883 93.316 142.8697
0.759346 93.276 142.6082
0.764849 93.234 142.3418
0.770391 93.192 142.0701
0.775974 93.149 141.7931
0.781597 93.106 141.5107
0.787261 93.062 141.2227
0.792966 93.017 140.9292
0.798712 92.972 140.6300
0.804500 92.927 140.3250
0.810329 92.881 140.0143
0.816201 92.834 139.6977
0.822116 92.786 139.3753
0.828073 92.738 139.0470
0.834074 92.689 138.7128
0.840118 92.639 138.3726
0.846206 92.589 138.0264
0.852338 92.538 137.6742
0.858514 92.485 137.3159
0.864735 92.432 136.9517
0.871001 92.378 136.5815
0.877313 92.323 136.2052
0.883670 92.268 135.8230
0.890074 92.211 135.4348
0.896524 92.152 135.0408
0.903020 92.093 134.6409
0.909564 92.033 134.2352
0.916155 91.971 133.8239
0.922794 91.908 133.4071
0.929481 91.844 132.9847
0.936216 91.778 132.5571
0.943000 91.711 132.1243
0.949834 91.643 131.6866
0.956717 91.573 131.2441
0.963649 91.501 130.7970
0.970632 91.428 130.3457
0.977666 91.353 129.8904
0.984750 91.276 129.4314
0.991886 91.198 128.9691
0.999074 91.117 128.5038
1.006314 91.035 128.0359
1.013606 90.950 127.5659
1.020951 90.864 127.0944
1.028349 90.775 126.6217
1.035801 90.684 126.1486
1.043307 90.590 125.6756
1.050867 90.495 125.2034
1.058482 90.396 124.7325
1.066152 90.296 124.2638
1.073878 90.192 123.7976
1.081660 90.086 123.3346
1.089498 89.977 122.8749
1.097393 89.866 122.4184
1.105345 89.752 121.9648
1.113355 89.635 121.5135
1.121423 89.516 121.0636
1.129549 89.395 120.6147
1.137734 89.271 120.1660
1.145979 89.144 119.7170
1.154283 89.015 119.2672
1.162647 88.884 118.8162
1.171072 88.750 118.3636
1.179558 88.613 117.9089
1.188106 88.474 117.4516
1.196715 88.332 116.9912
1.205387 88.187 116.5272
1.214122 88.039 116.0592
1.222920 87.888 115.5864
1.231782 87.735 115.1084
1.240708 87.578 114.6244
1.249699 87.418 114.1338
1.258754 87.255 113.6358
1.267876 87.089 113.1298
1.277063 86.919 112.6148
1.286318 86.746 112.0900
1.295639 86.569 111.5544
1.305027 86.389 111.0072
1.314484 86.205 110.4471
1.324009 86.018 109.8731
1.333604 85.827 109.2840
1.343268 85.631 108.6786
1.353002 85.432 108.0554
1.362806 85.229 107.4131
1.372681 85.022 106.7503
1.382628 84.810 106.0653
1.392647 84.594 105.3566
1.402739 84.374 104.6226
1.412904 84.149 103.8617
1.423142 83.918 103.0722
1.433455 83.682 102.2527
1.443843 83.439 101.4019
1.454305 83.188 100.5186
1.464844 82.928 99.6017
1.475459 82.655 98.6499
1.486150 82.368 97.6614
1.496920 82.066 96.6332
1.507767 81.746 95.5616
1.518693 81.410 94.4415
1.529698 81.058 93.2669
1.540783 80.689 92.0301
1.551948 80.307 90.7225
1.563194 79.911 89.3336
1.574521 79.503 87.8511
1.585931 79.086 86.2605
1.597423 78.660 84.5446
1.608999 78.228 82.6827
1.620658 77.793 80.6504
1.632402 77.355 78.4184
1.644232 76.918 75.9517
1.656146 76.485 73.2087
1.668147 76.056 70.1405
1.680235 75.637 66.6899
1.692411 75.229 62.7927
1.704675 74.835 58.3794
1.717028 74.460 53.3815
1.729470 74.107 47.7425
1.742003 73.778 41.4349
1.754626 73.480 34.4843
1.767341 73.215 26.9905
1.780147 72.989 19.1363
1.793047 72.805 11.1684
1.806040 72.668 3.3515
1.819128 72.583 -4.0881
1.832310 72.553 -11.0000
1.845587 72.579 -17.3173
1.858961 72.663 -23.0376
1.872432 72.804 -28.1963
1.886001 73.000 -32.8455
1.899667 73.248 -37.0412
1.913433 73.543 -40.8370
1.927299 73.883 -44.2812
1.941265 74.262 -47.4163
1.955332 74.676 -50.2789
1.969501 75.120 -52.9005
1.983773 75.588 -55.3077
1.998148 76.076 -57.5233
2.012627 76.578 -59.5664
2.027212 77.090 -61.4533
2.041902 77.605 -63.1978
2.056698 78.120 -64.8116
2.071602 78.628 -66.3048
2.086614 79.124 -67.6860
2.101734 79.604 -68.9627
2.116964 80.062 -70.1417
2.132304 80.495 -71.2297
2.147756 80.899 -72.2335
2.163320 81.272 -73.1607
2.178996 81.613 -74.0203
2.194786 81.923 -74.8232
2.210690 82.204 -75.5810
2.226710 82.460 -76.3048
2.242845 82.694 -77.0036
2.259098 82.908 -77.6836
2.275468 83.106 -78.3482
2.291957 83.287 -78.9989
2.308566 83.455 -79.6360
2.325295 83.609 -80.2586
2.342145 83.751 -80.8655
2.359117 83.883 -81.4549
2.376212 84.005 -82.0248
2.393431 84.119 -82.5730
2.410775 84.226 -83.0972
2.428244 84.327 -83.5947
2.445840 84.423 -84.0630
2.463564 84.516 -84.4995
2.481416 84.607 -84.9019
2.499397 84.696 -85.2681
2.517509 84.786 -85.5965
2.535752 84.875 -85.8868
2.554127 84.963 -86.1397
2.572635 85.049 -86.3572
2.591277 85.133 -86.5424
2.610055 85.212 -86.6984
2.628968 85.286 -86.8279
2.648019 85.355 -86.9326
2.667208 85.418 -87.0140
2.686535 85.476 -87.0727
2.706003 85.530 -87.1093
2.725612 85.580 -87.1239
2.745363 85.627 -87.1166
2.765257 85.672 -87.0871
2.785295 85.715 -87.0354
2.805478 85.758 -86.9613
2.825808 85.802 -86.8642
2.846285 85.847 -86.7440
2.866910 85.894 -86.5999
2.887685 85.943 -86.4311
2.908611 85.996 -86.2366
2.929688 86.051 -86.0150
2.950917 86.108 -85.7651
2.972301 86.167 -85.4859
2.993839 86.228 -85.1779
3.015534 86.289 -84.8422
3.037386 86.351 -84.4810
3.059396 86.414 -84.0973
3.081565 86.479 -83.6945
3.103896 86.545 -83.2765
3.126388 86.613 -82.8471
3.149043 86.684 -82.4105
3.171862 86.757 -81.9708
3.194847 86.833 -81.5316
3.217998 86.912 -81.0963
3.241317 86.996 -80.6672
3.264805 87.084 -80.2452
3.288463 87.177 -79.8301
3.312293 87.274 -79.4202
3.336295 87.376 -79.0137
3.360471 87.483 -78.6096
3.384822 87.595 -78.2086
3.409350 87.711 -77.8127
3.434056 87.830 -77.4251
3.458940 87.953 -77.0497
3.484005 88.078 -76.6906
3.509252 88.205 -76.3521
3.534681 88.333 -76.0382
3.560295 88.462 -75.7527
3.586094 88.591 -75.4987
3.612081 88.720 -75.2784
3.638255 88.849 -75.0927
3.664620 88.978 -74.9417
3.691175 89.107 -74.8237
3.717923 89.237 -74.7369
3.744864 89.367 -74.6791
3.772001 89.497 -74.6485
3.799335 89.628 -74.6436
3.826866 89.758 -74.6630
3.854597 89.887 -74.7058
3.882529 90.015 -74.7712
3.910664 90.141 -74.8587
3.939002 90.265 -74.9679
3.967546 90.386 -75.0988
3.996296 90.503 -75.2517
4.025255 90.618 -75.4270
4.054423 90.729 -75.6252
4.083804 90.836 -75.8463
4.113396 90.940 -76.0893
4.143204 91.041 -76.3527
4.173227 91.139 -76.6341
4.203468 91.234 -76.9308
4.233928 91.325 -77.2401
4.264609 91.413 -77.5592
4.295512 91.498 -77.8858
4.326639 91.579 -78.2185
4.357992 91.657 -78.5563
4.389572 91.730 -78.8997
4.421380 91.800 -79.2494
4.453419 91.865 -79.6066
4.485691 91.926 -79.9713
4.518196 91.984 -80.3427
4.550936 92.037 -80.7188
4.583914 92.087 -81.0971
4.617131 92.134 -81.4744
4.650589 92.178 -81.8478
4.684289 92.219 -82.2145
4.718233 92.257 -82.5725
4.752424 92.292 -82.9209
4.786862 92.325 -83.2597
4.821549 92.355 -83.5895
4.856488 92.381 -83.9110
4.891680 92.405 -84.2245
4.927127 92.427 -84.5297
4.962831 92.447 -84.8259
4.998794 92.465 -85.1121
5.035017 92.482 -85.3869
5.071503 92.499 -85.6491
5.108253 92.516 -85.8976
5.145270 92.532 -86.1316
5.182555 92.548 -86.3511
5.220110 92.563 -86.5567
5.257937 92.579 -86.7497
5.296038 92.594 -86.9318
5.334415 92.610 -87.1050
5.373071 92.628 -87.2712
5.412006 92.646 -87.4320
5.451224 92.666 -87.5883
5.490725 92.689 -87.7408
5.530514 92.713 -87.8895
5.570590 92.740 -88.0348
5.610957 92.768 -88.1779
5.651616 92.799 -88.3209
5.692570 92.831 -88.4667
5.733821 92.866 -88.6184
5.775370 92.903 -88.7790
5.817221 92.941 -88.9509
5.859375 92.982 -89.1357
5.901834 93.024 -89.3341
5.944602 93.069 -89.5463
5.987679 93.115 -89.7729
6.031068 93.163 -90.0147
6.074771 93.213 -90.2730
6.118792 93.262 -90.5493
6.163131 93.313 -90.8451
6.207792 93.364 -91.1615
6.252776 93.414 -91.4993
6.298086 93.465 -91.8584
6.343725 93.516 -92.2380
6.389694 93.566 -92.6370
6.435996 93.616 -93.0539
6.482634 93.665 -93.4876
6.529610 93.713 -93.9369
6.576926 93.759 -94.4012
6.624585 93.803 -94.8802
6.672590 93.846 -95.3734
6.720942 93.888 -95.8796
6.769645 93.928 -96.3967
6.818700 93.966 -96.9223
6.868111 94.002 -97.4540
6.917881 94.037 -97.9896
6.968010 94.070 -98.5279
7.018504 94.102 -99.0678
7.069362 94.132 -99.6088
7.120590 94.161 -100.1495
7.172189 94.188 -100.6884
7.224161 94.215 -101.2234
7.276511 94.241 -101.7529
7.329239 94.267 -102.2754
7.382350 94.293 -102.7902
7.435845 94.318 -103.2970
7.489729 94.344 -103.7960
7.544002 94.370 -104.2871
7.598669 94.398 -104.7703
7.653732 94.426 -105.2455
7.709194 94.456 -105.7127
7.765058 94.487 -106.1719
7.821327 94.520 -106.6240
7.878004 94.554 -107.0700
7.935091 94.591 -107.5114
7.992592 94.630 -107.9495
8.050510 94.670 -108.3854
8.108847 94.713 -108.8200
8.167607 94.758 -109.2540
8.226793 94.806 -109.6883
8.286408 94.854 -110.1242
8.346454 94.905 -110.5628
8.406936 94.957 -111.0051
8.467856 95.011 -111.4519
8.529218 95.066 -111.9032
8.591024 95.122 -112.3591
8.653278 95.179 -112.8193
8.715983 95.236 -113.2838
8.779143 95.293 -113.7522
8.842760 95.351 -114.2242
8.906839 95.408 -114.6991
8.971381 95.465 -115.1759
9.036392 95.522 -115.6533
9.101873 95.578 -116.1299
9.167829 95.633 -116.6047
9.234263 95.687 -117.0766
9.301178 95.741 -117.5446
9.368578 95.794 -118.0075
9.436467 95.846 -118.4640
9.504847 95.897 -118.9128
9.573723 95.947 -119.3532
9.643099 95.996 -119.7844
9.712976 96.044 -120.2061
9.783361 96.089 -120.6179
9.854255 96.133 -121.0195
9.925663 96.174 -121.4107
9.997588 96.212 -121.7916
10.070035 96.248 -122.1626
10.143007 96.283 -122.5244
10.216507 96.315 -122.8773
10.290540 96.347 -123.2222
10.365109 96.377 -123.5595
10.440219 96.406 -123.8901
10.515873 96.435 -124.2148
10.592076 96.463 -124.5343
10.668830 96.491 -124.8495
10.746141 96.519 -125.1607
10.824012 96.546 -125.4685
10.902447 96.572 -125.7733
10.981451 96.598 -126.0756
11.061027 96.623 -126.3755
11.141180 96.647 -126.6732
11.221913 96.671 -126.9688
11.303232 96.693 -127.2622
11.385140 96.714 -127.5534
11.467641 96.734 -127.8425
11.550741 96.753 -128.1293
11.634442 96.771 -128.4139
11.718750 96.789 -128.6962
11.803669 96.805 -128.9763
11.889203 96.821 -129.2545
11.975357 96.836 -129.5308
12.062136 96.850 -129.8055
12.149543 96.864 -130.0789
12.237583 96.876 -130.3513
12.326262 96.888 -130.6231
12.415583 96.899 -130.8946
12.505552 96.908 -131.1662
12.596172 96.917 -131.4383
12.687449 96.925 -131.7110
12.779387 96.931 -131.9846
12.871992 96.936 -132.2593
12.965268 96.941 -132.5354
13.059220 96.944 -132.8129
13.153852 96.947 -133.0921
13.249170 96.949 -133.3729
13.345179 96.950 -133.6557
13.441884 96.951 -133.9405
13.539289 96.951 -134.2277
13.637401 96.952 -134.5176
13.736223 96.951 -134.8106
13.835761 96.951 -135.1071
13.936021 96.950 -135.4078
14.037007 96.949 -135.7130
14.138725 96.948 -136.0234
14.241180 96.947 -136.3395
14.344377 96.945 -136.6618
14.448323 96.943 -136.9905
14.553021 96.941 -137.3259
14.658478 96.938 -137.6680
14.764700 96.936 -138.0167
14.871691 96.933 -138.3716
14.979457 96.930 -138.7323
15.088005 96.928 -139.0981
15.197339 96.925 -139.4682
15.307465 96.922 -139.8419
15.418389 96.919 -140.2184
15.530117 96.917 -140.5968
15.642655 96.914 -140.9765
15.756008 96.912 -141.3570
15.870182 96.911 -141.7379
15.985184 96.910 -142.1189
16.101019 96.910 -142.5000
16.217694 96.911 -142.8813
16.335214 96.913 -143.2628
16.453586 96.916 -143.6450
16.572815 96.921 -144.0278
16.692909 96.926 -144.4116
16.813872 96.933 -144.7961
16.935713 96.941 -145.1813
17.058436 96.950 -145.5667
17.182048 96.960 -145.9520
17.306556 96.970 -146.3362
17.431967 96.981 -146.7186
17.558286 96.991 -147.0983
17.685521 97.003 -147.4743
17.813677 97.014 -147.8456
17.942762 97.025 -148.2114
18.072783 97.036 -148.5709
18.203746 97.047 -148.9237
18.335658 97.058 -149.2691
18.468526 97.069 -149.6072
18.602356 97.080 -149.9377
18.737156 97.091 -150.2607
18.872934 97.103 -150.5764
19.009695 97.114 -150.8851
19.147447 97.125 -151.1872
19.286197 97.137 -151.4829
19.425953 97.147 -151.7728
19.566721 97.158 -152.0572
19.708510 97.167 -152.3366
19.851326 97.176 -152.6114
19.995177 97.184 -152.8820
20.140070 97.192 -153.1488
20.286013 97.198 -153.4121
20.433014 97.202 -153.6720
20.581080 97.206 -153.9288
20.730219 97.209 -154.1824
20.880439 97.210 -154.4326
21.031747 97.210 -154.6796
21.184152 97.209 -154.9230
21.337661 97.208 -155.1629
21.492282 97.205 -155.3993
21.648024 97.202 -155.6327
21.804895 97.199 -155.8635
21.962902 97.196 -156.0928
22.122054 97.192 -156.3216
22.282360 97.189 -156.5513
22.443827 97.186 -156.7834
22.606464 97.183 -157.0196
22.770280 97.180 -157.2614
22.935283 97.178 -157.5099
23.101481 97.177 -157.7663
23.268884 97.175 -158.0314
23.437500 97.174 -158.3054
23.607338 97.173 -158.5886
23.778406 97.172 -158.8807
23.950714 97.171 -159.1814
24.124271 97.170 -159.4903
24.299086 97.169 -159.8066
24.475167 97.169 -160.1296
24.652524 97.168 -160.4584
24.831166 97.167 -160.7921
25.011103 97.166 -161.1295
25.192344 97.166 -161.4692
25.374898 97.165 -161.8100
25.558775 97.165 -162.1503
25.743984 97.164 -162.4889
25.930536 97.163 -162.8242
26.118439 97.163 -163.1553
26.307704 97.162 -163.4811
26.498341 97.162 -163.8011
26.690359 97.162 -164.1147
26.883768 97.162 -164.4217
27.078579 97.163 -164.7222
27.274801 97.163 -165.0162
27.472446 97.163 -165.3038
27.671522 97.164 -165.5855
27.872042 97.164 -165.8614
28.074014 97.163 -166.1320
28.277450 97.162 -166.3977
28.482360 97.161 -166.6590
28.688755 97.159 -166.9163
28.896645 97.156 -167.1701
29.106042 97.153 -167.4208
29.316957 97.149 -167.6690
29.529400 97.144 -167.9152
29.743382 97.138 -168.1600
29.958915 97.131 -168.4039
30.176009 97.124 -168.6478
30.394677 97.117 -168.8922
30.614929 97.108 -169.1378
30.836778 97.100 -169.3852
31.060234 97.090 -169.6349
31.285309 97.081 -169.8871
31.512015 97.071 -170.1419
31.740364 97.060 -170.3995
31.970368 97.049 -170.6600
32.202039 97.039 -170.9235
32.435388 97.028 -171.1902
32.670428 97.018 -171.4603
32.907171 97.008 -171.7338
33.145630 96.998 -172.0106
33.385817 96.988 -172.2902
33.627745 96.979 -172.5717
33.871425 96.970 -172.8540
34.116871 96.961 -173.1359
34.364096 96.952 -173.4159
34.613113 96.943 -173.6930
34.863934 96.934 -173.9663
35.116572 96.926 -174.2354
35.371041 96.919 -174.5000
35.627354 96.911 -174.7606
35.885525 96.904 -175.0173
36.145566 96.897 -175.2706
36.407492 96.890 -175.5208
36.671316 96.883 -175.7681
36.937051 96.876 -176.0128
37.204712 96.869 -176.2551
37.474313 96.861 -176.4952
37.745867 96.853 -176.7337
38.019389 96.845 -176.9712
38.294893 96.836 -177.2084
38.572394 96.826 -177.4459
38.851905 96.816 -177.6840
39.133442 96.805 -177.9225
39.417019 96.794 -178.1612
39.702651 96.781 -178.3994
39.990353 96.769 -178.6370
40.280140 96.755 -178.8738
40.572026 96.742 -179.1104
40.866028 96.729 -179.3476
41.162160 96.716 -179.5863
41.460438 96.703 -179.8271
41.760877 96.689 179.9297
42.063494 96.676 179.6845
42.368303 96.663 179.4383
42.675322 96.649 179.1920
42.984565 96.635 178.9464
43.296048 96.620 178.7020
43.609789 96.606 178.4587
43.925804 96.592 178.2161
44.244108 96.577 177.9738
44.564719 96.563 177.7317
44.887654 96.548 177.4902
45.212928 96.532 177.2499
45.540560 96.516 177.0119
45.870565 96.499 176.7769
46.202962 96.482 176.5452
46.537768 96.466 176.3163
46.875000 96.449 176.0896
47.214676 96.432 175.8639
47.556813 96.416 175.6384
47.901429 96.400 175.4125
48.248542 96.383 175.1859
48.598171 96.367 174.9589
48.950334 96.351 174.7319
49.305048 96.334 174.5055
49.662333 96.317 174.2808
50.022206 96.300 174.0586
50.384688 96.282 173.8396
50.749796 96.265 173.6241
51.117550 96.247 173.4117
51.487969 96.230 173.2021
51.861072 96.212 172.9946
52.236879 96.195 172.7888
52.615409 96.177 172.5847
52.996681 96.159 172.3826
53.380717 96.141 172.1826
53.767536 96.123 171.9844
54.157158 96.105 171.7874
54.549603 96.088 171.5906
54.944892 96.070 171.3931
55.343045 96.053 171.1940
55.744084 96.037 170.9924
56.148028 96.020 170.7876
56.554900 96.004 170.5792
56.964720 95.987 170.3668
57.377510 95.971 170.1504
57.793291 95.954 169.9305
58.212085 95.937 169.7082
58.633914 95.919 169.4853
59.058799 95.900 169.2632
59.486764 95.880 169.0435
59.917829 95.860 168.8268
60.352019 95.839 168.6130
60.789354 95.817 168.4018
61.229859 95.795 168.1929
61.673556 95.772 167.9864
62.120468 95.749 167.7825
62.570618 95.724 167.5814
63.024031 95.700 167.3828
63.480729 95.675 167.1859
63.940736 95.651 166.9900
64.404077 95.626 166.7949
64.870776 95.601 166.6003
65.340856 95.577 166.4067
65.814343 95.552 166.2139
66.291261 95.528 166.0219
66.771635 95.503 165.8305
67.255489 95.479 165.6398
67.742850 95.454 165.4502
68.233743 95.430 165.2619
68.728193 95.405 165.0751
69.226226 95.380 164.8900
69.727867 95.354 164.7065
70.233144 95.329 164.5247
70.742083 95.302 164.3443
71.254709 95.276 164.1650
71.771050 95.250 163.9863
72.291132 95.223 163.8079
72.814984 95.195 163.6297
73.342631 95.168 163.4517
73.874102 95.140 163.2742
74.409424 95.111 163.0972
74.948626 95.083 162.9212
75.491734 95.054 162.7462
76.038779 95.025 162.5723
76.589787 94.996 162.3989
77.144788 94.967 162.2252
77.703811 94.938 162.0501
78.266885 94.910 161.8723
78.834039 94.881 161.6904
79.405303 94.853 161.5032
79.980706 94.823 161.3107
80.560280 94.792 161.1151
81.144053 94.760 160.9203
81.732056 94.726 160.7300
82.324320 94.691 160.5460
82.920876 94.655 160.3681
83.521755 94.618 160.1960
84.126988 94.579 160.0299
84.736607 94.540 159.8713
85.350643 94.499 159.7220
85.969129 94.457 159.5835
86.592097 94.414 159.4565
87.219579 94.371 159.3414
