* Measurement data measured by REW V5.31
* Source: EXCL: Microphone (USB Sound Device        ), MICROPHONE (Master Volume), R, volume: 0.390
* Format: 256k Log Swept Sine, 1 sweep at -15.0 dBFS with no timing reference
* Dated: Dec 24, 2024 1:11:04 AM
* REW Settings:
*  C-weighting compensation: Off
*  Target level: 75.0 dB
* Note: L BLON BL03 II Grey
* Measurement: L BLON BL03 II Grey
* Smoothing: 1/12 octave
* Frequency Step: 96 ppo
* Start Frequency: 0.36621094 Hz
*
* Freq(Hz) SPL(dB) Phase(degrees)
0.366211 95.034 160.0506
0.368865 95.029 160.0296
0.371538 95.020 159.9982
0.374230 95.009 159.9587
0.376942 94.998 159.9133
0.379673 94.985 159.8633
0.382424 94.971 159.8098
0.385196 94.958 159.7534
0.387987 94.944 159.6945
0.390798 94.929 159.6331
0.393630 94.915 159.5695
0.396483 94.901 159.5036
0.399356 94.886 159.4354
0.402250 94.871 159.3650
0.405165 94.857 159.2923
0.408101 94.842 159.2173
0.411058 94.827 159.1400
0.414037 94.812 159.0604
0.417037 94.796 158.9784
0.420059 94.781 158.8940
0.423103 94.766 158.8072
0.426169 94.750 158.7180
0.429257 94.734 158.6263
0.432368 94.719 158.5322
0.435501 94.703 158.4356
0.438656 94.687 158.3364
0.441835 94.671 158.2348
0.445037 94.654 158.1306
0.448262 94.638 158.0238
0.451510 94.622 157.9145
0.454782 94.605 157.8025
0.458077 94.588 157.6880
0.461397 94.571 157.5708
0.464740 94.554 157.4509
0.468108 94.537 157.3284
0.471500 94.520 157.2031
0.474917 94.503 157.0752
0.478358 94.485 156.9446
0.481825 94.468 156.8113
0.485316 94.450 156.6752
0.488833 94.432 156.5364
0.492375 94.414 156.3948
0.495943 94.396 156.2504
0.499537 94.378 156.1033
0.503157 94.360 155.9535
0.506803 94.341 155.8008
0.510475 94.322 155.6454
0.514175 94.304 155.4872
0.517900 94.285 155.3262
0.521653 94.266 155.1624
0.525434 94.247 154.9959
0.529241 94.227 154.8266
0.533076 94.208 154.6545
0.536939 94.188 154.4797
0.540830 94.169 154.3021
0.544749 94.149 154.1218
0.548696 94.129 153.9388
0.552673 94.108 153.7532
0.556677 94.088 153.5648
0.560711 94.068 153.3739
0.564774 94.047 153.1803
0.568867 94.026 152.9841
0.572989 94.005 152.7854
0.577141 93.984 152.5842
0.581324 93.963 152.3805
0.585536 93.942 152.1744
0.589779 93.920 151.9659
0.594053 93.899 151.7551
0.598358 93.877 151.5421
0.602694 93.855 151.3268
0.607061 93.833 151.1094
0.611460 93.810 150.8899
0.615891 93.788 150.6684
0.620354 93.765 150.4450
0.624849 93.742 150.2198
0.629377 93.719 149.9929
0.633938 93.696 149.7643
0.638532 93.673 149.5342
0.643159 93.650 149.3026
0.647819 93.626 149.0698
0.652514 93.602 148.8357
0.657242 93.578 148.6006
0.662005 93.554 148.3646
0.666802 93.530 148.1279
0.671634 93.505 147.8905
0.676501 93.481 147.6526
0.681403 93.456 147.4145
0.686341 93.431 147.1762
0.691314 93.405 146.9380
0.696324 93.380 146.7001
0.701370 93.354 146.4625
0.706452 93.328 146.2255
0.711571 93.301 145.9891
0.716728 93.274 145.7532
0.721921 93.245 145.5177
0.727153 93.215 145.2822
0.732422 93.183 145.0459
0.737729 93.149 144.8080
0.743075 93.113 144.5675
0.748460 93.075 144.3237
0.753883 93.036 144.0758
0.759346 92.996 143.8235
0.764849 92.955 143.5665
0.770391 92.914 143.3044
0.775974 92.872 143.0373
0.781597 92.829 142.7650
0.787261 92.786 142.4873
0.792966 92.742 142.2043
0.798712 92.698 141.9159
0.804500 92.653 141.6221
0.810329 92.608 141.3227
0.816201 92.562 141.0178
0.822116 92.515 140.7073
0.828073 92.468 140.3911
0.834074 92.420 140.0693
0.840118 92.371 139.7419
0.846206 92.322 139.4087
0.852338 92.271 139.0698
0.858514 92.220 138.7252
0.864735 92.168 138.3749
0.871001 92.115 138.0189
0.877313 92.061 137.6572
0.883670 92.006 137.2898
0.890074 91.950 136.9168
0.896524 91.893 136.5383
0.903020 91.835 136.1542
0.909564 91.776 135.7647
0.916155 91.715 135.3698
0.922794 91.654 134.9697
0.929481 91.591 134.5644
0.936216 91.526 134.1541
0.943000 91.461 133.7390
0.949834 91.393 133.3193
0.956717 91.325 132.8950
0.963649 91.255 132.4665
0.970632 91.183 132.0340
0.977666 91.109 131.5978
0.984750 91.034 131.1581
0.991886 90.957 130.7153
0.999074 90.878 130.2698
1.006314 90.798 129.8219
1.013606 90.715 129.3721
1.020951 90.630 128.9209
1.028349 90.543 128.4688
1.035801 90.454 128.0162
1.043307 90.363 127.5639
1.050867 90.269 127.1123
1.058482 90.173 126.6622
1.066152 90.074 126.2142
1.073878 89.973 125.7688
1.081660 89.870 125.3264
1.089498 89.764 124.8873
1.097393 89.655 124.4515
1.105345 89.545 124.0185
1.113355 89.432 123.5878
1.121423 89.317 123.1588
1.129549 89.200 122.7308
1.137734 89.082 122.3033
1.145979 88.961 121.8758
1.154283 88.839 121.4479
1.162647 88.714 121.0192
1.171072 88.588 120.5893
1.179558 88.459 120.1577
1.188106 88.328 119.7241
1.196715 88.194 119.2881
1.205387 88.058 118.8491
1.214122 87.919 118.4067
1.222920 87.777 117.9605
1.231782 87.633 117.5098
1.240708 87.486 117.0540
1.249699 87.335 116.5927
1.258754 87.181 116.1252
1.267876 87.024 115.6507
1.277063 86.863 115.1685
1.286318 86.699 114.6780
1.295639 86.531 114.1781
1.305027 86.358 113.6682
1.314484 86.182 113.1472
1.324009 86.001 112.6141
1.333604 85.816 112.0679
1.343268 85.626 111.5076
1.353002 85.431 110.9318
1.362806 85.231 110.3393
1.372681 85.026 109.7289
1.382628 84.816 109.0991
1.392647 84.600 108.4485
1.402739 84.377 107.7757
1.412904 84.149 107.0792
1.423142 83.914 106.3577
1.433455 83.671 105.6097
1.443843 83.419 104.8342
1.454305 83.158 104.0302
1.464844 82.884 103.1968
1.475459 82.595 102.3332
1.486150 82.290 101.4379
1.496920 81.966 100.5088
1.507767 81.623 99.5429
1.518693 81.259 98.5361
1.529698 80.877 97.4834
1.540783 80.476 96.3785
1.551948 80.057 95.2144
1.563194 79.623 93.9824
1.574521 79.175 92.6722
1.585931 78.715 91.2720
1.597423 78.245 89.7675
1.608999 77.767 88.1415
1.620658 77.283 86.3737
1.632402 76.797 84.4393
1.644232 76.310 82.3088
1.656146 75.825 79.9462
1.668147 75.346 77.3081
1.680235 74.875 74.3424
1.692411 74.416 70.9873
1.704675 73.973 67.1704
1.717028 73.549 62.8110
1.729470 73.148 57.8241
1.742003 72.775 52.1320
1.754626 72.435 45.6839
1.767341 72.131 38.4845
1.780147 71.870 30.6256
1.793047 71.657 22.3042
1.806040 71.496 13.8053
1.819128 71.393 5.4450
1.832310 71.350 -2.5032
1.845587 71.371 -9.8581
1.858961 71.456 -16.5383
1.872432 71.604 -22.5384
1.886001 71.813 -27.8984
1.899667 72.079 -32.6793
1.913433 72.398 -36.9482
1.927299 72.765 -40.7698
1.941265 73.175 -44.2025
1.955332 73.623 -47.2975
1.969501 74.104 -50.0985
1.983773 74.611 -52.6425
1.998148 75.140 -54.9607
2.012627 75.684 -57.0792
2.027212 76.237 -59.0199
2.041902 76.795 -60.8012
2.056698 77.352 -62.4383
2.071602 77.901 -63.9444
2.086614 78.437 -65.3304
2.101734 78.955 -66.6058
2.116964 79.450 -67.7792
2.132304 79.918 -68.8584
2.147756 80.354 -69.8513
2.163320 80.757 -70.7663
2.178996 81.125 -71.6129
2.194786 81.461 -72.4023
2.210690 81.765 -73.1460
2.226710 82.043 -73.8551
2.242845 82.297 -74.5386
2.259098 82.530 -75.2024
2.275468 82.746 -75.8500
2.291957 82.944 -76.4830
2.308566 83.128 -77.1016
2.325295 83.298 -77.7054
2.342145 83.455 -78.2930
2.359117 83.602 -78.8632
2.376212 83.738 -79.4140
2.393431 83.865 -79.9435
2.410775 83.985 -80.4497
2.428244 84.099 -80.9304
2.445840 84.208 -81.3832
2.463564 84.314 -81.8061
2.481416 84.418 -82.1970
2.499397 84.520 -82.5542
2.517509 84.623 -82.8764
2.535752 84.726 -83.1636
2.554127 84.828 -83.4165
2.572635 84.930 -83.6374
2.591277 85.028 -83.8291
2.610055 85.122 -83.9947
2.628968 85.211 -84.1368
2.648019 85.295 -84.2571
2.667208 85.373 -84.3570
2.686535 85.447 -84.4373
2.706003 85.516 -84.4985
2.725612 85.581 -84.5407
2.745363 85.642 -84.5641
2.765257 85.702 -84.5686
2.785295 85.759 -84.5541
2.805478 85.816 -84.5205
2.825808 85.873 -84.4674
2.846285 85.931 -84.3945
2.866910 85.991 -84.3013
2.887685 86.052 -84.1871
2.908611 86.116 -84.0511
2.929688 86.182 -83.8922
2.950917 86.249 -83.7093
2.972301 86.318 -83.5019
2.993839 86.387 -83.2703
3.015534 86.456 -83.0155
3.037386 86.526 -82.7396
3.059396 86.597 -82.4449
3.081565 86.668 -82.1342
3.103896 86.739 -81.8107
3.126388 86.813 -81.4775
3.149043 86.887 -81.1379
3.171862 86.964 -80.7953
3.194847 87.043 -80.4524
3.217998 87.125 -80.1119
3.241317 87.210 -79.7754
3.264805 87.299 -79.4437
3.288463 87.391 -79.1163
3.312293 87.487 -78.7917
3.336295 87.586 -78.4682
3.360471 87.690 -78.1450
3.384822 87.796 -77.8225
3.409350 87.906 -77.5027
3.434056 88.019 -77.1881
3.458940 88.134 -76.8823
3.484005 88.251 -76.5888
3.509252 88.370 -76.3116
3.534681 88.489 -76.0541
3.560295 88.609 -75.8197
3.586094 88.730 -75.6113
3.612081 88.851 -75.4309
3.638255 88.971 -75.2794
3.664620 89.092 -75.1568
3.691175 89.213 -75.0618
3.717923 89.335 -74.9928
3.744864 89.457 -74.9480
3.772001 89.579 -74.9261
3.799335 89.702 -74.9258
3.826866 89.824 -74.9464
3.854597 89.946 -74.9872
3.882529 90.066 -75.0479
3.910664 90.185 -75.1283
3.939002 90.302 -75.2282
3.967546 90.416 -75.3478
3.996296 90.528 -75.4874
4.025255 90.637 -75.6475
4.054423 90.743 -75.8285
4.083804 90.846 -76.0301
4.113396 90.947 -76.2517
4.143204 91.045 -76.4918
4.173227 91.140 -76.7486
4.203468 91.232 -77.0196
4.233928 91.322 -77.3027
4.264609 91.408 -77.5956
4.295512 91.492 -77.8964
4.326639 91.572 -78.2039
4.357992 91.649 -78.5175
4.389572 91.722 -78.8374
4.421380 91.792 -79.1644
4.453419 91.858 -79.4994
4.485691 91.921 -79.8424
4.518196 91.980 -80.1926
4.550936 92.036 -80.5481
4.583914 92.088 -80.9068
4.617131 92.137 -81.2657
4.650589 92.184 -81.6225
4.684289 92.228 -81.9745
4.718233 92.270 -82.3202
4.752424 92.309 -82.6587
4.786862 92.345 -82.9901
4.821549 92.378 -83.3150
4.856488 92.409 -83.6340
4.891680 92.437 -83.9473
4.927127 92.463 -84.2545
4.962831 92.487 -84.5550
4.998794 92.510 -84.8475
5.035017 92.532 -85.1311
5.071503 92.552 -85.4044
5.108253 92.573 -85.6665
5.145270 92.593 -85.9167
5.182555 92.612 -86.1552
5.220110 92.631 -86.3823
5.257937 92.649 -86.5993
5.296038 92.668 -86.8075
5.334415 92.686 -87.0085
5.373071 92.706 -87.2037
5.412006 92.726 -87.3943
5.451224 92.747 -87.5811
5.490725 92.771 -87.7645
5.530514 92.795 -87.9444
5.570590 92.822 -88.1212
5.610957 92.850 -88.2960
5.651616 92.879 -88.4705
5.692570 92.910 -88.6471
5.733821 92.943 -88.8286
5.775370 92.977 -89.0173
5.817221 93.013 -89.2155
5.859375 93.051 -89.4242
5.901834 93.091 -89.6442
5.944602 93.132 -89.8757
5.987679 93.175 -90.1193
6.031068 93.219 -90.3757
6.074771 93.265 -90.6462
6.118792 93.311 -90.9324
6.163131 93.358 -91.2355
6.207792 93.405 -91.5569
6.252776 93.452 -91.8970
6.298086 93.499 -92.2558
6.343725 93.547 -92.6329
6.389694 93.594 -93.0274
6.435996 93.641 -93.4381
6.482634 93.687 -93.8641
6.529610 93.733 -94.3048
6.576926 93.777 -94.7598
6.624585 93.820 -95.2287
6.672590 93.862 -95.7111
6.720942 93.903 -96.2060
6.769645 93.942 -96.7117
6.818700 93.980 -97.2261
6.868111 94.016 -97.7472
6.917881 94.051 -98.2730
6.968010 94.085 -98.8026
7.018504 94.117 -99.3351
7.069362 94.148 -99.8698
7.120590 94.178 -100.4056
7.172189 94.207 -100.9409
7.224161 94.235 -101.4740
7.276511 94.263 -102.0033
7.329239 94.290 -102.5273
7.382350 94.317 -103.0455
7.435845 94.344 -103.5575
7.489729 94.371 -104.0633
7.544002 94.398 -104.5627
7.598669 94.426 -105.0555
7.653732 94.455 -105.5414
7.709194 94.486 -106.0201
7.765058 94.517 -106.4918
7.821327 94.550 -106.9570
7.878004 94.584 -107.4165
7.935091 94.620 -107.8715
7.992592 94.658 -108.3229
8.050510 94.698 -108.7716
8.108847 94.739 -109.2182
8.167607 94.783 -109.6634
8.226793 94.828 -110.1081
8.286408 94.875 -110.5531
8.346454 94.924 -110.9996
8.406936 94.974 -111.4486
8.467856 95.026 -111.9006
8.529218 95.079 -112.3558
8.591024 95.133 -112.8142
8.653278 95.188 -113.2759
8.715983 95.243 -113.7409
8.779143 95.299 -114.2090
8.842760 95.355 -114.6800
8.906839 95.411 -115.1533
8.971381 95.467 -115.6282
9.036392 95.522 -116.1036
9.101873 95.577 -116.5783
9.167829 95.632 -117.0515
9.234263 95.686 -117.5223
9.301178 95.739 -117.9898
9.368578 95.792 -118.4528
9.436467 95.843 -118.9101
9.504847 95.894 -119.3605
9.573723 95.944 -119.8033
9.643099 95.992 -120.2378
9.712976 96.039 -120.6635
9.783361 96.084 -121.0798
9.854255 96.127 -121.4862
9.925663 96.167 -121.8826
9.997588 96.205 -122.2688
10.070035 96.240 -122.6451
10.143007 96.273 -123.0119
10.216507 96.305 -123.3694
10.290540 96.335 -123.7183
10.365109 96.364 -124.0590
10.440219 96.392 -124.3921
10.515873 96.419 -124.7185
10.592076 96.446 -125.0389
10.668830 96.472 -125.3541
10.746141 96.498 -125.6646
10.824012 96.524 -125.9711
10.902447 96.549 -126.2742
10.981451 96.574 -126.5744
11.061027 96.598 -126.8722
11.141180 96.622 -127.1679
11.221913 96.644 -127.4616
11.303232 96.666 -127.7537
11.385140 96.687 -128.0442
11.467641 96.706 -128.3331
11.550741 96.725 -128.6205
11.634442 96.743 -128.9064
11.718750 96.759 -129.1907
11.803669 96.775 -129.4733
11.889203 96.790 -129.7542
11.975357 96.804 -130.0333
12.062136 96.817 -130.3106
12.149543 96.830 -130.5861
12.237583 96.841 -130.8598
12.326262 96.851 -131.1319
12.415583 96.860 -131.4023
12.505552 96.868 -131.6712
12.596172 96.875 -131.9389
12.687449 96.881 -132.2055
12.779387 96.886 -132.4713
12.871992 96.890 -132.7368
12.965268 96.893 -133.0024
13.059220 96.896 -133.2686
13.153852 96.898 -133.5359
13.249170 96.900 -133.8052
13.345179 96.902 -134.0771
13.441884 96.904 -134.3524
13.539289 96.906 -134.6321
13.637401 96.907 -134.9171
13.736223 96.909 -135.2082
13.835761 96.910 -135.5063
13.936021 96.912 -135.8122
14.037007 96.912 -136.1264
14.138725 96.913 -136.4494
14.241180 96.912 -136.7813
14.344377 96.911 -137.1222
14.448323 96.909 -137.4716
14.553021 96.906 -137.8290
14.658478 96.902 -138.1934
14.764700 96.897 -138.5637
14.871691 96.891 -138.9384
14.979457 96.884 -139.3162
15.088005 96.877 -139.6954
15.197339 96.869 -140.0744
15.307465 96.861 -140.4521
15.418389 96.853 -140.8271
15.530117 96.845 -141.1986
15.642655 96.838 -141.5663
15.756008 96.831 -141.9301
15.870182 96.826 -142.2905
15.985184 96.823 -142.6485
16.101019 96.821 -143.0052
16.217694 96.821 -143.3622
16.335214 96.823 -143.7212
16.453586 96.827 -144.0838
16.572815 96.833 -144.4518
16.692909 96.841 -144.8262
16.813872 96.851 -145.2079
16.935713 96.861 -145.5972
17.058436 96.873 -145.9938
17.182048 96.885 -146.3968
17.306556 96.897 -146.8047
17.431967 96.909 -147.2156
17.558286 96.920 -147.6272
17.685521 96.930 -148.0371
17.813677 96.939 -148.4426
17.942762 96.947 -148.8414
18.072783 96.954 -149.2312
18.203746 96.960 -149.6105
18.335658 96.966 -149.9778
18.468526 96.972 -150.3326
18.602356 96.978 -150.6746
18.737156 96.984 -151.0042
18.872934 96.990 -151.3221
19.009695 96.997 -151.6293
19.147447 97.004 -151.9269
19.286197 97.011 -152.2160
19.425953 97.018 -152.4974
19.566721 97.026 -152.7720
19.708510 97.033 -153.0402
19.851326 97.039 -153.3019
19.995177 97.045 -153.5571
20.140070 97.051 -153.8056
20.286013 97.055 -154.0470
20.433014 97.059 -154.2814
20.581080 97.063 -154.5091
20.730219 97.067 -154.7309
20.880439 97.071 -154.9480
21.031747 97.075 -155.1625
21.184152 97.081 -155.3768
21.337661 97.087 -155.5936
21.492282 97.093 -155.8158
21.648024 97.101 -156.0461
21.804895 97.108 -156.2867
21.962902 97.116 -156.5392
22.122054 97.122 -156.8041
22.282360 97.128 -157.0811
22.443827 97.132 -157.3688
22.606464 97.135 -157.6655
22.770280 97.137 -157.9690
22.935283 97.138 -158.2774
23.101481 97.138 -158.5896
23.268884 97.138 -158.9055
23.437500 97.138 -159.2266
23.607338 97.139 -159.5554
23.778406 97.141 -159.8959
23.950714 97.144 -160.2526
24.124271 97.146 -160.6293
24.299086 97.149 -161.0289
24.475167 97.149 -161.4518
24.652524 97.147 -161.8956
24.831166 97.140 -162.3542
25.011103 97.129 -162.8186
25.192344 97.111 -163.2769
25.374898 97.088 -163.7158
25.558775 97.060 -164.1221
25.743984 97.029 -164.4844
25.930536 96.996 -164.7949
26.118439 96.965 -165.0511
26.307704 96.938 -165.2565
26.498341 96.918 -165.4206
26.690359 96.905 -165.5576
26.883768 96.900 -165.6848
27.078579 96.903 -165.8193
27.274801 96.911 -165.9755
27.472446 96.924 -166.1628
27.671522 96.937 -166.3843
27.872042 96.948 -166.6367
28.074014 96.956 -166.9114
28.277450 96.959 -167.1962
28.482360 96.958 -167.4784
28.688755 96.952 -167.7465
28.896645 96.943 -167.9933
29.106042 96.934 -168.2162
29.316957 96.925 -168.4184
29.529400 96.918 -168.6069
29.743382 96.914 -168.7919
29.958915 96.913 -168.9835
30.176009 96.913 -169.1900
30.394677 96.914 -169.4162
30.614929 96.913 -169.6628
30.836778 96.911 -169.9267
31.060234 96.906 -170.2023
31.285309 96.899 -170.4829
31.512015 96.889 -170.7628
31.740364 96.878 -171.0381
31.970368 96.866 -171.3072
32.202039 96.854 -171.5712
32.435388 96.844 -171.8326
32.670428 96.834 -172.0947
32.907171 96.826 -172.3604
33.145630 96.818 -172.6319
33.385817 96.811 -172.9098
33.627745 96.804 -173.1936
33.871425 96.797 -173.4821
34.116871 96.790 -173.7731
34.364096 96.782 -174.0645
34.613113 96.773 -174.3537
34.863934 96.764 -174.6383
35.116572 96.754 -174.9158
35.371041 96.744 -175.1844
35.627354 96.734 -175.4428
35.885525 96.724 -175.6914
36.145566 96.715 -175.9317
36.407492 96.707 -176.1666
36.671316 96.699 -176.3994
36.937051 96.692 -176.6331
37.204712 96.685 -176.8699
37.474313 96.677 -177.1101
37.745867 96.668 -177.3526
38.019389 96.657 -177.5950
38.294893 96.646 -177.8353
38.572394 96.633 -178.0718
38.851905 96.620 -178.3043
39.133442 96.607 -178.5340
39.417019 96.594 -178.7630
39.702651 96.581 -178.9935
39.990353 96.568 -179.2275
40.280140 96.555 -179.4657
40.572026 96.542 -179.7082
40.866028 96.529 -179.9541
41.162160 96.515 179.7975
41.460438 96.501 179.5477
41.760877 96.487 179.2974
42.063494 96.473 179.0474
42.368303 96.458 178.7985
42.675322 96.444 178.5515
42.984565 96.429 178.3073
43.296048 96.414 178.0665
43.609789 96.400 177.8293
43.925804 96.385 177.5953
44.244108 96.371 177.3633
44.564719 96.357 177.1323
44.887654 96.343 176.9010
45.212928 96.328 176.6691
45.540560 96.313 176.4368
45.870565 96.298 176.2049
46.202962 96.281 175.9749
46.537768 96.264 175.7481
46.875000 96.246 175.5253
47.214676 96.229 175.3066
47.556813 96.211 175.0909
47.901429 96.194 174.8765
48.248542 96.177 174.6613
48.598171 96.161 174.4439
48.950334 96.145 174.2237
49.305048 96.128 174.0014
49.662333 96.111 173.7790
50.022206 96.093 173.5587
50.384688 96.075 173.3419
50.749796 96.057 173.1293
51.117550 96.040 172.9198
51.487969 96.023 172.7121
51.861072 96.006 172.5046
52.236879 95.989 172.2968
52.615409 95.972 172.0889
52.996681 95.955 171.8819
53.380717 95.938 171.6769
53.767536 95.920 171.4749
54.157158 95.903 171.2758
54.549603 95.886 171.0788
54.944892 95.870 170.8820
55.343045 95.854 170.6829
55.744084 95.839 170.4786
56.148028 95.824 170.2679
56.554900 95.809 170.0512
56.964720 95.793 169.8310
57.377510 95.776 169.6116
57.793291 95.757 169.3967
58.212085 95.739 169.1886
58.633914 95.721 168.9866
59.058799 95.703 168.7880
59.486764 95.686 168.5890
59.917829 95.669 168.3864
60.352019 95.651 168.1786
60.789354 95.632 167.9657
61.229859 95.612 167.7496
61.673556 95.590 167.5334
62.120468 95.565 167.3215
62.570618 95.540 167.1176
63.024031 95.513 166.9242
63.480729 95.488 166.7405
63.940736 95.463 166.5624
64.404077 95.440 166.3839
64.870776 95.418 166.1990
65.340856 95.397 166.0040
65.814343 95.377 165.7985
66.291261 95.355 165.5849
66.771635 95.333 165.3674
67.255489 95.309 165.1508
67.742850 95.284 164.9394
68.233743 95.258 164.7369
68.728193 95.231 164.5462
69.226226 95.205 164.3681
69.727867 95.179 164.2016
70.233144 95.155 164.0429
70.742083 95.131 163.8864
71.254709 95.109 163.7263
71.771050 95.088 163.5582
72.291132 95.066 163.3806
72.814984 95.043 163.1948
73.342631 95.019 163.0042
73.874102 94.994 162.8124
74.409424 94.967 162.6225
74.948626 94.940 162.4370
75.491734 94.912 162.2574
76.038779 94.884 162.0847
76.589787 94.856 161.9190
77.144788 94.829 161.7597
77.703811 94.803 161.6047
78.266885 94.778 161.4508
78.834039 94.755 161.2943
79.405303 94.733 161.1310
79.980706 94.711 160.9580
80.560280 94.690 160.7742
81.144053 94.667 160.5800
81.732056 94.643 160.3773
82.324320 94.618 160.1688
82.920876 94.591 159.9570
83.521755 94.561 159.7448
84.126988 94.530 159.5350
84.736607 94.497 159.3302
85.350643 94.463 159.1324
85.969129 94.428 158.9433
86.592097 94.392 158.7636
87.219579 94.355 158.5938
