* Measurement data measured by REW V5.31
* Source: EXCL: Microphone (USB Sound Device        ), MICROPHONE (Master Volume), R, volume: 0.390
* Format: 256k Log Swept Sine, 1 sweep at -15.0 dBFS with no timing reference
* Dated: Dec 24, 2024 1:08:42 AM
* REW Settings:
*  C-weighting compensation: Off
*  Target level: 75.0 dB
* Note: L BLON BL03 II White2
* Measurement: L BLON BL03 II White2
* Smoothing: 1/12 octave
* Frequency Step: 96 ppo
* Start Frequency: 0.36621094 Hz
*
* Freq(Hz) SPL(dB) Phase(degrees)
0.366211 95.182 159.6964
0.368865 95.177 159.6751
0.371538 95.168 159.6431
0.374230 95.157 159.6030
0.376942 95.145 159.5567
0.379673 95.132 159.5059
0.382424 95.119 159.4515
0.385196 95.105 159.3942
0.387987 95.091 159.3342
0.390798 95.076 159.2718
0.393630 95.062 159.2070
0.396483 95.047 159.1400
0.399356 95.033 159.0706
0.402250 95.018 158.9989
0.405165 95.003 158.9250
0.408101 94.988 158.8486
0.411058 94.973 158.7700
0.414037 94.958 158.6889
0.417037 94.942 158.6054
0.420059 94.927 158.5195
0.423103 94.911 158.4312
0.426169 94.895 158.3403
0.429257 94.880 158.2470
0.432368 94.864 158.1512
0.435501 94.848 158.0528
0.438656 94.832 157.9519
0.441835 94.815 157.8484
0.445037 94.799 157.7423
0.448262 94.782 157.6336
0.451510 94.766 157.5222
0.454782 94.749 157.4082
0.458077 94.732 157.2915
0.461397 94.715 157.1721
0.464740 94.698 157.0500
0.468108 94.681 156.9252
0.471500 94.663 156.7977
0.474917 94.646 156.6674
0.478358 94.628 156.5343
0.481825 94.611 156.3985
0.485316 94.593 156.2598
0.488833 94.575 156.1184
0.492375 94.557 155.9742
0.495943 94.538 155.8271
0.499537 94.520 155.6772
0.503157 94.501 155.5245
0.506803 94.483 155.3689
0.510475 94.464 155.2105
0.514175 94.445 155.0493
0.517900 94.426 154.8852
0.521653 94.407 154.7183
0.525434 94.387 154.5486
0.529241 94.368 154.3760
0.533076 94.348 154.2006
0.536939 94.329 154.0224
0.540830 94.309 153.8414
0.544749 94.289 153.6577
0.548696 94.268 153.4711
0.552673 94.248 153.2818
0.556677 94.228 153.0898
0.560711 94.207 152.8952
0.564774 94.186 152.6978
0.568867 94.165 152.4978
0.572989 94.144 152.2952
0.577141 94.123 152.0900
0.581324 94.101 151.8823
0.585536 94.080 151.6721
0.589779 94.058 151.4596
0.594053 94.036 151.2446
0.598358 94.014 151.0273
0.602694 93.992 150.8078
0.607061 93.970 150.5860
0.611460 93.947 150.3622
0.615891 93.924 150.1363
0.620354 93.902 149.9085
0.624849 93.879 149.6788
0.629377 93.855 149.4473
0.633938 93.832 149.2142
0.638532 93.809 148.9794
0.643159 93.785 148.7432
0.647819 93.761 148.5057
0.652514 93.737 148.2670
0.657242 93.713 148.0272
0.662005 93.688 147.7864
0.666802 93.664 147.5449
0.671634 93.639 147.3027
0.676501 93.614 147.0600
0.681403 93.589 146.8171
0.686341 93.564 146.5740
0.691314 93.538 146.3310
0.696324 93.513 146.0883
0.701370 93.487 145.8459
0.706452 93.460 145.6041
0.711571 93.433 145.3629
0.716728 93.405 145.1222
0.721921 93.377 144.8819
0.727153 93.346 144.6416
0.732422 93.314 144.4005
0.737729 93.280 144.1577
0.743075 93.243 143.9123
0.748460 93.205 143.6635
0.753883 93.166 143.4105
0.759346 93.125 143.1530
0.764849 93.084 142.8906
0.770391 93.042 142.6231
0.775974 93.000 142.3504
0.781597 92.957 142.0724
0.787261 92.913 141.7889
0.792966 92.869 141.4999
0.798712 92.825 141.2054
0.804500 92.779 140.9052
0.810329 92.734 140.5994
0.816201 92.687 140.2879
0.822116 92.640 139.9707
0.828073 92.592 139.6476
0.834074 92.544 139.3188
0.840118 92.495 138.9841
0.846206 92.444 138.6436
0.852338 92.394 138.2971
0.858514 92.342 137.9448
0.864735 92.289 137.5866
0.871001 92.236 137.2226
0.877313 92.181 136.8526
0.883670 92.126 136.4768
0.890074 92.069 136.0952
0.896524 92.012 135.7079
0.903020 91.953 135.3149
0.909564 91.893 134.9162
0.916155 91.832 134.5120
0.922794 91.770 134.1024
0.929481 91.706 133.6875
0.936216 91.641 133.2674
0.943000 91.575 132.8422
0.949834 91.507 132.4123
0.956717 91.438 131.9776
0.963649 91.367 131.5386
0.970632 91.294 131.0954
0.977666 91.220 130.6483
0.984750 91.144 130.1976
0.991886 91.066 129.7437
0.999074 90.987 129.2869
1.006314 90.905 128.8276
1.013606 90.822 128.3663
1.020951 90.736 127.9034
1.028349 90.648 127.4395
1.035801 90.558 126.9752
1.043307 90.466 126.5109
1.050867 90.371 126.0474
1.058482 90.274 125.5854
1.066152 90.174 125.1253
1.073878 90.072 124.6679
1.081660 89.968 124.2135
1.089498 89.860 123.7623
1.097393 89.750 123.3144
1.105345 89.638 122.8693
1.113355 89.524 122.4264
1.121423 89.407 121.9850
1.129549 89.288 121.5446
1.137734 89.166 121.1045
1.145979 89.043 120.6641
1.154283 88.917 120.2232
1.162647 88.789 119.7811
1.171072 88.658 119.3375
1.179558 88.525 118.8920
1.188106 88.390 118.4441
1.196715 88.252 117.9933
1.205387 88.111 117.5392
1.214122 87.967 117.0812
1.222920 87.821 116.6188
1.231782 87.672 116.1515
1.240708 87.519 115.6785
1.249699 87.364 115.1993
1.258754 87.205 114.7132
1.267876 87.043 114.2194
1.277063 86.878 113.7172
1.286318 86.709 113.2056
1.295639 86.537 112.6840
1.305027 86.361 112.1511
1.314484 86.181 111.6062
1.324009 85.997 111.0481
1.333604 85.809 110.4757
1.343268 85.617 109.8877
1.353002 85.420 109.2830
1.362806 85.219 108.6601
1.372681 85.014 108.0176
1.382628 84.803 107.3542
1.392647 84.588 106.6682
1.402739 84.368 105.9582
1.412904 84.142 105.2225
1.423142 83.911 104.4597
1.433455 83.673 103.6684
1.443843 83.427 102.8473
1.454305 83.173 101.9953
1.464844 82.908 101.1115
1.475459 82.630 100.1946
1.486150 82.336 99.2431
1.496920 82.026 98.2543
1.507767 81.698 97.2249
1.518693 81.353 96.1502
1.529698 80.989 95.0246
1.540783 80.609 93.8413
1.551948 80.213 92.5922
1.563194 79.803 91.2678
1.574521 79.381 89.8568
1.585931 78.948 88.3461
1.597423 78.506 86.7199
1.608999 78.057 84.9596
1.620658 77.604 83.0428
1.632402 77.148 80.9430
1.644232 76.693 78.6282
1.656146 76.240 76.0604
1.668147 75.793 73.1945
1.680235 75.354 69.9773
1.692411 74.927 66.3477
1.704675 74.515 62.2375
1.717028 74.121 57.5754
1.729470 73.750 52.2948
1.742003 73.404 46.3477
1.754626 73.090 39.7260
1.767341 72.810 32.4853
1.780147 72.570 24.7635
1.793047 72.374 16.7781
1.806040 72.227 8.7934
1.819128 72.134 1.0652
1.832310 72.097 -6.2101
1.845587 72.120 -12.9194
1.858961 72.202 -19.0245
1.872432 72.343 -24.5393
1.886001 72.541 -29.5051
1.899667 72.792 -33.9751
1.913433 73.094 -38.0043
1.927299 73.440 -41.6449
1.941265 73.827 -44.9438
1.955332 74.250 -47.9422
1.969501 74.704 -50.6757
1.983773 75.183 -53.1750
1.998148 75.682 -55.4660
2.012627 76.196 -57.5706
2.027212 76.720 -59.5075
2.041902 77.248 -61.2926
2.056698 77.775 -62.9391
2.071602 78.295 -64.4585
2.086614 78.803 -65.8605
2.101734 79.294 -67.1537
2.116964 79.764 -68.3457
2.132304 80.208 -69.4438
2.147756 80.622 -70.4553
2.163320 81.005 -71.3884
2.178996 81.355 -72.2523
2.194786 81.673 -73.0581
2.210690 81.963 -73.8173
2.226710 82.226 -74.5413
2.242845 82.468 -75.2390
2.259098 82.690 -75.9165
2.275468 82.895 -76.5774
2.291957 83.084 -77.2233
2.308566 83.259 -77.8545
2.325295 83.420 -78.4705
2.342145 83.570 -79.0700
2.359117 83.709 -79.6515
2.376212 83.838 -80.2132
2.393431 83.959 -80.7529
2.410775 84.073 -81.2686
2.428244 84.181 -81.7578
2.445840 84.285 -82.2183
2.463564 84.385 -82.6476
2.481416 84.484 -83.0436
2.499397 84.581 -83.4043
2.517509 84.677 -83.7285
2.535752 84.774 -84.0158
2.554127 84.870 -84.2671
2.572635 84.964 -84.4843
2.591277 85.056 -84.6704
2.610055 85.143 -84.8284
2.628968 85.225 -84.9610
2.648019 85.302 -85.0700
2.667208 85.374 -85.1568
2.686535 85.440 -85.2222
2.706003 85.503 -85.2667
2.725612 85.561 -85.2906
2.745363 85.616 -85.2940
2.765257 85.669 -85.2769
2.785295 85.721 -85.2393
2.805478 85.772 -85.1810
2.825808 85.823 -85.1018
2.846285 85.876 -85.0013
2.866910 85.931 -84.8792
2.887685 85.988 -84.7348
2.908611 86.047 -84.5669
2.929688 86.109 -84.3746
2.950917 86.173 -84.1564
2.972301 86.238 -83.9119
2.993839 86.305 -83.6413
3.015534 86.372 -83.3456
3.037386 86.440 -83.0270
3.059396 86.508 -82.6882
3.081565 86.578 -82.3324
3.103896 86.649 -81.9629
3.126388 86.722 -81.5835
3.149043 86.796 -81.1979
3.171862 86.873 -80.8097
3.194847 86.952 -80.4223
3.217998 87.035 -80.0384
3.241317 87.121 -79.6603
3.264805 87.211 -79.2886
3.288463 87.305 -78.9231
3.312293 87.403 -78.5621
3.336295 87.506 -78.2038
3.360471 87.612 -77.8474
3.384822 87.723 -77.4934
3.409350 87.837 -77.1435
3.434056 87.954 -76.8008
3.458940 88.074 -76.4687
3.484005 88.196 -76.1512
3.509252 88.320 -75.8520
3.534681 88.444 -75.5751
3.560295 88.570 -75.3239
3.586094 88.695 -75.1013
3.612081 88.821 -74.9094
3.638255 88.947 -74.7491
3.664620 89.072 -74.6204
3.691175 89.198 -74.5219
3.717923 89.324 -74.4519
3.744864 89.450 -74.4083
3.772001 89.577 -74.3896
3.799335 89.703 -74.3945
3.826866 89.830 -74.4217
3.854597 89.955 -74.4705
3.882529 90.079 -74.5403
3.910664 90.202 -74.6305
3.939002 90.322 -74.7410
3.967546 90.439 -74.8718
3.996296 90.554 -75.0232
4.025255 90.665 -75.1956
4.054423 90.774 -75.3895
4.083804 90.879 -75.6049
4.113396 90.981 -75.8408
4.143204 91.080 -76.0959
4.173227 91.177 -76.3680
4.203468 91.270 -76.6546
4.233928 91.360 -76.9531
4.264609 91.447 -77.2612
4.295512 91.531 -77.5767
4.326639 91.611 -77.8981
4.357992 91.688 -78.2249
4.389572 91.762 -78.5572
4.421380 91.831 -78.8958
4.453419 91.897 -79.2418
4.485691 91.959 -79.5952
4.518196 92.017 -79.9552
4.550936 92.071 -80.3199
4.583914 92.122 -80.6870
4.617131 92.170 -81.0535
4.650589 92.216 -81.4166
4.684289 92.258 -81.7739
4.718233 92.298 -82.1234
4.752424 92.335 -82.4643
4.786862 92.370 -82.7967
4.821549 92.402 -83.1210
4.856488 92.431 -83.4380
4.891680 92.457 -83.7479
4.927127 92.481 -84.0505
4.962831 92.504 -84.3451
4.998794 92.525 -84.6307
5.035017 92.545 -84.9060
5.071503 92.564 -85.1700
5.108253 92.583 -85.4215
5.145270 92.602 -85.6600
5.182555 92.620 -85.8853
5.220110 92.638 -86.0982
5.257937 92.656 -86.2997
5.296038 92.674 -86.4916
5.334415 92.693 -86.6756
5.373071 92.712 -86.8533
5.412006 92.732 -87.0263
5.451224 92.754 -87.1955
5.490725 92.778 -87.3614
5.530514 92.804 -87.5240
5.570590 92.832 -87.6837
5.610957 92.861 -87.8416
5.651616 92.892 -87.9997
5.692570 92.925 -88.1605
5.733821 92.960 -88.3270
5.775370 92.997 -88.5019
5.817221 93.035 -88.6875
5.859375 93.076 -88.8851
5.901834 93.118 -89.0954
5.944602 93.162 -89.3187
5.987679 93.208 -89.5554
6.031068 93.255 -89.8064
6.074771 93.303 -90.0728
6.118792 93.352 -90.3561
6.163131 93.402 -90.6577
6.207792 93.451 -90.9788
6.252776 93.501 -91.3200
6.298086 93.551 -91.6812
6.343725 93.601 -92.0617
6.389694 93.650 -92.4606
6.435996 93.699 -92.8765
6.482634 93.747 -93.3083
6.529610 93.794 -93.7551
6.576926 93.840 -94.2164
6.624585 93.884 -94.6919
6.672590 93.927 -95.1810
6.720942 93.969 -95.6826
6.769645 94.008 -96.1950
6.818700 94.047 -96.7158
6.868111 94.084 -97.2427
6.917881 94.119 -97.7739
6.968010 94.153 -98.3081
7.018504 94.185 -98.8444
7.069362 94.216 -99.3821
7.120590 94.245 -99.9202
7.172189 94.274 -100.4570
7.224161 94.302 -100.9908
7.276511 94.329 -101.5197
7.329239 94.356 -102.0425
7.382350 94.382 -102.5585
7.435845 94.409 -103.0676
7.489729 94.435 -103.5695
7.544002 94.463 -104.0644
7.598669 94.490 -104.5521
7.653732 94.519 -105.0325
7.709194 94.549 -105.5053
7.765058 94.581 -105.9708
7.821327 94.614 -106.4295
7.878004 94.649 -106.8825
7.935091 94.685 -107.3310
7.992592 94.724 -107.7761
8.050510 94.764 -108.2189
8.108847 94.806 -108.6600
8.167607 94.850 -109.1002
8.226793 94.897 -109.5402
8.286408 94.944 -109.9811
8.346454 94.994 -110.4240
8.406936 95.045 -110.8699
8.467856 95.097 -111.3194
8.529218 95.151 -111.7726
8.591024 95.206 -112.2295
8.653278 95.261 -112.6900
8.715983 95.317 -113.1539
8.779143 95.373 -113.6212
8.842760 95.429 -114.0914
8.906839 95.486 -114.5639
8.971381 95.542 -115.0379
9.036392 95.597 -115.5122
9.101873 95.653 -115.9857
9.167829 95.707 -116.4572
9.234263 95.761 -116.9260
9.301178 95.815 -117.3911
9.368578 95.867 -117.8513
9.436467 95.919 -118.3055
9.504847 95.970 -118.7526
9.573723 96.020 -119.1919
9.643099 96.069 -119.6227
9.712976 96.117 -120.0446
9.783361 96.162 -120.4573
9.854255 96.206 -120.8605
9.925663 96.247 -121.2540
9.997588 96.285 -121.6379
10.070035 96.321 -122.0125
10.143007 96.355 -122.3782
10.216507 96.388 -122.7357
10.290540 96.419 -123.0854
10.365109 96.449 -123.4278
10.440219 96.478 -123.7635
10.515873 96.506 -124.0934
10.592076 96.534 -124.4181
10.668830 96.561 -124.7382
10.746141 96.588 -125.0541
10.824012 96.614 -125.3663
10.902447 96.639 -125.6752
10.981451 96.664 -125.9811
11.061027 96.689 -126.2842
11.141180 96.712 -126.5847
11.221913 96.734 -126.8826
11.303232 96.756 -127.1779
11.385140 96.776 -127.4707
11.467641 96.796 -127.7609
11.550741 96.814 -128.0486
11.634442 96.832 -128.3338
11.718750 96.848 -128.6166
11.803669 96.864 -128.8971
11.889203 96.880 -129.1755
11.975357 96.894 -129.4521
12.062136 96.908 -129.7271
12.149543 96.921 -130.0009
12.237583 96.934 -130.2740
12.326262 96.946 -130.5466
12.415583 96.956 -130.8191
12.505552 96.966 -131.0921
12.596172 96.975 -131.3657
12.687449 96.982 -131.6403
12.779387 96.989 -131.9161
12.871992 96.994 -132.1934
12.965268 96.998 -132.4723
13.059220 97.002 -132.7529
13.153852 97.004 -133.0353
13.249170 97.006 -133.3195
13.345179 97.008 -133.6056
13.441884 97.008 -133.8938
13.539289 97.009 -134.1842
13.637401 97.009 -134.4771
13.736223 97.008 -134.7726
13.835761 97.007 -135.0712
13.936021 97.006 -135.3733
14.037007 97.005 -135.6794
14.138725 97.003 -135.9899
14.241180 97.001 -136.3053
14.344377 96.999 -136.6262
14.448323 96.997 -136.9528
14.553021 96.995 -137.2854
14.658478 96.992 -137.6244
14.764700 96.990 -137.9695
14.871691 96.988 -138.3208
14.979457 96.985 -138.6780
15.088005 96.983 -139.0406
15.197339 96.981 -139.4081
15.307465 96.979 -139.7801
15.418389 96.977 -140.1557
15.530117 96.976 -140.5345
15.642655 96.975 -140.9159
15.756008 96.974 -141.2994
15.870182 96.973 -141.6844
15.985184 96.973 -142.0708
16.101019 96.974 -142.4583
16.217694 96.976 -142.8466
16.335214 96.978 -143.2357
16.453586 96.981 -143.6255
16.572815 96.985 -144.0158
16.692909 96.990 -144.4064
16.813872 96.997 -144.7969
16.935713 97.004 -145.1870
17.058436 97.012 -145.5760
17.182048 97.021 -145.9634
17.306556 97.030 -146.3484
17.431967 97.040 -146.7301
17.558286 97.050 -147.1079
17.685521 97.060 -147.4809
17.813677 97.071 -147.8484
17.942762 97.082 -148.2101
18.072783 97.093 -148.5654
18.203746 97.104 -148.9140
18.335658 97.116 -149.2561
18.468526 97.127 -149.5914
18.602356 97.139 -149.9202
18.737156 97.151 -150.2426
18.872934 97.163 -150.5587
19.009695 97.175 -150.8689
19.147447 97.187 -151.1731
19.286197 97.199 -151.4717
19.425953 97.210 -151.7647
19.566721 97.221 -152.0522
19.708510 97.231 -152.3346
19.851326 97.241 -152.6120
19.995177 97.249 -152.8848
20.140070 97.257 -153.1534
20.286013 97.264 -153.4183
20.433014 97.270 -153.6801
20.581080 97.275 -153.9394
20.730219 97.279 -154.1968
20.880439 97.283 -154.4529
21.031747 97.285 -154.7083
21.184152 97.287 -154.9635
21.337661 97.288 -155.2189
21.492282 97.288 -155.4751
21.648024 97.288 -155.7323
21.804895 97.287 -155.9912
21.962902 97.285 -156.2522
22.122054 97.282 -156.5158
22.282360 97.279 -156.7825
22.443827 97.275 -157.0528
22.606464 97.270 -157.3272
22.770280 97.265 -157.6061
22.935283 97.260 -157.8897
23.101481 97.254 -158.1781
23.268884 97.248 -158.4712
23.437500 97.242 -158.7690
23.607338 97.236 -159.0710
23.778406 97.229 -159.3771
23.950714 97.223 -159.6870
24.124271 97.216 -160.0002
24.299086 97.210 -160.3164
24.475167 97.204 -160.6353
24.652524 97.198 -160.9565
24.831166 97.193 -161.2795
25.011103 97.189 -161.6037
25.192344 97.185 -161.9283
25.374898 97.181 -162.2526
25.558775 97.178 -162.5757
25.743984 97.176 -162.8968
25.930536 97.174 -163.2151
26.118439 97.172 -163.5299
26.307704 97.171 -163.8409
26.498341 97.171 -164.1477
26.690359 97.171 -164.4501
26.883768 97.171 -164.7482
27.078579 97.172 -165.0417
27.274801 97.172 -165.3306
27.472446 97.173 -165.6148
27.671522 97.173 -165.8941
27.872042 97.173 -166.1683
28.074014 97.172 -166.4371
28.277450 97.171 -166.7006
28.482360 97.169 -166.9587
28.688755 97.166 -167.2117
28.896645 97.163 -167.4601
29.106042 97.159 -167.7047
29.316957 97.155 -167.9461
29.529400 97.150 -168.1855
29.743382 97.145 -168.4238
29.958915 97.139 -168.6620
30.176009 97.132 -168.9010
30.394677 97.125 -169.1417
30.614929 97.118 -169.3846
30.836778 97.110 -169.6302
31.060234 97.101 -169.8788
31.285309 97.092 -170.1305
31.512015 97.083 -170.3855
31.740364 97.073 -170.6438
31.970368 97.063 -170.9053
32.202039 97.053 -171.1702
32.435388 97.043 -171.4383
32.670428 97.032 -171.7097
32.907171 97.022 -171.9841
33.145630 97.013 -172.2611
33.385817 97.003 -172.5402
33.627745 96.994 -172.8209
33.871425 96.984 -173.1024
34.116871 96.976 -173.3839
34.364096 96.967 -173.6647
34.613113 96.959 -173.9442
34.863934 96.951 -174.2216
35.116572 96.943 -174.4964
35.371041 96.935 -174.7681
35.627354 96.927 -175.0363
35.885525 96.919 -175.3008
36.145566 96.911 -175.5615
36.407492 96.903 -175.8185
36.671316 96.895 -176.0721
36.937051 96.887 -176.3224
37.204712 96.878 -176.5697
37.474313 96.869 -176.8143
37.745867 96.859 -177.0563
38.019389 96.849 -177.2961
38.294893 96.838 -177.5339
38.572394 96.827 -177.7702
38.851905 96.815 -178.0053
39.133442 96.803 -178.2396
39.417019 96.790 -178.4738
39.702651 96.777 -178.7082
39.990353 96.764 -178.9433
40.280140 96.751 -179.1796
40.572026 96.738 -179.4173
40.866028 96.724 -179.6566
41.162160 96.710 -179.8973
41.460438 96.697 179.8609
41.760877 96.683 179.6184
42.063494 96.669 179.3757
42.368303 96.655 179.1332
42.675322 96.641 178.8913
42.984565 96.627 178.6501
43.296048 96.613 178.4099
43.609789 96.598 178.1709
43.925804 96.584 177.9334
44.244108 96.570 177.6976
44.564719 96.555 177.4636
44.887654 96.540 177.2313
45.212928 96.525 177.0005
45.540560 96.510 176.7708
45.870565 96.495 176.5421
46.202962 96.479 176.3145
46.537768 96.463 176.0884
46.875000 96.447 175.8640
47.214676 96.430 175.6415
47.556813 96.414 175.4206
47.901429 96.397 175.2009
48.248542 96.381 174.9815
48.598171 96.365 174.7619
48.950334 96.349 174.5416
49.305048 96.333 174.3210
49.662333 96.317 174.1005
50.022206 96.301 173.8806
50.384688 96.284 173.6617
50.749796 96.267 173.4439
51.117550 96.250 173.2272
51.487969 96.233 173.0120
51.861072 96.215 172.7988
52.236879 96.197 172.5884
52.615409 96.179 172.3814
52.996681 96.161 172.1779
53.380717 96.143 171.9773
53.767536 96.125 171.7784
54.157158 96.107 171.5804
54.549603 96.090 171.3824
54.944892 96.073 171.1840
55.343045 96.056 170.9851
55.744084 96.040 170.7852
56.148028 96.024 170.5837
56.554900 96.009 170.3796
56.964720 95.994 170.1723
57.377510 95.979 169.9618
57.793291 95.964 169.7488
58.212085 95.948 169.5344
58.633914 95.932 169.3199
59.058799 95.915 169.1065
59.486764 95.897 168.8950
59.917829 95.879 168.6860
60.352019 95.860 168.4799
60.789354 95.840 168.2762
61.229859 95.820 168.0738
61.673556 95.799 167.8714
62.120468 95.778 167.6683
62.570618 95.755 167.4650
63.024031 95.732 167.2631
63.480729 95.707 167.0645
63.940736 95.682 166.8702
64.404077 95.658 166.6801
64.870776 95.633 166.4928
65.340856 95.609 166.3065
65.814343 95.586 166.1196
66.291261 95.562 165.9317
66.771635 95.539 165.7433
67.255489 95.516 165.5560
67.742850 95.493 165.3708
68.233743 95.470 165.1877
68.728193 95.447 165.0054
69.226226 95.424 164.8224
69.727867 95.402 164.6380
70.233144 95.379 164.4527
70.742083 95.355 164.2677
71.254709 95.331 164.0839
71.771050 95.308 163.9012
72.291132 95.284 163.7193
72.814984 95.260 163.5376
73.342631 95.236 163.3563
73.874102 95.211 163.1764
74.409424 95.187 162.9986
74.948626 95.163 162.8233
75.491734 95.138 162.6495
76.038779 95.114 162.4758
76.589787 95.090 162.3009
77.144788 95.066 162.1244
77.703811 95.042 161.9463
78.266885 95.017 161.7665
78.834039 94.993 161.5836
79.405303 94.968 161.3955
79.980706 94.944 161.2010
80.560280 94.919 160.9996
81.144053 94.894 160.7920
81.732056 94.867 160.5796
82.324320 94.840 160.3644
82.920876 94.812 160.1495
83.521755 94.782 159.9387
84.126988 94.750 159.7354
84.736607 94.718 159.5425
85.350643 94.684 159.3607
85.969129 94.650 159.1891
86.592097 94.615 159.0261
87.219579 94.579 158.8701
