* Measurement data measured by REW V5.31
* Source: EXCL: Microphone (USB Sound Device        ), MICROPHONE (Master Volume), R, volume: 0.390
* Format: 256k Log Swept Sine, 1 sweep at -15.0 dBFS with no timing reference
* Dated: Dec 24, 2024 1:03:23 AM
* REW Settings:
*  C-weighting compensation: Off
*  Target level: 75.0 dB
* Note: L BLON BL03 II White1
* Measurement: L BLON BL03 II White1
* Smoothing: 1/12 octave
* Frequency Step: 96 ppo
* Start Frequency: 0.36621094 Hz
*
* Freq(Hz) SPL(dB) Phase(degrees)
0.366211 95.176 159.3850
0.368865 95.170 159.3633
0.371538 95.162 159.3309
0.374230 95.151 159.2901
0.376942 95.139 159.2432
0.379673 95.126 159.1916
0.382424 95.112 159.1363
0.385196 95.098 159.0781
0.387987 95.084 159.0172
0.390798 95.069 158.9538
0.393630 95.055 158.8880
0.396483 95.040 158.8199
0.399356 95.025 158.7494
0.402250 95.010 158.6766
0.405165 94.995 158.6015
0.408101 94.980 158.5239
0.411058 94.965 158.4440
0.414037 94.949 158.3616
0.417037 94.934 158.2768
0.420059 94.918 158.1895
0.423103 94.903 158.0998
0.426169 94.887 158.0075
0.429257 94.871 157.9126
0.432368 94.855 157.8153
0.435501 94.839 157.7153
0.438656 94.822 157.6127
0.441835 94.806 157.5075
0.445037 94.790 157.3997
0.448262 94.773 157.2892
0.451510 94.756 157.1760
0.454782 94.739 157.0601
0.458077 94.722 156.9415
0.461397 94.705 156.8201
0.464740 94.688 156.6960
0.468108 94.671 156.5691
0.471500 94.653 156.4394
0.474917 94.635 156.3069
0.478358 94.618 156.1716
0.481825 94.600 156.0335
0.485316 94.582 155.8925
0.488833 94.564 155.7487
0.492375 94.545 155.6020
0.495943 94.527 155.4525
0.499537 94.508 155.3001
0.503157 94.490 155.1447
0.506803 94.471 154.9865
0.510475 94.452 154.8254
0.514175 94.433 154.6615
0.517900 94.414 154.4946
0.521653 94.394 154.3248
0.525434 94.375 154.1521
0.529241 94.355 153.9766
0.533076 94.335 153.7982
0.536939 94.315 153.6169
0.540830 94.295 153.4328
0.544749 94.275 153.2458
0.548696 94.255 153.0560
0.552673 94.234 152.8635
0.556677 94.214 152.6681
0.560711 94.193 152.4700
0.564774 94.172 152.2692
0.568867 94.151 152.0657
0.572989 94.130 151.8595
0.577141 94.108 151.6507
0.581324 94.087 151.4393
0.585536 94.065 151.2255
0.589779 94.043 151.0091
0.594053 94.021 150.7903
0.598358 93.999 150.5692
0.602694 93.976 150.3457
0.607061 93.954 150.1200
0.611460 93.931 149.8922
0.615891 93.908 149.6622
0.620354 93.885 149.4303
0.624849 93.862 149.1965
0.629377 93.839 148.9608
0.633938 93.815 148.7234
0.638532 93.792 148.4845
0.643159 93.768 148.2440
0.647819 93.744 148.0022
0.652514 93.719 147.7591
0.657242 93.695 147.5149
0.662005 93.670 147.2697
0.666802 93.646 147.0238
0.671634 93.621 146.7772
0.676501 93.596 146.5300
0.681403 93.570 146.2826
0.686341 93.545 146.0351
0.691314 93.519 145.7876
0.696324 93.493 145.5403
0.701370 93.467 145.2934
0.706452 93.440 145.0471
0.711571 93.413 144.8014
0.716728 93.385 144.5562
0.721921 93.356 144.3114
0.727153 93.326 144.0666
0.732422 93.293 143.8209
0.737729 93.258 143.5735
0.743075 93.222 143.3234
0.748460 93.183 143.0698
0.753883 93.143 142.8120
0.759346 93.103 142.5495
0.764849 93.061 142.2820
0.770391 93.019 142.0094
0.775974 92.976 141.7313
0.781597 92.933 141.4477
0.787261 92.889 141.1586
0.792966 92.844 140.8639
0.798712 92.799 140.5634
0.804500 92.754 140.2572
0.810329 92.708 139.9453
0.816201 92.661 139.6274
0.822116 92.613 139.3036
0.828073 92.565 138.9739
0.834074 92.516 138.6382
0.840118 92.467 138.2966
0.846206 92.416 137.9488
0.852338 92.365 137.5951
0.858514 92.313 137.2353
0.864735 92.260 136.8694
0.871001 92.206 136.4974
0.877313 92.151 136.1195
0.883670 92.095 135.7355
0.890074 92.038 135.3455
0.896524 91.980 134.9496
0.903020 91.921 134.5477
0.909564 91.860 134.1401
0.916155 91.799 133.7268
0.922794 91.736 133.3079
0.929481 91.672 132.8834
0.936216 91.606 132.4536
0.943000 91.539 132.0186
0.949834 91.471 131.5785
0.956717 91.401 131.1337
0.963649 91.329 130.6842
0.970632 91.256 130.2304
0.977666 91.181 129.7725
0.984750 91.104 129.3109
0.991886 91.026 128.8459
0.999074 90.946 128.3778
1.006314 90.863 127.9071
1.013606 90.779 127.4342
1.020951 90.693 126.9597
1.028349 90.604 126.4840
1.035801 90.513 126.0077
1.043307 90.420 125.5314
1.050867 90.325 125.0558
1.058482 90.227 124.5815
1.066152 90.126 124.1092
1.073878 90.023 123.6394
1.081660 89.917 123.1726
1.089498 89.809 122.7089
1.097393 89.697 122.2484
1.105345 89.584 121.7906
1.113355 89.467 121.3348
1.121423 89.348 120.8804
1.129549 89.227 120.4267
1.137734 89.102 119.9729
1.145979 88.976 119.5187
1.154283 88.847 119.0635
1.162647 88.715 118.6068
1.171072 88.580 118.1481
1.179558 88.443 117.6871
1.188106 88.303 117.2232
1.196715 88.160 116.7559
1.205387 88.014 116.2847
1.214122 87.866 115.8090
1.222920 87.714 115.3283
1.231782 87.560 114.8419
1.240708 87.402 114.3491
1.249699 87.242 113.8493
1.258754 87.078 113.3416
1.267876 86.911 112.8254
1.277063 86.741 112.2997
1.286318 86.568 111.7636
1.295639 86.391 111.2162
1.305027 86.211 110.6565
1.314484 86.027 110.0833
1.324009 85.840 109.4955
1.333604 85.649 108.8919
1.343268 85.455 108.2712
1.353002 85.257 107.6319
1.362806 85.056 106.9727
1.372681 84.850 106.2921
1.382628 84.641 105.5883
1.392647 84.427 104.8599
1.402739 84.210 104.1052
1.412904 83.988 103.3224
1.423142 83.761 102.5099
1.433455 83.530 101.6663
1.443843 83.292 100.7902
1.454305 83.047 99.8801
1.464844 82.793 98.9350
1.475459 82.527 97.9533
1.486150 82.249 96.9330
1.496920 81.955 95.8709
1.507767 81.646 94.7631
1.518693 81.321 93.6043
1.529698 80.981 92.3880
1.540783 80.626 91.1067
1.551948 80.257 89.7511
1.563194 79.876 88.3109
1.574521 79.484 86.7734
1.585931 79.083 85.1241
1.597423 78.675 83.3456
1.608999 78.261 81.4175
1.620658 77.844 79.3157
1.632402 77.425 77.0118
1.644232 77.006 74.4722
1.656146 76.591 71.6576
1.668147 76.182 68.5229
1.680235 75.781 65.0166
1.692411 75.392 61.0826
1.704675 75.016 56.6634
1.717028 74.658 51.7057
1.729470 74.321 46.1711
1.742003 74.009 40.0510
1.754626 73.724 33.3837
1.767341 73.473 26.2692
1.780147 73.257 18.8705
1.793047 73.082 11.3960
1.806040 72.953 4.0630
1.819128 72.872 -2.9433
1.832310 72.843 -9.4973
1.845587 72.868 -15.5391
1.858961 72.948 -21.0604
1.872432 73.082 -26.0847
1.886001 73.269 -30.6508
1.899667 73.505 -34.8022
1.913433 73.787 -38.5825
1.927299 74.111 -42.0318
1.941265 74.473 -45.1864
1.955332 74.868 -48.0783
1.969501 75.292 -50.7355
1.983773 75.739 -53.1822
1.998148 76.206 -55.4393
2.012627 76.687 -57.5247
2.027212 77.177 -59.4538
2.041902 77.671 -61.2397
2.056698 78.164 -62.8937
2.071602 78.652 -64.4255
2.086614 79.129 -65.8436
2.101734 79.590 -67.1554
2.116964 80.032 -68.3677
2.132304 80.449 -69.4871
2.147756 80.839 -70.5203
2.163320 81.199 -71.4749
2.178996 81.529 -72.3601
2.194786 81.830 -73.1865
2.210690 82.103 -73.9657
2.226710 82.352 -74.7090
2.242845 82.581 -75.4252
2.259098 82.791 -76.1207
2.275468 82.986 -76.7989
2.291957 83.165 -77.4617
2.308566 83.331 -78.1094
2.325295 83.485 -78.7413
2.342145 83.628 -79.3563
2.359117 83.761 -79.9529
2.376212 83.885 -80.5291
2.393431 84.000 -81.0828
2.410775 84.110 -81.6119
2.428244 84.213 -82.1138
2.445840 84.312 -82.5862
2.463564 84.408 -83.0266
2.481416 84.502 -83.4326
2.499397 84.595 -83.8023
2.517509 84.687 -84.1342
2.535752 84.778 -84.4279
2.554127 84.869 -84.6841
2.572635 84.958 -84.9048
2.591277 85.043 -85.0930
2.610055 85.125 -85.2515
2.628968 85.201 -85.3830
2.648019 85.272 -85.4895
2.667208 85.338 -85.5724
2.686535 85.399 -85.6324
2.706003 85.456 -85.6701
2.725612 85.509 -85.6859
2.745363 85.559 -85.6799
2.765257 85.607 -85.6521
2.785295 85.654 -85.6025
2.805478 85.700 -85.5310
2.825808 85.747 -85.4374
2.846285 85.796 -85.3215
2.866910 85.846 -85.1827
2.887685 85.899 -85.0204
2.908611 85.955 -84.8335
2.929688 86.014 -84.6208
2.950917 86.075 -84.3809
2.972301 86.137 -84.1131
2.993839 86.201 -83.8175
3.015534 86.266 -83.4954
3.037386 86.333 -83.1491
3.059396 86.400 -82.7813
3.081565 86.468 -82.3955
3.103896 86.538 -81.9955
3.126388 86.610 -81.5852
3.149043 86.684 -81.1686
3.171862 86.760 -80.7498
3.194847 86.840 -80.3322
3.217998 86.923 -79.9192
3.241317 87.009 -79.5128
3.264805 87.100 -79.1143
3.288463 87.195 -78.7231
3.312293 87.295 -78.3376
3.336295 87.399 -77.9560
3.360471 87.508 -77.5773
3.384822 87.621 -77.2021
3.409350 87.738 -76.8323
3.434056 87.859 -76.4708
3.458940 87.982 -76.1213
3.484005 88.108 -75.7879
3.509252 88.235 -75.4746
3.534681 88.364 -75.1852
3.560295 88.493 -74.9234
3.586094 88.623 -74.6920
3.612081 88.752 -74.4932
3.638255 88.881 -74.3281
3.664620 89.010 -74.1963
3.691175 89.139 -74.0967
3.717923 89.268 -74.0272
3.744864 89.398 -73.9857
3.772001 89.528 -73.9706
3.799335 89.658 -73.9802
3.826866 89.787 -74.0134
3.854597 89.916 -74.0690
3.882529 90.043 -74.1463
3.910664 90.168 -74.2447
3.939002 90.291 -74.3639
3.967546 90.411 -74.5039
3.996296 90.528 -74.6648
4.025255 90.642 -74.8473
4.054423 90.752 -75.0517
4.083804 90.859 -75.2780
4.113396 90.963 -75.5254
4.143204 91.064 -75.7924
4.173227 91.161 -76.0767
4.203468 91.256 -76.3756
4.233928 91.347 -76.6865
4.264609 91.435 -77.0067
4.295512 91.519 -77.3341
4.326639 91.601 -77.6670
4.357992 91.678 -78.0047
4.389572 91.752 -78.3475
4.421380 91.822 -78.6963
4.453419 91.888 -79.0519
4.485691 91.950 -79.4147
4.518196 92.008 -79.7838
4.550936 92.062 -80.1572
4.583914 92.113 -80.5325
4.617131 92.161 -80.9067
4.650589 92.206 -81.2769
4.684289 92.248 -81.6405
4.718233 92.288 -81.9956
4.752424 92.325 -82.3411
4.786862 92.359 -82.6772
4.821549 92.390 -83.0044
4.856488 92.419 -83.3234
4.891680 92.445 -83.6345
4.927127 92.468 -83.9375
4.962831 92.490 -84.2318
4.998794 92.511 -84.5164
5.035017 92.531 -84.7900
5.071503 92.550 -85.0516
5.108253 92.569 -85.2999
5.145270 92.587 -85.5345
5.182555 92.605 -85.7551
5.220110 92.624 -85.9626
5.257937 92.642 -86.1580
5.296038 92.660 -86.3432
5.334415 92.679 -86.5200
5.373071 92.699 -86.6904
5.412006 92.720 -86.8559
5.451224 92.743 -87.0175
5.490725 92.767 -87.1758
5.530514 92.794 -87.3309
5.570590 92.823 -87.4831
5.610957 92.854 -87.6337
5.651616 92.887 -87.7846
5.692570 92.921 -87.9386
5.733821 92.958 -88.0986
5.775370 92.996 -88.2676
5.817221 93.037 -88.4479
5.859375 93.079 -88.6410
5.901834 93.123 -88.8474
5.944602 93.169 -89.0676
5.987679 93.217 -89.3019
6.031068 93.266 -89.5511
6.074771 93.317 -89.8163
6.118792 93.368 -90.0991
6.163131 93.419 -90.4007
6.207792 93.471 -90.7224
6.252776 93.522 -91.0647
6.298086 93.574 -91.4276
6.343725 93.625 -91.8103
6.389694 93.676 -92.2117
6.435996 93.727 -92.6304
6.482634 93.776 -93.0651
6.529610 93.824 -93.5148
6.576926 93.871 -93.9789
6.624585 93.917 -94.4571
6.672590 93.960 -94.9488
6.720942 94.003 -95.4528
6.769645 94.043 -95.9673
6.818700 94.082 -96.4899
6.868111 94.119 -97.0182
6.917881 94.155 -97.5501
6.968010 94.189 -98.0844
7.018504 94.222 -98.6203
7.069362 94.253 -99.1569
7.120590 94.282 -99.6932
7.172189 94.311 -100.2276
7.224161 94.339 -100.7583
7.276511 94.366 -101.2835
7.329239 94.393 -101.8019
7.382350 94.420 -102.3128
7.435845 94.446 -102.8161
7.489729 94.473 -103.3118
7.544002 94.501 -103.7999
7.598669 94.529 -104.2804
7.653732 94.558 -104.7532
7.709194 94.589 -105.2183
7.765058 94.621 -105.6758
7.821327 94.654 -106.1266
7.878004 94.690 -106.5715
7.935091 94.727 -107.0120
7.992592 94.766 -107.4494
8.050510 94.807 -107.8847
8.108847 94.850 -108.3188
8.167607 94.896 -108.7524
8.226793 94.943 -109.1862
8.286408 94.992 -109.6216
8.346454 95.042 -110.0595
8.406936 95.094 -110.5010
8.467856 95.148 -110.9466
8.529218 95.202 -111.3966
8.591024 95.258 -111.8508
8.653278 95.314 -112.3092
8.715983 95.371 -112.7715
8.779143 95.428 -113.2376
8.842760 95.485 -113.7070
8.906839 95.542 -114.1792
8.971381 95.598 -114.6530
9.036392 95.654 -115.1274
9.101873 95.710 -115.6010
9.167829 95.765 -116.0728
9.234263 95.819 -116.5419
9.301178 95.873 -117.0072
9.368578 95.925 -117.4677
9.436467 95.977 -117.9221
9.504847 96.028 -118.3692
9.573723 96.078 -118.8084
9.643099 96.127 -119.2390
9.712976 96.175 -119.6606
9.783361 96.220 -120.0729
9.854255 96.264 -120.4755
9.925663 96.305 -120.8684
9.997588 96.343 -121.2517
10.070035 96.380 -121.6257
10.143007 96.414 -121.9909
10.216507 96.447 -122.3478
10.290540 96.478 -122.6970
10.365109 96.508 -123.0391
10.440219 96.537 -123.3748
10.515873 96.565 -123.7046
10.592076 96.593 -124.0295
10.668830 96.621 -124.3498
10.746141 96.648 -124.6663
10.824012 96.674 -124.9791
10.902447 96.700 -125.2887
10.981451 96.726 -125.5955
11.061027 96.750 -125.8996
11.141180 96.774 -126.2010
11.221913 96.797 -126.5000
11.303232 96.818 -126.7963
11.385140 96.839 -127.0902
11.467641 96.859 -127.3815
11.550741 96.878 -127.6702
11.634442 96.896 -127.9565
11.718750 96.913 -128.2403
11.803669 96.930 -128.5219
11.889203 96.945 -128.8014
11.975357 96.961 -129.0792
12.062136 96.975 -129.3555
12.149543 96.989 -129.6307
12.237583 97.003 -129.9052
12.326262 97.015 -130.1793
12.415583 97.027 -130.4536
12.505552 97.037 -130.7284
12.596172 97.047 -131.0040
12.687449 97.055 -131.2807
12.779387 97.062 -131.5586
12.871992 97.069 -131.8381
12.965268 97.074 -132.1192
13.059220 97.078 -132.4020
13.153852 97.082 -132.6865
13.249170 97.084 -132.9728
13.345179 97.087 -133.2610
13.441884 97.088 -133.5511
13.539289 97.090 -133.8433
13.637401 97.091 -134.1380
13.736223 97.091 -134.4353
13.835761 97.091 -134.7357
13.936021 97.091 -135.0396
14.037007 97.091 -135.3477
14.138725 97.091 -135.6603
14.241180 97.090 -135.9782
14.344377 97.089 -136.3017
14.448323 97.088 -136.6313
14.553021 97.087 -136.9673
14.658478 97.086 -137.3098
14.764700 97.085 -137.6588
14.871691 97.083 -138.0142
14.979457 97.082 -138.3756
15.088005 97.081 -138.7425
15.197339 97.079 -139.1143
15.307465 97.078 -139.4902
15.418389 97.077 -139.8696
15.530117 97.075 -140.2518
15.642655 97.074 -140.6359
15.756008 97.074 -141.0215
15.870182 97.073 -141.4081
15.985184 97.074 -141.7952
16.101019 97.074 -142.1827
16.217694 97.076 -142.5704
16.335214 97.078 -142.9582
16.453586 97.082 -143.3462
16.572815 97.086 -143.7342
16.692909 97.091 -144.1222
16.813872 97.098 -144.5100
16.935713 97.105 -144.8973
17.058436 97.114 -145.2838
17.182048 97.123 -145.6688
17.306556 97.133 -146.0517
17.431967 97.143 -146.4318
17.558286 97.154 -146.8084
17.685521 97.165 -147.1807
17.813677 97.176 -147.5481
17.942762 97.187 -147.9100
18.072783 97.199 -148.2660
18.203746 97.210 -148.6157
18.335658 97.222 -148.9589
18.468526 97.234 -149.2956
18.602356 97.246 -149.6258
18.737156 97.258 -149.9495
18.872934 97.271 -150.2670
19.009695 97.283 -150.5782
19.147447 97.295 -150.8836
19.286197 97.307 -151.1831
19.425953 97.319 -151.4771
19.566721 97.330 -151.7657
19.708510 97.341 -152.0493
19.851326 97.350 -152.3282
19.995177 97.360 -152.6027
20.140070 97.368 -152.8734
20.286013 97.375 -153.1408
20.433014 97.382 -153.4054
20.581080 97.388 -153.6678
20.730219 97.392 -153.9284
20.880439 97.396 -154.1877
21.031747 97.399 -154.4462
21.184152 97.401 -154.7043
21.337661 97.403 -154.9622
21.492282 97.403 -155.2206
21.648024 97.403 -155.4797
21.804895 97.403 -155.7401
21.962902 97.401 -156.0025
22.122054 97.399 -156.2674
22.282360 97.397 -156.5355
22.443827 97.394 -156.8076
22.606464 97.390 -157.0841
22.770280 97.386 -157.3655
22.935283 97.382 -157.6520
23.101481 97.377 -157.9435
23.268884 97.372 -158.2398
23.437500 97.366 -158.5406
23.607338 97.360 -158.8453
23.778406 97.354 -159.1534
23.950714 97.347 -159.4644
24.124271 97.341 -159.7777
24.299086 97.335 -160.0932
24.475167 97.329 -160.4105
24.652524 97.324 -160.7294
24.831166 97.319 -161.0498
25.011103 97.315 -161.3714
25.192344 97.312 -161.6938
25.374898 97.309 -162.0166
25.558775 97.307 -162.3391
25.743984 97.305 -162.6606
25.930536 97.304 -162.9802
26.118439 97.303 -163.2972
26.307704 97.302 -163.6106
26.498341 97.302 -163.9199
26.690359 97.302 -164.2245
26.883768 97.302 -164.5239
27.078579 97.303 -164.8179
27.274801 97.303 -165.1064
27.472446 97.304 -165.3894
27.671522 97.304 -165.6671
27.872042 97.304 -165.9397
28.074014 97.304 -166.2076
28.277450 97.303 -166.4709
28.482360 97.302 -166.7301
28.688755 97.300 -166.9855
28.896645 97.298 -167.2374
29.106042 97.294 -167.4859
29.316957 97.290 -167.7314
29.529400 97.285 -167.9744
29.743382 97.280 -168.2156
29.958915 97.274 -168.4556
30.176009 97.268 -168.6956
30.394677 97.261 -168.9366
30.614929 97.254 -169.1796
30.836778 97.247 -169.4257
31.060234 97.239 -169.6754
31.285309 97.231 -169.9292
31.512015 97.222 -170.1869
31.740364 97.213 -170.4483
31.970368 97.203 -170.7132
32.202039 97.193 -170.9812
32.435388 97.183 -171.2519
32.670428 97.173 -171.5252
32.907171 97.164 -171.8009
33.145630 97.154 -172.0791
33.385817 97.145 -172.3593
33.627745 97.136 -172.6413
33.871425 97.128 -172.9245
34.116871 97.120 -173.2082
34.364096 97.112 -173.4916
34.613113 97.104 -173.7739
34.863934 97.096 -174.0544
35.116572 97.088 -174.3324
35.371041 97.081 -174.6075
35.627354 97.074 -174.8793
35.885525 97.066 -175.1476
36.145566 97.058 -175.4123
36.407492 97.051 -175.6733
36.671316 97.042 -175.9305
36.937051 97.034 -176.1840
37.204712 97.025 -176.4340
37.474313 97.016 -176.6806
37.745867 97.006 -176.9242
38.019389 96.996 -177.1654
38.294893 96.985 -177.4049
38.572394 96.974 -177.6432
38.851905 96.963 -177.8811
39.133442 96.951 -178.1190
39.417019 96.939 -178.3572
39.702651 96.926 -178.5959
39.990353 96.913 -178.8352
40.280140 96.899 -179.0752
40.572026 96.886 -179.3162
40.866028 96.872 -179.5582
41.162160 96.858 -179.8012
41.460438 96.844 179.9550
41.760877 96.830 179.7108
42.063494 96.816 179.4669
42.368303 96.801 179.2238
42.675322 96.787 178.9818
42.984565 96.773 178.7409
43.296048 96.759 178.5009
43.609789 96.745 178.2615
43.925804 96.732 178.0224
44.244108 96.718 177.7836
44.564719 96.704 177.5454
44.887654 96.689 177.3080
45.212928 96.675 177.0720
45.540560 96.660 176.8376
45.870565 96.644 176.6050
46.202962 96.629 176.3742
46.537768 96.613 176.1454
46.875000 96.596 175.9186
47.214676 96.580 175.6936
47.556813 96.564 175.4701
47.901429 96.548 175.2476
48.248542 96.532 175.0255
48.598171 96.516 174.8032
48.950334 96.500 174.5807
49.305048 96.484 174.3582
49.662333 96.468 174.1357
50.022206 96.452 173.9137
50.384688 96.436 173.6926
50.749796 96.419 173.4725
51.117550 96.402 173.2538
51.487969 96.385 173.0370
51.861072 96.368 172.8226
52.236879 96.350 172.6109
52.615409 96.332 172.4022
52.996681 96.314 172.1960
53.380717 96.296 171.9920
53.767536 96.278 171.7893
54.157158 96.260 171.5875
54.549603 96.243 171.3860
54.944892 96.225 171.1844
55.343045 96.208 170.9823
55.744084 96.191 170.7790
56.148028 96.175 170.5736
56.554900 96.158 170.3652
56.964720 96.142 170.1533
57.377510 96.126 169.9377
57.793291 96.109 169.7187
58.212085 96.093 169.4973
58.633914 96.075 169.2743
59.058799 96.057 169.0510
59.486764 96.038 168.8281
59.917829 96.018 168.6066
60.352019 95.998 168.3870
60.789354 95.976 168.1696
61.229859 95.954 167.9547
61.673556 95.932 167.7422
62.120468 95.908 167.5320
62.570618 95.885 167.3237
63.024031 95.861 167.1165
63.480729 95.836 166.9102
63.940736 95.812 166.7045
64.404077 95.787 166.4997
64.870776 95.762 166.2958
65.340856 95.736 166.0931
65.814343 95.711 165.8917
66.291261 95.685 165.6917
66.771635 95.660 165.4935
67.255489 95.633 165.2976
67.742850 95.607 165.1042
68.233743 95.580 164.9136
68.728193 95.553 164.7256
69.226226 95.526 164.5398
69.727867 95.498 164.3558
70.233144 95.471 164.1729
70.742083 95.442 163.9901
71.254709 95.414 163.8065
71.771050 95.385 163.6223
72.291132 95.355 163.4377
72.814984 95.325 163.2533
73.342631 95.295 163.0692
73.874102 95.264 162.8855
74.409424 95.232 162.7026
74.948626 95.200 162.5218
75.491734 95.166 162.3447
76.038779 95.131 162.1724
76.589787 95.095 162.0060
77.144788 95.058 161.8467
77.703811 95.019 161.6963
78.266885 94.978 161.5574
78.834039 94.936 161.4327
79.405303 94.892 161.3255
79.980706 94.847 161.2405
80.560280 94.801 161.1835
81.144053 94.755 161.1598
81.732056 94.712 161.1723
82.324320 94.673 161.2209
82.920876 94.639 161.3006
83.521755 94.615 161.3991
84.126988 94.599 161.4979
84.736607 94.594 161.5756
85.350643 94.596 161.6131
85.969129 94.603 161.5970
86.592097 94.612 161.5233
87.219579 94.619 161.3994
