* Measurement data measured by REW V5.31
* Source: EXCL: Microphone (USB Sound Device        ), MICROPHONE (Master Volume), L, volume: 0.560
* Format: 256k Log Swept Sine, 1 sweep at 0.0 dBFS with no timing reference
* Dated: Apr 23, 2024 11:49:18 PM
* REW Settings:
*  C-weighting compensation: Off
*  Target level: 75.0 dB
* Note: CCA Hydro 1100
* Measurement: L CCA Hydro 1100
* Smoothing: 1/12 octave
* Frequency Step: 96 ppo
* Start Frequency: 0.36621094 Hz
*
* Freq(Hz) SPL(dB) Phase(degrees)
0.366211 81.176 166.8930
0.368865 81.168 166.8800
0.371538 81.156 166.8604
0.374230 81.141 166.8359
0.376942 81.124 166.8075
0.379673 81.106 166.7762
0.382424 81.088 166.7426
0.385196 81.068 166.7070
0.387987 81.049 166.6698
0.390798 81.029 166.6309
0.393630 81.009 166.5904
0.396483 80.989 166.5484
0.399356 80.969 166.5048
0.402250 80.948 166.4597
0.405165 80.928 166.4130
0.408101 80.907 166.3647
0.411058 80.886 166.3148
0.414037 80.865 166.2634
0.417037 80.844 166.2103
0.420059 80.823 166.1556
0.423103 80.801 166.0992
0.426169 80.780 166.0412
0.429257 80.758 165.9815
0.432368 80.736 165.9201
0.435501 80.714 165.8571
0.438656 80.691 165.7923
0.441835 80.669 165.7257
0.445037 80.646 165.6575
0.448262 80.624 165.5875
0.451510 80.601 165.5157
0.454782 80.578 165.4421
0.458077 80.554 165.3668
0.461397 80.531 165.2897
0.464740 80.507 165.2108
0.468108 80.483 165.1300
0.471500 80.459 165.0475
0.474917 80.435 164.9631
0.478358 80.411 164.8768
0.481825 80.387 164.7887
0.485316 80.362 164.6988
0.488833 80.337 164.6070
0.492375 80.312 164.5134
0.495943 80.287 164.4179
0.499537 80.261 164.3205
0.503157 80.236 164.2212
0.506803 80.210 164.1201
0.510475 80.184 164.0171
0.514175 80.158 163.9122
0.517900 80.132 163.8055
0.521653 80.105 163.6969
0.525434 80.079 163.5865
0.529241 80.052 163.4742
0.533076 80.025 163.3600
0.536939 79.997 163.2440
0.540830 79.970 163.1262
0.544749 79.942 163.0065
0.548696 79.914 162.8851
0.552673 79.886 162.7619
0.556677 79.858 162.6369
0.560711 79.830 162.5102
0.564774 79.801 162.3818
0.568867 79.772 162.2516
0.572989 79.743 162.1198
0.577141 79.714 161.9864
0.581324 79.684 161.8513
0.585536 79.654 161.7147
0.589779 79.624 161.5766
0.594053 79.594 161.4370
0.598358 79.564 161.2959
0.602694 79.533 161.1534
0.607061 79.502 161.0096
0.611460 79.471 160.8645
0.615891 79.440 160.7182
0.620354 79.408 160.5708
0.624849 79.377 160.4222
0.629377 79.345 160.2726
0.633938 79.312 160.1222
0.638532 79.280 159.9708
0.643159 79.247 159.8188
0.647819 79.214 159.6660
0.652514 79.181 159.5127
0.657242 79.148 159.3590
0.662005 79.114 159.2050
0.666802 79.080 159.0507
0.671634 79.046 158.8964
0.676501 79.012 158.7422
0.681403 78.977 158.5881
0.686341 78.942 158.4345
0.691314 78.907 158.2814
0.696324 78.871 158.1290
0.701370 78.835 157.9774
0.706452 78.798 157.8267
0.711571 78.760 157.6771
0.716728 78.721 157.5285
0.721921 78.679 157.3807
0.727153 78.633 157.2334
0.732422 78.582 157.0860
0.737729 78.527 156.9378
0.743075 78.466 156.7878
0.748460 78.400 156.6354
0.753883 78.331 156.4801
0.759346 78.258 156.3214
0.764849 78.183 156.1590
0.770391 78.106 155.9928
0.775974 78.027 155.8227
0.781597 77.945 155.6485
0.787261 77.862 155.4702
0.792966 77.776 155.2877
0.798712 77.689 155.1010
0.804500 77.599 154.9099
0.810329 77.508 154.7144
0.816201 77.415 154.5146
0.822116 77.320 154.3103
0.828073 77.223 154.1014
0.834074 77.125 153.8880
0.840118 77.024 153.6700
0.846206 76.921 153.4473
0.852338 76.817 153.2199
0.858514 76.710 152.9877
0.864735 76.602 152.7508
0.871001 76.492 152.5091
0.877313 76.380 152.2626
0.883670 76.266 152.0112
0.890074 76.150 151.7550
0.896524 76.033 151.4939
0.903020 75.913 151.2279
0.909564 75.792 150.9571
0.916155 75.669 150.6814
0.922794 75.545 150.4010
0.929481 75.418 150.1158
0.936216 75.290 149.8259
0.943000 75.160 149.5313
0.949834 75.028 149.2323
0.956717 74.895 148.9288
0.963649 74.760 148.6211
0.970632 74.623 148.3092
0.977666 74.485 147.9934
0.984750 74.345 147.6739
0.991886 74.204 147.3510
0.999074 74.061 147.0249
1.006314 73.917 146.6961
1.013606 73.771 146.3648
1.020951 73.624 146.0315
1.028349 73.476 145.6969
1.035801 73.326 145.3613
1.043307 73.176 145.0255
1.050867 73.024 144.6902
1.058482 72.870 144.3561
1.066152 72.715 144.0239
1.073878 72.559 143.6944
1.081660 72.400 143.3681
1.089498 72.239 143.0451
1.097393 72.073 142.7253
1.105345 71.902 142.4079
1.113355 71.724 142.0920
1.121423 71.538 141.7764
1.129549 71.343 141.4601
1.137734 71.139 141.1420
1.145979 70.926 140.8212
1.154283 70.704 140.4970
1.162647 70.473 140.1684
1.171072 70.234 139.8345
1.179558 69.987 139.4942
1.188106 69.733 139.1463
1.196715 69.474 138.7892
1.205387 69.208 138.4209
1.214122 68.938 138.0393
1.222920 68.664 137.6413
1.231782 68.388 137.2233
1.240708 68.109 136.7802
1.249699 67.829 136.3055
1.258754 67.549 135.7903
1.267876 67.270 135.2220
1.277063 66.993 134.5824
1.286318 66.720 133.8443
1.295639 66.451 132.9643
1.305027 66.188 131.8698
1.314484 65.933 130.4290
1.324009 65.686 128.3753
1.333604 65.450 125.0794
1.343268 65.225 118.6468
1.353002 65.014 100.3666
1.362806 64.819 27.8905
1.372681 64.640 -17.9638
1.382628 64.481 -29.4234
1.392647 64.343 -34.2439
1.402739 64.228 -36.9472
1.412904 64.139 -38.7258
1.423142 64.078 -40.0211
1.433455 64.048 -41.0336
1.443843 64.051 -41.8671
1.454305 64.089 -42.5810
1.464844 64.164 -43.2117
1.475459 64.279 -43.7826
1.486150 64.435 -44.3094
1.496920 64.631 -44.8027
1.507767 64.867 -45.2701
1.518693 65.142 -45.7169
1.529698 65.454 -46.1470
1.540783 65.801 -46.5636
1.551948 66.181 -46.9690
1.563194 66.592 -47.3650
1.574521 67.031 -47.7532
1.585931 67.495 -48.1350
1.597423 67.982 -48.5114
1.608999 68.490 -48.8834
1.620658 69.014 -49.2517
1.632402 69.552 -49.6170
1.644232 70.101 -49.9800
1.656146 70.658 -50.3412
1.668147 71.220 -50.7012
1.680235 71.784 -51.0604
1.692411 72.345 -51.4192
1.704675 72.901 -51.7781
1.717028 73.448 -52.1373
1.729470 73.984 -52.4974
1.742003 74.503 -52.8587
1.754626 75.004 -53.2215
1.767341 75.484 -53.5863
1.780147 75.939 -53.9534
1.793047 76.368 -54.3236
1.806040 76.770 -54.6972
1.819128 77.145 -55.0750
1.832310 77.493 -55.4578
1.845587 77.818 -55.8461
1.858961 78.123 -56.2403
1.872432 78.408 -56.6403
1.886001 78.678 -57.0460
1.899667 78.932 -57.4566
1.913433 79.172 -57.8716
1.927299 79.399 -58.2902
1.941265 79.614 -58.7117
1.955332 79.817 -59.1353
1.969501 80.010 -59.5604
1.983773 80.194 -59.9864
1.998148 80.369 -60.4127
2.012627 80.536 -60.8388
2.027212 80.696 -61.2641
2.041902 80.850 -61.6884
2.056698 81.000 -62.1112
2.071602 81.146 -62.5321
2.086614 81.290 -62.9510
2.101734 81.433 -63.3676
2.116964 81.575 -63.7818
2.132304 81.719 -64.1936
2.147756 81.864 -64.6033
2.163320 82.011 -65.0114
2.178996 82.160 -65.4187
2.194786 82.311 -65.8263
2.210690 82.462 -66.2355
2.226710 82.612 -66.6477
2.242845 82.760 -67.0637
2.259098 82.905 -67.4837
2.275468 83.047 -67.9077
2.291957 83.186 -68.3354
2.308566 83.321 -68.7662
2.325295 83.452 -69.1994
2.342145 83.581 -69.6342
2.359117 83.706 -70.0698
2.376212 83.829 -70.5057
2.393431 83.948 -70.9409
2.410775 84.066 -71.3748
2.428244 84.181 -71.8067
2.445840 84.295 -72.2360
2.463564 84.407 -72.6622
2.481416 84.517 -73.0848
2.499397 84.627 -73.5036
2.517509 84.735 -73.9185
2.535752 84.843 -74.3301
2.554127 84.949 -74.7391
2.572635 85.054 -75.1467
2.591277 85.158 -75.5542
2.610055 85.259 -75.9626
2.628968 85.358 -76.3727
2.648019 85.455 -76.7846
2.667208 85.549 -77.1982
2.686535 85.642 -77.6131
2.706003 85.731 -78.0286
2.725612 85.819 -78.4441
2.745363 85.905 -78.8587
2.765257 85.989 -79.2718
2.785295 86.071 -79.6825
2.805478 86.152 -80.0900
2.825808 86.232 -80.4937
2.846285 86.310 -80.8928
2.866910 86.387 -81.2871
2.887685 86.463 -81.6763
2.908611 86.538 -82.0607
2.929688 86.612 -82.4409
2.950917 86.684 -82.8178
2.972301 86.755 -83.1924
2.993839 86.824 -83.5655
3.015534 86.891 -83.9373
3.037386 86.956 -84.3079
3.059396 87.020 -84.6771
3.081565 87.082 -85.0445
3.103896 87.143 -85.4094
3.126388 87.202 -85.7712
3.149043 87.260 -86.1292
3.171862 87.317 -86.4827
3.194847 87.373 -86.8309
3.217998 87.428 -87.1734
3.241317 87.482 -87.5095
3.264805 87.536 -87.8390
3.288463 87.588 -88.1620
3.312293 87.640 -88.4786
3.336295 87.691 -88.7894
3.360471 87.741 -89.0949
3.384822 87.790 -89.3955
3.409350 87.837 -89.6916
3.434056 87.883 -89.9833
3.458940 87.929 -90.2706
3.484005 87.973 -90.5537
3.509252 88.017 -90.8325
3.534681 88.060 -91.1068
3.560295 88.103 -91.3765
3.586094 88.146 -91.6416
3.612081 88.188 -91.9017
3.638255 88.230 -92.1568
3.664620 88.272 -92.4066
3.691175 88.314 -92.6512
3.717923 88.355 -92.8904
3.744864 88.396 -93.1246
3.772001 88.437 -93.3540
3.799335 88.477 -93.5790
3.826866 88.517 -93.8000
3.854597 88.557 -94.0176
3.882529 88.596 -94.2322
3.910664 88.636 -94.4442
3.939002 88.675 -94.6540
3.967546 88.715 -94.8617
3.996296 88.755 -95.0676
4.025255 88.795 -95.2716
4.054423 88.836 -95.4733
4.083804 88.876 -95.6727
4.113396 88.917 -95.8699
4.143204 88.958 -96.0649
4.173227 88.999 -96.2585
4.203468 89.040 -96.4510
4.233928 89.081 -96.6434
4.264609 89.122 -96.8363
4.295512 89.164 -97.0304
4.326639 89.205 -97.2263
4.357992 89.247 -97.4245
4.389572 89.289 -97.6251
4.421380 89.331 -97.8282
4.453419 89.373 -98.0337
4.485691 89.415 -98.2413
4.518196 89.457 -98.4513
4.550936 89.500 -98.6635
4.583914 89.542 -98.8784
4.617131 89.584 -99.0961
4.650589 89.626 -99.3170
4.684289 89.668 -99.5413
4.718233 89.709 -99.7695
4.752424 89.750 -100.0018
4.786862 89.791 -100.2383
4.821549 89.831 -100.4790
4.856488 89.871 -100.7238
4.891680 89.911 -100.9725
4.927127 89.950 -101.2248
4.962831 89.989 -101.4802
4.998794 90.027 -101.7386
5.035017 90.065 -101.9996
5.071503 90.102 -102.2630
5.108253 90.138 -102.5290
5.145270 90.173 -102.7974
5.182555 90.208 -103.0685
5.220110 90.242 -103.3422
5.257937 90.275 -103.6181
5.296038 90.308 -103.8958
5.334415 90.339 -104.1747
5.373071 90.371 -104.4541
5.412006 90.401 -104.7334
5.451224 90.431 -105.0122
5.490725 90.460 -105.2902
5.530514 90.488 -105.5673
5.570590 90.516 -105.8436
5.610957 90.542 -106.1190
5.651616 90.569 -106.3933
5.692570 90.595 -106.6661
5.733821 90.620 -106.9370
5.775370 90.645 -107.2055
5.817221 90.670 -107.4713
5.859375 90.694 -107.7340
5.901834 90.719 -107.9935
5.944602 90.743 -108.2498
5.987679 90.767 -108.5032
6.031068 90.791 -108.7538
6.074771 90.815 -109.0018
6.118792 90.839 -109.2472
6.163131 90.864 -109.4903
6.207792 90.888 -109.7310
6.252776 90.914 -109.9693
6.298086 90.939 -110.2054
6.343725 90.965 -110.4394
6.389694 90.992 -110.6719
6.435996 91.019 -110.9032
6.482634 91.047 -111.1340
6.529610 91.075 -111.3647
6.576926 91.104 -111.5959
6.624585 91.133 -111.8276
6.672590 91.163 -112.0601
6.720942 91.194 -112.2935
6.769645 91.225 -112.5282
6.818700 91.257 -112.7646
6.868111 91.289 -113.0031
6.917881 91.322 -113.2442
6.968010 91.355 -113.4881
7.018504 91.389 -113.7348
7.069362 91.422 -113.9845
7.120590 91.456 -114.2369
7.172189 91.491 -114.4920
7.224161 91.525 -114.7496
7.276511 91.559 -115.0095
7.329239 91.594 -115.2718
7.382350 91.628 -115.5362
7.435845 91.662 -115.8026
7.489729 91.696 -116.0704
7.544002 91.730 -116.3391
7.598669 91.764 -116.6082
7.653732 91.798 -116.8771
7.709194 91.831 -117.1453
7.765058 91.864 -117.4127
7.821327 91.897 -117.6786
7.878004 91.929 -117.9429
7.935091 91.962 -118.2048
7.992592 91.994 -118.4638
8.050510 92.027 -118.7194
8.108847 92.059 -118.9715
8.167607 92.091 -119.2197
8.226793 92.124 -119.4639
8.286408 92.156 -119.7041
8.346454 92.189 -119.9402
8.406936 92.222 -120.1721
8.467856 92.256 -120.3998
8.529218 92.290 -120.6233
8.591024 92.325 -120.8430
8.653278 92.360 -121.0592
8.715983 92.395 -121.2722
8.779143 92.431 -121.4825
8.842760 92.468 -121.6901
8.906839 92.505 -121.8955
8.971381 92.543 -122.0990
9.036392 92.581 -122.3010
9.101873 92.620 -122.5019
9.167829 92.659 -122.7019
9.234263 92.698 -122.9013
9.301178 92.738 -123.1002
9.368578 92.778 -123.2987
9.436467 92.817 -123.4967
9.504847 92.857 -123.6944
9.573723 92.897 -123.8915
9.643099 92.936 -124.0879
9.712976 92.973 -124.2834
9.783361 93.009 -124.4777
9.854255 93.043 -124.6703
9.925663 93.075 -124.8609
9.997588 93.104 -125.0492
10.070035 93.130 -125.2349
10.143007 93.154 -125.4176
10.216507 93.176 -125.5968
10.290540 93.197 -125.7725
10.365109 93.216 -125.9442
10.440219 93.234 -126.1120
10.515873 93.251 -126.2757
10.592076 93.268 -126.4354
10.668830 93.284 -126.5910
10.746141 93.300 -126.7428
10.824012 93.317 -126.8910
10.902447 93.333 -127.0360
10.981451 93.349 -127.1780
11.061027 93.365 -127.3174
11.141180 93.381 -127.4547
11.221913 93.398 -127.5902
11.303232 93.414 -127.7243
11.385140 93.430 -127.8574
11.467641 93.446 -127.9899
11.550741 93.463 -128.1219
11.634442 93.479 -128.2539
11.718750 93.495 -128.3858
11.803669 93.512 -128.5179
11.889203 93.529 -128.6501
11.975357 93.546 -128.7826
12.062136 93.562 -128.9152
12.149543 93.579 -129.0480
12.237583 93.596 -129.1808
12.326262 93.613 -129.3135
12.415583 93.629 -129.4462
12.505552 93.645 -129.5787
12.596172 93.660 -129.7111
12.687449 93.676 -129.8434
12.779387 93.691 -129.9757
12.871992 93.706 -130.1081
12.965268 93.720 -130.2406
13.059220 93.735 -130.3736
13.153852 93.749 -130.5073
13.249170 93.764 -130.6417
13.345179 93.779 -130.7773
13.441884 93.794 -130.9140
13.539289 93.809 -131.0522
13.637401 93.825 -131.1920
13.736223 93.840 -131.3336
13.835761 93.856 -131.4769
13.936021 93.872 -131.6221
14.037007 93.887 -131.7691
14.138725 93.902 -131.9180
14.241180 93.918 -132.0688
14.344377 93.933 -132.2214
14.448323 93.948 -132.3758
14.553021 93.963 -132.5321
14.658478 93.978 -132.6902
14.764700 93.993 -132.8501
14.871691 94.009 -133.0119
14.979457 94.024 -133.1756
15.088005 94.040 -133.3412
15.197339 94.057 -133.5089
15.307465 94.074 -133.6786
15.418389 94.091 -133.8503
15.530117 94.108 -134.0239
15.642655 94.125 -134.1993
15.756008 94.143 -134.3765
15.870182 94.161 -134.5552
15.985184 94.179 -134.7352
16.101019 94.197 -134.9164
16.217694 94.216 -135.0984
16.335214 94.234 -135.2810
16.453586 94.254 -135.4641
16.572815 94.273 -135.6474
16.692909 94.294 -135.8309
16.813872 94.314 -136.0144
16.935713 94.336 -136.1979
17.058436 94.358 -136.3813
17.182048 94.381 -136.5647
17.306556 94.405 -136.7480
17.431967 94.429 -136.9312
17.558286 94.453 -137.1143
17.685521 94.478 -137.2971
17.813677 94.502 -137.4795
17.942762 94.527 -137.6613
18.072783 94.552 -137.8423
18.203746 94.577 -138.0222
18.335658 94.603 -138.2009
18.468526 94.628 -138.3781
18.602356 94.654 -138.5535
18.737156 94.679 -138.7271
18.872934 94.705 -138.8987
19.009695 94.731 -139.0685
19.147447 94.758 -139.2363
19.286197 94.785 -139.4024
19.425953 94.811 -139.5668
19.566721 94.838 -139.7298
19.708510 94.865 -139.8916
19.851326 94.892 -140.0523
19.995177 94.918 -140.2121
20.140070 94.944 -140.3712
20.286013 94.970 -140.5297
20.433014 94.996 -140.6877
20.581080 95.022 -140.8455
20.730219 95.047 -141.0030
20.880439 95.072 -141.1604
21.031747 95.097 -141.3178
21.184152 95.121 -141.4754
21.337661 95.146 -141.6333
21.492282 95.170 -141.7918
21.648024 95.195 -141.9508
21.804895 95.219 -142.1107
21.962902 95.243 -142.2717
22.122054 95.267 -142.4338
22.282360 95.290 -142.5974
22.443827 95.314 -142.7627
22.606464 95.337 -142.9300
22.770280 95.360 -143.0993
22.935283 95.382 -143.2710
23.101481 95.405 -143.4451
23.268884 95.427 -143.6217
23.437500 95.449 -143.8009
23.607338 95.471 -143.9825
23.778406 95.492 -144.1664
23.950714 95.513 -144.3523
24.124271 95.534 -144.5400
24.299086 95.554 -144.7293
24.475167 95.575 -144.9198
24.652524 95.595 -145.1114
24.831166 95.616 -145.3039
25.011103 95.636 -145.4972
25.192344 95.657 -145.6912
25.374898 95.678 -145.8859
25.558775 95.699 -146.0812
25.743984 95.720 -146.2769
25.930536 95.742 -146.4730
26.118439 95.764 -146.6692
26.307704 95.786 -146.8656
26.498341 95.808 -147.0619
26.690359 95.831 -147.2584
26.883768 95.854 -147.4551
27.078579 95.877 -147.6522
27.274801 95.900 -147.8500
27.472446 95.924 -148.0486
27.671522 95.947 -148.2481
27.872042 95.970 -148.4486
28.074014 95.993 -148.6500
28.277450 96.015 -148.8519
28.482360 96.038 -149.0540
28.688755 96.059 -149.2559
28.896645 96.081 -149.4575
29.106042 96.102 -149.6584
29.316957 96.122 -149.8587
29.529400 96.142 -150.0585
29.743382 96.163 -150.2582
29.958915 96.183 -150.4580
30.176009 96.202 -150.6584
30.394677 96.222 -150.8596
30.614929 96.242 -151.0621
30.836778 96.261 -151.2659
31.060234 96.280 -151.4713
31.285309 96.299 -151.6784
31.512015 96.318 -151.8875
31.740364 96.336 -152.0985
31.970368 96.354 -152.3118
32.202039 96.373 -152.5272
32.435388 96.390 -152.7450
32.670428 96.408 -152.9651
32.907171 96.426 -153.1875
33.145630 96.443 -153.4119
33.385817 96.460 -153.6384
33.627745 96.478 -153.8667
33.871425 96.495 -154.0965
34.116871 96.512 -154.3278
34.364096 96.529 -154.5602
34.613113 96.546 -154.7935
34.863934 96.562 -155.0274
35.116572 96.579 -155.2617
35.371041 96.595 -155.4962
35.627354 96.611 -155.7305
35.885525 96.627 -155.9644
36.145566 96.643 -156.1976
36.407492 96.659 -156.4299
36.671316 96.674 -156.6612
36.937051 96.689 -156.8913
37.204712 96.704 -157.1201
37.474313 96.718 -157.3480
37.745867 96.733 -157.5751
38.019389 96.747 -157.8020
38.294893 96.762 -158.0290
38.572394 96.776 -158.2567
38.851905 96.790 -158.4854
39.133442 96.803 -158.7154
39.417019 96.816 -158.9465
39.702651 96.829 -159.1788
39.990353 96.842 -159.4121
40.280140 96.854 -159.6462
40.572026 96.866 -159.8810
40.866028 96.877 -160.1165
41.162160 96.889 -160.3530
41.460438 96.900 -160.5906
41.760877 96.911 -160.8293
42.063494 96.921 -161.0691
42.368303 96.932 -161.3100
42.675322 96.942 -161.5518
42.984565 96.951 -161.7941
43.296048 96.961 -162.0370
43.609789 96.970 -162.2802
43.925804 96.979 -162.5237
44.244108 96.988 -162.7676
44.564719 96.997 -163.0116
44.887654 97.005 -163.2556
45.212928 97.013 -163.4996
45.540560 97.022 -163.7434
45.870565 97.030 -163.9873
46.202962 97.037 -164.2313
46.537768 97.045 -164.4760
46.875000 97.053 -164.7213
47.214676 97.060 -164.9675
47.556813 97.068 -165.2145
47.901429 97.075 -165.4621
48.248542 97.082 -165.7100
48.598171 97.088 -165.9579
48.950334 97.094 -166.2054
49.305048 97.100 -166.4518
49.662333 97.106 -166.6963
50.022206 97.112 -166.9388
50.384688 97.117 -167.1798
50.749796 97.123 -167.4205
51.117550 97.129 -167.6626
51.487969 97.136 -167.9074
51.861072 97.141 -168.1552
52.236879 97.146 -168.4051
52.615409 97.151 -168.6551
52.996681 97.155 -168.9037
53.380717 97.159 -169.1499
53.767536 97.163 -169.3942
54.157158 97.167 -169.6378
54.549603 97.172 -169.8819
54.944892 97.176 -170.1276
55.343045 97.181 -170.3753
55.744084 97.186 -170.6251
56.148028 97.191 -170.8774
56.554900 97.196 -171.1328
56.964720 97.201 -171.3919
57.377510 97.205 -171.6552
57.793291 97.210 -171.9225
58.212085 97.214 -172.1937
58.633914 97.217 -172.4680
59.058799 97.220 -172.7448
59.486764 97.221 -173.0228
59.917829 97.222 -173.3010
60.352019 97.222 -173.5780
60.789354 97.220 -173.8530
61.229859 97.219 -174.1255
61.673556 97.216 -174.3957
62.120468 97.214 -174.6640
62.570618 97.211 -174.9311
63.024031 97.207 -175.1973
63.480729 97.204 -175.4628
63.940736 97.200 -175.7278
64.404077 97.195 -175.9922
64.870776 97.191 -176.2561
65.340856 97.186 -176.5194
65.814343 97.181 -176.7822
66.291261 97.176 -177.0443
66.771635 97.170 -177.3060
67.255489 97.165 -177.5671
67.742850 97.158 -177.8274
68.233743 97.152 -178.0866
68.728193 97.146 -178.3446
69.226226 97.139 -178.6010
69.727867 97.132 -178.8557
70.233144 97.125 -179.1080
70.742083 97.117 -179.3576
71.254709 97.110 -179.6045
71.771050 97.103 -179.8490
72.291132 97.096 179.9083
72.814984 97.090 179.6668
73.342631 97.083 179.4265
73.874102 97.077 179.1873
74.409424 97.071 178.9496
74.948626 97.065 178.7134
75.491734 97.060 178.4786
76.038779 97.056 178.2439
76.589787 97.052 178.0071
77.144788 97.049 177.7656
77.703811 97.047 177.5172
78.266885 97.045 177.2599
78.834039 97.043 176.9921
79.405303 97.041 176.7125
79.980706 97.038 176.4201
80.560280 97.035 176.1150
81.144053 97.030 175.7983
81.732056 97.023 175.4717
82.324320 97.015 175.1380
82.920876 97.004 174.8002
83.521755 96.991 174.4618
