* Measurement data measured by REW V5.30.5
* Source: EXCL: Microphone (Realtek(R) Audio), MICROPHONE (Master Volume), L, volume: 1.000
* Format: 256k Log Swept Sine, 1 sweep at -10.0 dBFS with no timing reference
* Dated: Feb 1, 2024 1:35:12 PM
* REW Settings:
*  C-weighting compensation: Off
*  Target level: 75.0 dB
* Note: CCA Trio 0000 L
* Measurement: L CCA Trio 0000
* Smoothing: 1/12 octave
* Frequency Step: 96 ppo
* Start Frequency: 0.36621094 Hz
*
* Freq(Hz) SPL(dB) Phase(degrees)
0.366211 68.801 34.0601
0.368865 68.823 34.0373
0.371538 68.855 34.0037
0.374230 68.894 33.9626
0.376942 68.939 33.9170
0.379673 68.987 33.8688
0.382424 69.037 33.8195
0.385196 69.088 33.7697
0.387987 69.140 33.7201
0.390798 69.193 33.6708
0.393630 69.246 33.6219
0.396483 69.299 33.5736
0.399356 69.353 33.5258
0.402250 69.408 33.4785
0.405165 69.463 33.4317
0.408101 69.518 33.3853
0.411058 69.574 33.3394
0.414037 69.630 33.2940
0.417037 69.686 33.2489
0.420059 69.743 33.2041
0.423103 69.800 33.1597
0.426169 69.858 33.1155
0.429257 69.916 33.0715
0.432367 69.974 33.0278
0.435501 70.033 32.9841
0.438656 70.093 32.9406
0.441835 70.153 32.8972
0.445037 70.213 32.8538
0.448262 70.273 32.8103
0.451510 70.335 32.7668
0.454782 70.396 32.7231
0.458077 70.458 32.6793
0.461397 70.521 32.6353
0.464740 70.583 32.5909
0.468108 70.647 32.5463
0.471500 70.711 32.5013
0.474917 70.775 32.4558
0.478358 70.840 32.4098
0.481825 70.905 32.3633
0.485316 70.971 32.3162
0.488833 71.037 32.2684
0.492375 71.103 32.2198
0.495943 71.171 32.1705
0.499537 71.238 32.1204
0.503157 71.306 32.0693
0.506803 71.375 32.0173
0.510475 71.444 31.9642
0.514174 71.514 31.9100
0.517900 71.584 31.8546
0.521653 71.654 31.7980
0.525433 71.725 31.7401
0.529241 71.797 31.6808
0.533076 71.869 31.6201
0.536939 71.942 31.5578
0.540830 72.015 31.4940
0.544749 72.089 31.4285
0.548696 72.163 31.3613
0.552673 72.238 31.2924
0.556677 72.313 31.2215
0.560711 72.389 31.1487
0.564774 72.466 31.0738
0.568867 72.543 30.9969
0.572989 72.620 30.9178
0.577141 72.699 30.8365
0.581324 72.777 30.7528
0.585536 72.856 30.6668
0.589779 72.936 30.5782
0.594053 73.017 30.4871
0.598358 73.098 30.3934
0.602694 73.179 30.2969
0.607061 73.262 30.1977
0.611460 73.344 30.0955
0.615891 73.428 29.9904
0.620354 73.512 29.8823
0.624849 73.596 29.7710
0.629377 73.682 29.6566
0.633938 73.767 29.5388
0.638532 73.854 29.4176
0.643159 73.941 29.2930
0.647819 74.029 29.1648
0.652514 74.117 29.0330
0.657242 74.206 28.8974
0.662005 74.296 28.7581
0.666802 74.386 28.6148
0.671634 74.477 28.4675
0.676501 74.569 28.3161
0.681403 74.661 28.1606
0.686341 74.754 28.0008
0.691314 74.847 27.8366
0.696324 74.941 27.6680
0.701369 75.036 27.4950
0.706452 75.131 27.3174
0.711571 75.227 27.1355
0.716727 75.322 26.9492
0.721921 75.418 26.7588
0.727153 75.513 26.5649
0.732422 75.607 26.3681
0.737729 75.699 26.1690
0.743075 75.791 25.9686
0.748460 75.882 25.7675
0.753883 75.973 25.5660
0.759346 76.063 25.3646
0.764849 76.153 25.1633
0.770391 76.244 24.9622
0.775974 76.334 24.7614
0.781597 76.425 24.5606
0.787261 76.516 24.3600
0.792965 76.607 24.1594
0.798712 76.699 23.9588
0.804499 76.791 23.7581
0.810329 76.883 23.5571
0.816201 76.975 23.3558
0.822116 77.067 23.1542
0.828073 77.160 22.9520
0.834073 77.253 22.7492
0.840118 77.346 22.5457
0.846205 77.440 22.3415
0.852337 77.534 22.1363
0.858514 77.628 21.9301
0.864735 77.722 21.7228
0.871001 77.816 21.5143
0.877313 77.911 21.3044
0.883670 78.006 21.0931
0.890074 78.102 20.8802
0.896523 78.197 20.6655
0.903020 78.293 20.4491
0.909564 78.389 20.2307
0.916155 78.486 20.0103
0.922793 78.582 19.7877
0.929480 78.679 19.5627
0.936216 78.777 19.3353
0.943000 78.874 19.1053
0.949833 78.972 18.8725
0.956716 79.070 18.6369
0.963649 79.169 18.3983
0.970632 79.268 18.1566
0.977666 79.367 17.9116
0.984750 79.467 17.6631
0.991886 79.566 17.4110
0.999074 79.667 17.1553
1.006313 79.767 16.8956
1.013605 79.868 16.6319
1.020950 79.969 16.3640
1.028349 80.071 16.0917
1.035801 80.173 15.8150
1.043306 80.275 15.5335
1.050867 80.378 15.2473
1.058482 80.481 14.9562
1.066152 80.585 14.6601
1.073878 80.689 14.3590
1.081659 80.793 14.0530
1.089498 80.898 13.7424
1.097393 81.003 13.4275
1.105345 81.108 13.1090
1.113355 81.214 12.7873
1.121422 81.320 12.4632
1.129549 81.426 12.1368
1.137734 81.532 11.8087
1.145978 81.639 11.4789
1.154283 81.746 11.1475
1.162647 81.852 10.8147
1.171072 81.960 10.4805
1.179558 82.067 10.1448
1.188106 82.174 9.8078
1.196715 82.282 9.4694
1.205387 82.389 9.1296
1.214122 82.497 8.7884
1.222920 82.605 8.4458
1.231781 82.713 8.1017
1.240708 82.822 7.7561
1.249698 82.930 7.4091
1.258754 83.039 7.0605
1.267875 83.148 6.7103
1.277063 83.257 6.3584
1.286317 83.366 6.0049
1.295638 83.476 5.6496
1.305027 83.586 5.2925
1.314484 83.695 4.9335
1.324009 83.805 4.5726
1.333603 83.916 4.2096
1.343267 84.026 3.8444
1.353001 84.137 3.4771
1.362805 84.247 3.1074
1.372681 84.359 2.7354
1.382628 84.470 2.3608
1.392647 84.581 1.9837
1.402739 84.693 1.6039
1.412904 84.805 1.2213
1.423142 84.917 0.8359
1.433455 85.029 0.4477
1.443842 85.142 0.0568
1.454305 85.255 -0.3366
1.464843 85.367 -0.7322
1.475458 85.480 -1.1297
1.486150 85.593 -1.5285
1.496919 85.706 -1.9284
1.507766 85.820 -2.3291
1.518692 85.933 -2.7306
1.529697 86.046 -3.1328
1.540782 86.159 -3.5358
1.551947 86.272 -3.9396
1.563193 86.385 -4.3444
1.574521 86.498 -4.7503
1.585931 86.611 -5.1574
1.597423 86.724 -5.5658
1.608998 86.837 -5.9759
1.620658 86.950 -6.3877
1.632402 87.063 -6.8014
1.644231 87.176 -7.2173
1.656146 87.289 -7.6355
1.668147 87.402 -8.0562
1.680235 87.515 -8.4797
1.692410 87.628 -8.9062
1.704674 87.740 -9.3359
1.717027 87.853 -9.7691
1.729469 87.966 -10.2061
1.742002 88.079 -10.6470
1.754625 88.192 -11.0922
1.767340 88.305 -11.5418
1.780147 88.418 -11.9962
1.793046 88.531 -12.4555
1.806040 88.644 -12.9200
1.819127 88.757 -13.3895
1.832309 88.869 -13.8642
1.845587 88.982 -14.3438
1.858961 89.095 -14.8281
1.872431 89.207 -15.3168
1.886000 89.319 -15.8095
1.899666 89.431 -16.3058
1.913432 89.542 -16.8056
1.927298 89.654 -17.3085
1.941264 89.765 -17.8142
1.955331 89.876 -18.3226
1.969500 89.986 -18.8334
1.983772 90.096 -19.3465
1.998147 90.206 -19.8617
2.012626 90.316 -20.3788
2.027211 90.426 -20.8979
2.041901 90.535 -21.4187
2.056697 90.644 -21.9413
2.071601 90.753 -22.4656
2.086613 90.861 -22.9916
2.101733 90.970 -23.5194
2.116963 91.078 -24.0490
2.132303 91.186 -24.5806
2.147755 91.294 -25.1144
2.163318 91.401 -25.6506
2.178995 91.508 -26.1897
2.194785 91.615 -26.7319
2.210689 91.722 -27.2778
2.226709 91.828 -27.8277
2.242844 91.934 -28.3816
2.259097 92.039 -28.9396
2.275467 92.143 -29.5015
2.291956 92.248 -30.0668
2.308565 92.351 -30.6353
2.325294 92.455 -31.2065
2.342144 92.557 -31.7802
2.359116 92.659 -32.3558
2.376211 92.761 -32.9330
2.393430 92.862 -33.5115
2.410774 92.963 -34.0910
2.428243 93.063 -34.6712
2.445839 93.163 -35.2520
2.463562 93.263 -35.8331
2.481415 93.361 -36.4144
2.499396 93.460 -36.9961
2.517508 93.558 -37.5782
2.535750 93.656 -38.1613
2.554126 93.753 -38.7457
2.572634 93.849 -39.3323
2.591276 93.945 -39.9217
2.610054 94.041 -40.5146
2.628967 94.135 -41.1110
2.648018 94.229 -41.7110
2.667206 94.322 -42.3141
2.686534 94.414 -42.9201
2.706002 94.506 -43.5282
2.725610 94.597 -44.1380
2.745361 94.687 -44.7488
2.765255 94.777 -45.3602
2.785294 94.866 -45.9715
2.805477 94.954 -46.5822
2.825807 95.042 -47.1919
2.846284 95.129 -47.8004
2.866909 95.215 -48.4075
2.887684 95.301 -49.0133
2.908609 95.386 -49.6183
2.929686 95.471 -50.2230
2.950916 95.555 -50.8285
2.972299 95.638 -51.4356
2.993838 95.720 -52.0447
3.015532 95.801 -52.6561
3.037384 95.881 -53.2695
3.059394 95.961 -53.8844
3.081564 96.039 -54.5003
3.103894 96.117 -55.1164
3.126386 96.194 -55.7320
3.149041 96.271 -56.3463
3.171861 96.346 -56.9586
3.194845 96.421 -57.5684
3.217996 96.495 -58.1750
3.241315 96.569 -58.7783
3.264803 96.641 -59.3783
3.288461 96.714 -59.9755
3.312291 96.785 -60.5706
3.336293 96.855 -61.1644
3.360469 96.925 -61.7575
3.384820 96.994 -62.3503
3.409348 97.061 -62.9428
3.434054 97.128 -63.5347
3.458938 97.194 -64.1253
3.484003 97.260 -64.7142
3.509250 97.324 -65.3005
3.534679 97.388 -65.8836
3.560293 97.451 -66.4629
3.586092 97.514 -67.0379
3.612079 97.576 -67.6082
3.638253 97.637 -68.1738
3.664618 97.698 -68.7350
3.691173 97.758 -69.2923
3.717921 97.817 -69.8464
3.744862 97.876 -70.3977
3.771999 97.933 -70.9462
3.799332 97.990 -71.4920
3.826864 98.047 -72.0347
3.854595 98.102 -72.5738
3.882527 98.158 -73.1089
3.910661 98.212 -73.6395
3.938999 98.266 -74.1650
3.967543 98.320 -74.6851
3.996294 98.374 -75.1995
4.025252 98.427 -75.7083
4.054421 98.479 -76.2116
4.083801 98.531 -76.7098
4.113394 98.583 -77.2032
4.143201 98.634 -77.6919
4.173225 98.685 -78.1762
4.203466 98.735 -78.6558
4.233926 98.785 -79.1309
4.264606 98.835 -79.6012
4.295509 98.885 -80.0665
4.326636 98.934 -80.5267
4.357989 98.984 -80.9817
4.389569 99.033 -81.4313
4.421378 99.082 -81.8755
4.453417 99.132 -82.3145
4.485688 99.181 -82.7485
4.518193 99.229 -83.1775
4.550934 99.278 -83.6019
4.583912 99.327 -84.0219
4.617129 99.376 -84.4376
4.650587 99.424 -84.8492
4.684287 99.473 -85.2568
4.718231 99.522 -85.6605
4.752421 99.571 -86.0602
4.786859 99.621 -86.4559
4.821547 99.670 -86.8477
4.856485 99.720 -87.2356
4.891677 99.769 -87.6198
4.927125 99.819 -88.0006
4.962829 99.869 -88.3783
4.998791 99.919 -88.7534
5.035015 99.970 -89.1260
5.071500 100.020 -89.4964
5.108251 100.071 -89.8649
5.145267 100.122 -90.2314
5.182552 100.173 -90.5961
5.220107 100.224 -90.9587
5.257934 100.275 -91.3196
5.296035 100.326 -91.6788
5.334412 100.378 -92.0367
5.373067 100.429 -92.3933
5.412003 100.481 -92.7490
5.451221 100.533 -93.1041
5.490722 100.584 -93.4586
5.530510 100.636 -93.8127
5.570587 100.687 -94.1663
5.610953 100.739 -94.5193
5.651613 100.790 -94.8718
5.692567 100.842 -95.2237
5.733818 100.893 -95.5750
5.775367 100.944 -95.9255
5.817218 100.995 -96.2755
5.859372 101.045 -96.6248
5.901831 101.095 -96.9737
5.944598 101.145 -97.3219
5.987675 101.195 -97.6694
6.031065 101.244 -98.0159
6.074768 101.293 -98.3610
6.118788 101.341 -98.7045
6.163127 101.389 -99.0460
6.207788 101.437 -99.3854
6.252772 101.484 -99.7226
6.298082 101.531 -100.0575
6.343721 101.577 -100.3900
6.389690 101.623 -100.7198
6.435992 101.669 -101.0466
6.482630 101.714 -101.3698
6.529606 101.759 -101.6891
6.576922 101.803 -102.0042
6.624581 101.848 -102.3148
6.672585 101.892 -102.6211
6.720938 101.936 -102.9229
6.769640 101.980 -103.2202
6.818696 102.023 -103.5129
6.868107 102.067 -103.8010
6.917876 102.111 -104.0843
6.968006 102.156 -104.3628
7.018499 102.200 -104.6364
7.069358 102.245 -104.9056
7.120586 102.291 -105.1707
7.172184 102.337 -105.4323
7.224157 102.383 -105.6911
7.276506 102.431 -105.9476
7.329235 102.479 -106.2022
7.382345 102.528 -106.4554
7.435841 102.578 -106.7077
7.489724 102.629 -106.9602
7.543997 102.680 -107.2139
7.598664 102.733 -107.4702
7.653728 102.786 -107.7302
7.709189 102.841 -107.9947
7.765053 102.896 -108.2645
7.821322 102.952 -108.5402
7.877998 103.008 -108.8229
7.935086 103.066 -109.1137
7.992587 103.123 -109.4137
8.050504 103.180 -109.7238
8.108841 103.238 -110.0446
8.167601 103.295 -110.3764
8.226787 103.352 -110.7194
8.286402 103.409 -111.0735
8.346449 103.464 -111.4389
8.406931 103.518 -111.8157
8.467851 103.571 -112.2036
8.529212 103.622 -112.6022
8.591018 103.671 -113.0105
8.653272 103.718 -113.4271
8.715977 103.763 -113.8507
8.779137 103.806 -114.2799
8.842754 103.845 -114.7136
8.906833 103.882 -115.1501
8.971375 103.915 -115.5877
9.036386 103.946 -116.0237
9.101867 103.974 -116.4558
9.167823 103.999 -116.8817
9.234257 104.020 -117.2996
9.301172 104.039 -117.7075
9.368572 104.055 -118.1032
9.436460 104.069 -118.4843
9.504841 104.081 -118.8486
9.573717 104.091 -119.1943
9.643092 104.099 -119.5202
9.712970 104.106 -119.8254
9.783354 104.112 -120.1092
9.854248 104.119 -120.3711
9.925656 104.126 -120.6109
9.997581 104.133 -120.8291
10.070028 104.142 -121.0269
10.143000 104.152 -121.2063
10.216500 104.165 -121.3695
10.290533 104.180 -121.5187
10.365103 104.198 -121.6565
10.440212 104.219 -121.7861
10.515866 104.243 -121.9110
10.592069 104.270 -122.0351
10.668823 104.300 -122.1617
10.746134 104.333 -122.2937
10.824005 104.368 -122.4339
10.902440 104.405 -122.5851
10.981443 104.444 -122.7496
11.061020 104.484 -122.9289
11.141172 104.525 -123.1239
11.221906 104.566 -123.3345
11.303225 104.607 -123.5603
11.385133 104.647 -123.8005
11.467634 104.685 -124.0537
11.550734 104.722 -124.3177
11.634435 104.757 -124.5897
11.718742 104.790 -124.8668
11.803661 104.820 -125.1462
11.889195 104.849 -125.4251
11.975349 104.875 -125.7004
12.062128 104.900 -125.9692
12.149535 104.923 -126.2291
12.237576 104.945 -126.4785
12.326254 104.967 -126.7162
12.415575 104.989 -126.9415
12.505544 105.011 -127.1546
12.596164 105.034 -127.3564
12.687441 105.058 -127.5486
12.779379 105.084 -127.7338
12.871984 105.112 -127.9146
12.965260 105.143 -128.0943
13.059211 105.175 -128.2763
13.153843 105.210 -128.4643
13.249161 105.247 -128.6617
13.345170 105.285 -128.8712
13.441875 105.325 -129.0951
13.539280 105.365 -129.3351
13.637391 105.405 -129.5921
13.736214 105.444 -129.8659
13.835752 105.482 -130.1554
13.936011 105.518 -130.4588
14.036998 105.551 -130.7738
14.138716 105.583 -131.0970
14.241171 105.611 -131.4247
14.344368 105.636 -131.7531
14.448313 105.659 -132.0785
14.553011 105.678 -132.3970
14.658468 105.696 -132.7051
14.764689 105.711 -133.0002
14.871680 105.725 -133.2801
14.979446 105.738 -133.5436
15.087994 105.751 -133.7901
15.197328 105.764 -134.0200
15.307454 105.778 -134.2348
15.418378 105.793 -134.4362
15.530106 105.810 -134.6267
15.642643 105.828 -134.8090
15.755996 105.848 -134.9861
15.870171 105.870 -135.1605
15.985172 105.894 -135.3347
16.101007 105.919 -135.5106
16.217682 105.945 -135.6894
16.335201 105.972 -135.8718
16.453573 105.999 -136.0578
16.572803 106.026 -136.2468
16.692898 106.054 -136.4379
16.813862 106.082 -136.6301
16.935701 106.109 -136.8220
17.058424 106.137 -137.0128
17.182035 106.165 -137.2020
17.306543 106.194 -137.3893
17.431953 106.223 -137.5754
17.558273 106.254 -137.7614
17.685509 106.286 -137.9490
17.813665 106.319 -138.1404
17.942751 106.353 -138.3382
18.072771 106.388 -138.5447
18.203733 106.424 -138.7623
18.335646 106.461 -138.9928
18.468513 106.497 -139.2373
18.602345 106.533 -139.4962
18.737144 106.567 -139.7687
18.872921 106.600 -140.0534
19.009682 106.631 -140.3476
19.147434 106.659 -140.6483
19.286184 106.684 -140.9517
19.425940 106.707 -141.2540
19.566708 106.728 -141.5517
19.708496 106.746 -141.8415
19.851313 106.763 -142.1211
19.995163 106.779 -142.3893
20.140057 106.795 -142.6461
20.285999 106.811 -142.8927
20.433001 106.827 -143.1316
20.581066 106.845 -143.3657
20.730206 106.864 -143.5988
20.880424 106.883 -143.8342
21.031733 106.904 -144.0750
21.184137 106.924 -144.3231
21.337646 106.944 -144.5790
21.492268 106.963 -144.8418
21.648010 106.981 -145.1089
21.804880 106.997 -145.3769
21.962887 107.011 -145.6414
22.122040 107.023 -145.8978
22.282345 107.034 -146.1422
22.443811 107.045 -146.3719
22.606449 107.056 -146.5855
22.770266 107.069 -146.7836
22.935268 107.083 -146.9686
23.101467 107.100 -147.1445
23.268869 107.121 -147.3160
23.437485 107.144 -147.4881
23.607323 107.171 -147.6654
23.778391 107.200 -147.8516
23.950699 107.231 -148.0489
24.124256 107.263 -148.2583
24.299070 107.296 -148.4799
24.475151 107.330 -148.7131
24.652508 107.365 -148.9574
24.831150 107.400 -149.2124
25.011087 107.435 -149.4783
25.192327 107.470 -149.7554
25.374882 107.504 -150.0439
25.558758 107.537 -150.3432
25.743967 107.569 -150.6513
25.930519 107.598 -150.9646
26.118422 107.624 -151.2780
26.307686 107.647 -151.5853
26.498322 107.667 -151.8802
26.690340 107.685 -152.1572
26.883749 107.701 -152.4128
27.078560 107.716 -152.6456
27.274782 107.731 -152.8563
27.472427 107.747 -153.0470
27.671503 107.764 -153.2199
27.872023 107.780 -153.3755
28.073996 107.797 -153.5122
28.277431 107.814 -153.6262
28.482342 107.832 -153.7125
28.688736 107.851 -153.7677
28.896626 107.875 -153.7923
29.106022 107.905 -153.7938
29.316936 107.944 -153.7877
29.529379 107.992 -153.7962
29.743361 108.049 -153.8453
29.958893 108.112 -153.9589
30.175987 108.177 -154.1536
30.394655 108.239 -154.4336
30.614908 108.292 -154.7894
30.836756 108.334 -155.1988
31.060211 108.361 -155.6308
31.285286 108.375 -156.0520
31.511992 108.377 -156.4333
31.740341 108.372 -156.7560
31.970345 108.366 -157.0156
32.202015 108.362 -157.2225
32.435364 108.365 -157.3984
32.670403 108.374 -157.5699
32.907146 108.389 -157.7615
33.145607 108.407 -157.9892
33.385796 108.425 -158.2583
33.627724 108.440 -158.5635
33.871403 108.451 -158.8931
34.116848 108.457 -159.2334
34.364071 108.458 -159.5732
34.613087 108.457 -159.9056
34.863907 108.454 -160.2283
35.116547 108.449 -160.5412
35.371017 108.445 -160.8436
35.627331 108.439 -161.1328
35.885502 108.433 -161.4031
36.145542 108.427 -161.6480
36.407467 108.424 -161.8631
36.671291 108.426 -162.0497
36.937027 108.435 -162.2166
37.204689 108.453 -162.3800
37.474289 108.480 -162.5600
37.745842 108.514 -162.7765
38.019363 108.553 -163.0433
38.294868 108.594 -163.3646
38.572369 108.632 -163.7334
38.851879 108.664 -164.1331
39.133415 108.691 -164.5424
39.416992 108.712 -164.9414
39.702625 108.731 -165.3174
39.990326 108.748 -165.6685
40.280113 108.767 -166.0032
40.571999 108.786 -166.3355
40.866001 108.805 -166.6769
41.162132 108.821 -167.0294
41.460411 108.829 -167.3816
41.760849 108.830 -167.7111
42.063465 108.823 -167.9918
42.368275 108.813 -168.2045
42.675293 108.804 -168.3456
42.984535 108.802 -168.4303
43.296021 108.809 -168.4884
43.609760 108.825 -168.5556
43.925774 108.848 -168.6628
44.244080 108.875 -168.8282
44.564690 108.900 -169.0561
44.887623 108.922 -169.3398
45.212898 108.938 -169.6660
45.540531 108.948 -170.0188
45.870537 108.951 -170.3819
46.202934 108.948 -170.7405
46.537739 108.943 -171.0840
46.874969 108.937 -171.4084
47.214645 108.934 -171.7172
47.556782 108.934 -172.0190
47.901398 108.937 -172.3218
48.248512 108.943 -172.6274
48.598141 108.951 -172.9304
48.950302 108.961 -173.2230
49.305016 108.974 -173.5028
49.662300 108.993 -173.7773
50.022175 109.015 -174.0596
50.384655 109.037 -174.3576
50.749763 109.057 -174.6633
51.117516 109.071 -174.9519
51.487934 109.080 -175.1946
51.861038 109.089 -175.3778
52.236843 109.104 -175.5182
52.615372 109.127 -175.6597
52.996643 109.156 -175.8533
53.380680 109.184 -176.1298
53.767498 109.202 -176.4846
54.157120 109.206 -176.8831
54.549564 109.195 -177.2812
54.944855 109.175 -177.6482
55.343006 109.153 -177.9784
55.744045 109.131 -178.2880
56.147991 109.114 -178.6009
56.554863 109.099 -178.9336
56.964684 109.086 -179.2878
57.377472 109.073 -179.6520
57.793251 109.060 179.9912
58.212044 109.050 179.6565
58.633873 109.043 179.3499
59.058758 109.041 179.0674
59.486721 109.045 178.7985
59.917786 109.052 178.5320
60.351974 109.061 178.2604
60.789310 109.068 177.9811
61.229816 109.071 177.6931
61.673512 109.068 177.3957
62.120422 109.058 177.0889
62.570572 109.040 176.7742
63.023983 109.014 176.4549
63.480682 108.984 176.1311
63.940689 108.951 175.7964
64.404030 108.920 175.4381
64.870728 108.892 175.0457
65.340805 108.869 174.6177
65.814293 108.854 174.1634
66.291214 108.850 173.6944
66.771591 108.862 173.2183
67.255447 108.892 172.7408
67.742805 108.941 172.2687
68.233696 109.010 171.8027
68.728142 109.099 171.3170
69.226173 109.202 170.7549
69.727814 109.302 170.0638
70.233093 109.376 169.2510
70.742035 109.401 168.4138
71.254662 109.370 167.7064
71.771004 109.291 167.2677
72.291084 109.184 167.1586
72.814934 109.067 167.3517
73.342583 108.953 167.7687
73.874054 108.853 168.3210
74.409378 108.773 168.9183
74.948578 108.719 169.4615
75.491684 108.692 169.8495
76.038727 108.686 170.0084
76.589737 108.693 169.9141
77.144737 108.706 169.5910
77.703758 108.720 169.0938
78.266830 108.731 168.4886
78.833984 108.738 167.8430
79.405251 108.743 167.2184
79.980652 108.745 166.6586
80.560226 108.748 166.1772
81.143997 108.752 165.7578
81.732002 108.752 165.3717
