* Measurement data measured by REW V5.31.3
* Source: EXCL: Microphone (USB Sound Device        ), no input selected, R, volume: 0.390
* Format: 256k Log Swept Sine, 1 sweep at -12.0 dBFS with no timing reference
* Dated: Jul 15, 2025 6:59:10 PM
* REW Settings:
*  C-weighting compensation: Off
*  Target level: 75.0 dB
* Note: Wyvern Abyss
* Measurement: L Wyvern Abyss
* Smoothing: 1/12 octave
* Frequency Step: 96 ppo
* Start Frequency: 0.36621094 Hz
*
* Freq(Hz) SPL(dB) Phase(degrees)
0.366211 92.630 163.4579
0.368865 92.625 163.4401
0.371538 92.617 163.4134
0.374230 92.608 163.3800
0.376942 92.598 163.3415
0.379673 92.587 163.2992
0.382424 92.576 163.2540
0.385196 92.564 163.2064
0.387987 92.552 163.1566
0.390798 92.540 163.1049
0.393630 92.528 163.0513
0.396483 92.515 162.9959
0.399356 92.503 162.9386
0.402250 92.490 162.8795
0.405165 92.478 162.8185
0.408101 92.465 162.7556
0.411058 92.452 162.6908
0.414037 92.439 162.6241
0.417037 92.426 162.5555
0.420059 92.413 162.4850
0.423103 92.400 162.4124
0.426169 92.387 162.3380
0.429257 92.373 162.2615
0.432368 92.360 162.1830
0.435501 92.346 162.1025
0.438656 92.332 162.0199
0.441835 92.319 161.9353
0.445037 92.305 161.8486
0.448262 92.291 161.7598
0.451510 92.277 161.6690
0.454782 92.263 161.5760
0.458077 92.248 161.4809
0.461397 92.234 161.3836
0.464740 92.219 161.2842
0.468108 92.205 161.1827
0.471500 92.190 161.0790
0.474917 92.175 160.9731
0.478358 92.160 160.8649
0.481825 92.145 160.7547
0.485316 92.130 160.6422
0.488833 92.115 160.5274
0.492375 92.100 160.4105
0.495943 92.084 160.2913
0.499537 92.069 160.1699
0.503157 92.053 160.0463
0.506803 92.037 159.9205
0.510475 92.021 159.7924
0.514175 92.005 159.6620
0.517900 91.989 159.5295
0.521653 91.973 159.3947
0.525434 91.956 159.2577
0.529241 91.940 159.1185
0.533076 91.923 158.9770
0.536939 91.906 158.8334
0.540830 91.890 158.6875
0.544749 91.873 158.5395
0.548696 91.856 158.3894
0.552673 91.838 158.2370
0.556677 91.821 158.0826
0.560711 91.803 157.9260
0.564774 91.786 157.7674
0.568867 91.768 157.6067
0.572989 91.750 157.4439
0.577141 91.732 157.2792
0.581324 91.714 157.1125
0.585536 91.696 156.9438
0.589779 91.677 156.7733
0.594053 91.659 156.6009
0.598358 91.640 156.4267
0.602694 91.622 156.2507
0.607061 91.603 156.0731
0.611460 91.584 155.8938
0.615891 91.564 155.7128
0.620354 91.545 155.5304
0.624849 91.525 155.3465
0.629377 91.506 155.1612
0.633938 91.486 154.9746
0.638532 91.466 154.7867
0.643159 91.446 154.5977
0.647819 91.426 154.4077
0.652514 91.406 154.2167
0.657242 91.385 154.0248
0.662005 91.364 153.8322
0.666802 91.344 153.6389
0.671634 91.323 153.4451
0.676501 91.302 153.2509
0.681403 91.280 153.0565
0.686341 91.259 152.8619
0.691314 91.237 152.6673
0.696324 91.216 152.4728
0.701370 91.193 152.2786
0.706452 91.171 152.0848
0.711571 91.148 151.8914
0.716728 91.125 151.6983
0.721921 91.101 151.5054
0.727153 91.075 151.3125
0.732422 91.048 151.1189
0.737729 91.019 150.9239
0.743075 90.988 150.7269
0.748460 90.956 150.5272
0.753883 90.923 150.3244
0.759346 90.889 150.1180
0.764849 90.855 149.9079
0.770391 90.819 149.6938
0.775974 90.784 149.4759
0.781597 90.747 149.2538
0.787261 90.711 149.0277
0.792966 90.674 148.7974
0.798712 90.636 148.5630
0.804500 90.598 148.3243
0.810329 90.559 148.0815
0.816201 90.520 147.8345
0.822116 90.480 147.5832
0.828073 90.439 147.3277
0.834074 90.398 147.0679
0.840118 90.357 146.8040
0.846206 90.314 146.5357
0.852338 90.271 146.2633
0.858514 90.228 145.9866
0.864735 90.183 145.7057
0.871001 90.138 145.4207
0.877313 90.092 145.1315
0.883670 90.046 144.8383
0.890074 89.998 144.5410
0.896524 89.950 144.2397
0.903020 89.900 143.9345
0.909564 89.850 143.6255
0.916155 89.799 143.3127
0.922794 89.747 142.9963
0.929481 89.693 142.6763
0.936216 89.639 142.3529
0.943000 89.584 142.0262
0.949834 89.527 141.6963
0.956717 89.470 141.3635
0.963649 89.411 141.0279
0.970632 89.351 140.6897
0.977666 89.290 140.3492
0.984750 89.227 140.0065
0.991886 89.163 139.6619
0.999074 89.098 139.3157
1.006314 89.031 138.9683
1.013606 88.962 138.6199
1.020951 88.892 138.2709
1.028349 88.821 137.9217
1.035801 88.748 137.5726
1.043307 88.673 137.2243
1.050867 88.596 136.8770
1.058482 88.518 136.5312
1.066152 88.438 136.1874
1.073878 88.356 135.8461
1.081660 88.273 135.5074
1.089498 88.188 135.1716
1.097393 88.102 134.8387
1.105345 88.015 134.5084
1.113355 87.927 134.1803
1.121423 87.839 133.8540
1.129549 87.751 133.5291
1.137734 87.663 133.2053
1.145979 87.574 132.8823
1.154283 87.486 132.5598
1.162647 87.396 132.2378
1.171072 87.307 131.9159
1.179558 87.216 131.5941
1.188106 87.125 131.2720
1.196715 87.032 130.9495
1.205387 86.939 130.6264
1.214122 86.843 130.3024
1.222920 86.746 129.9774
1.231782 86.646 129.6511
1.240708 86.544 129.3233
1.249699 86.440 128.9937
1.258754 86.332 128.6619
1.267876 86.222 128.3278
1.277063 86.108 127.9909
1.286318 85.989 127.6511
1.295639 85.867 127.3078
1.305027 85.741 126.9608
1.314484 85.609 126.6097
1.324009 85.472 126.2540
1.333604 85.330 125.8933
1.343268 85.182 125.5272
1.353002 85.027 125.1552
1.362806 84.865 124.7767
1.372681 84.697 124.3913
1.382628 84.520 123.9983
1.392647 84.335 123.5973
1.402739 84.142 123.1876
1.412904 83.940 122.7688
1.423142 83.727 122.3402
1.433455 83.503 121.9015
1.443843 83.268 121.4524
1.454305 83.018 120.9929
1.464844 82.753 120.5230
1.475459 82.470 120.0431
1.486150 82.168 119.5535
1.496920 81.844 119.0541
1.507767 81.497 118.5447
1.518693 81.129 118.0248
1.529698 80.739 117.4934
1.540783 80.328 116.9494
1.551948 79.897 116.3917
1.563194 79.448 115.8186
1.574521 78.983 115.2283
1.585931 78.503 114.6190
1.597423 78.010 113.9882
1.608999 77.506 113.3333
1.620658 76.995 112.6512
1.632402 76.477 111.9385
1.644232 75.955 111.1911
1.656146 75.433 110.4041
1.668147 74.912 109.5719
1.680235 74.397 108.6879
1.692411 73.889 107.7441
1.704675 73.393 106.7310
1.717028 72.912 105.6373
1.729470 72.451 104.4489
1.742003 72.012 103.1488
1.754626 71.601 101.7159
1.767341 71.221 100.1240
1.780147 70.878 98.3401
1.793047 70.576 96.3223
1.806040 70.320 94.0166
1.819128 70.112 91.3521
1.832310 69.955 88.2339
1.845587 69.851 84.5309
1.858961 69.798 80.0595
1.872432 69.795 74.5626
1.886001 69.841 67.6925
1.899667 69.933 59.0228
1.913433 70.068 48.1576
1.927299 70.243 35.0422
1.941265 70.455 20.4122
1.955332 70.699 5.8189
1.969501 70.974 -7.1987
1.983773 71.276 -17.9271
1.998148 71.600 -26.4347
2.012627 71.943 -33.1223
2.027212 72.301 -38.4180
2.041902 72.670 -42.6713
2.056698 73.047 -46.1424
2.071602 73.427 -49.0195
2.086614 73.807 -51.4380
2.101734 74.182 -53.4964
2.116964 74.550 -55.2675
2.132304 74.907 -56.8060
2.147756 75.251 -58.1549
2.163320 75.581 -59.3487
2.178996 75.898 -60.4167
2.194786 76.202 -61.3843
2.210690 76.497 -62.2742
2.226710 76.787 -63.1047
2.242845 77.074 -63.8899
2.259098 77.361 -64.6392
2.275468 77.649 -65.3589
2.291957 77.938 -66.0523
2.308566 78.227 -66.7216
2.325295 78.517 -67.3676
2.342145 78.806 -67.9907
2.359117 79.094 -68.5907
2.376212 79.380 -69.1672
2.393431 79.664 -69.7197
2.410775 79.944 -70.2475
2.428244 80.219 -70.7498
2.445840 80.488 -71.2258
2.463564 80.750 -71.6749
2.481416 81.005 -72.0964
2.499397 81.251 -72.4902
2.517509 81.488 -72.8566
2.535752 81.714 -73.1967
2.554127 81.930 -73.5128
2.572635 82.134 -73.8079
2.591277 82.327 -74.0855
2.610055 82.509 -74.3490
2.628968 82.680 -74.6008
2.648019 82.842 -74.8424
2.667208 82.993 -75.0747
2.686535 83.136 -75.2980
2.706003 83.272 -75.5121
2.725612 83.400 -75.7167
2.745363 83.522 -75.9115
2.765257 83.639 -76.0956
2.785295 83.752 -76.2685
2.805478 83.862 -76.4295
2.825808 83.970 -76.5778
2.846285 84.077 -76.7128
2.866910 84.183 -76.8337
2.887685 84.289 -76.9403
2.908611 84.395 -77.0322
2.929688 84.501 -77.1097
2.950917 84.606 -77.1730
2.972301 84.710 -77.2229
2.993839 84.812 -77.2602
3.015534 84.911 -77.2856
3.037386 85.008 -77.3001
3.059396 85.102 -77.3044
3.081565 85.194 -77.2992
3.103896 85.284 -77.2853
3.126388 85.373 -77.2633
3.149043 85.461 -77.2339
3.171862 85.548 -77.1976
3.194847 85.635 -77.1549
3.217998 85.722 -77.1062
3.241317 85.810 -77.0513
3.264805 85.899 -76.9903
3.288463 85.988 -76.9224
3.312293 86.079 -76.8470
3.336295 86.169 -76.7636
3.360471 86.260 -76.6719
3.384822 86.351 -76.5727
3.409350 86.442 -76.4671
3.434056 86.533 -76.3567
3.458940 86.625 -76.2436
3.484005 86.716 -76.1297
3.509252 86.807 -76.0173
3.534681 86.898 -75.9085
3.560295 86.990 -75.8051
3.586094 87.082 -75.7090
3.612081 87.174 -75.6211
3.638255 87.267 -75.5420
3.664620 87.361 -75.4716
3.691175 87.455 -75.4093
3.717923 87.549 -75.3541
3.744864 87.644 -75.3056
3.772001 87.739 -75.2636
3.799335 87.835 -75.2284
3.826866 87.930 -75.2007
3.854597 88.026 -75.1812
3.882529 88.121 -75.1708
3.910664 88.215 -75.1703
3.939002 88.309 -75.1807
3.967546 88.403 -75.2026
3.996296 88.495 -75.2364
4.025255 88.587 -75.2825
4.054423 88.677 -75.3407
4.083804 88.767 -75.4106
4.113396 88.856 -75.4918
4.143204 88.944 -75.5839
4.173227 89.032 -75.6863
4.203468 89.118 -75.7986
4.233928 89.203 -75.9206
4.264609 89.286 -76.0519
4.295512 89.368 -76.1924
4.326639 89.449 -76.3420
4.357992 89.527 -76.5009
4.389572 89.604 -76.6694
4.421380 89.679 -76.8478
4.453419 89.752 -77.0361
4.485691 89.823 -77.2341
4.518196 89.892 -77.4412
4.550936 89.960 -77.6562
4.583914 90.025 -77.8780
4.617131 90.089 -78.1052
4.650589 90.151 -78.3368
4.684289 90.211 -78.5717
4.718233 90.269 -78.8092
4.752424 90.325 -79.0492
4.786862 90.379 -79.2918
4.821549 90.432 -79.5373
4.856488 90.482 -79.7858
4.891680 90.530 -80.0372
4.927127 90.577 -80.2908
4.962831 90.622 -80.5457
4.998794 90.665 -80.8011
5.035017 90.707 -81.0559
5.071503 90.748 -81.3093
5.108253 90.787 -81.5608
5.145270 90.826 -81.8103
5.182555 90.863 -82.0578
5.220110 90.899 -82.3037
5.257937 90.934 -82.5482
5.296038 90.968 -82.7915
5.334415 91.001 -83.0338
5.373071 91.033 -83.2750
5.412006 91.065 -83.5152
5.451224 91.097 -83.7542
5.490725 91.129 -83.9918
5.530514 91.161 -84.2281
5.570590 91.193 -84.4632
5.610957 91.224 -84.6976
5.651616 91.256 -84.9321
5.692570 91.288 -85.1675
5.733821 91.320 -85.4048
5.775370 91.353 -85.6448
5.817221 91.386 -85.8882
5.859375 91.419 -86.1353
5.901834 91.454 -86.3864
5.944602 91.489 -86.6417
5.987679 91.524 -86.9017
6.031068 91.560 -87.1672
6.074771 91.597 -87.4391
6.118792 91.634 -87.7187
6.163131 91.672 -88.0068
6.207792 91.710 -88.3041
6.252776 91.749 -88.6113
6.298086 91.788 -88.9282
6.343725 91.828 -89.2552
6.389694 91.868 -89.5921
6.435996 91.908 -89.9391
6.482634 91.948 -90.2964
6.529610 91.989 -90.6643
6.576926 92.029 -91.0428
6.624585 92.070 -91.4323
6.672590 92.110 -91.8326
6.720942 92.150 -92.2433
6.769645 92.190 -92.6639
6.818700 92.229 -93.0936
6.868111 92.268 -93.5318
6.917881 92.307 -93.9780
6.968010 92.345 -94.4317
7.018504 92.383 -94.8927
7.069362 92.420 -95.3605
7.120590 92.457 -95.8344
7.172189 92.493 -96.3134
7.224161 92.529 -96.7963
7.276511 92.565 -97.2822
7.329239 92.600 -97.7702
7.382350 92.635 -98.2600
7.435845 92.670 -98.7511
7.489729 92.705 -99.2430
7.544002 92.739 -99.7351
7.598669 92.774 -100.2265
7.653732 92.809 -100.7166
7.709194 92.844 -101.2048
7.765058 92.880 -101.6910
7.821327 92.916 -102.1749
7.878004 92.953 -102.6564
7.935091 92.990 -103.1357
7.992592 93.029 -103.6124
8.050510 93.068 -104.0867
8.108847 93.108 -104.5583
8.167607 93.149 -105.0276
8.226793 93.191 -105.4946
8.286408 93.234 -105.9597
8.346454 93.279 -106.4234
8.406936 93.324 -106.8859
8.467856 93.371 -107.3475
8.529218 93.418 -107.8082
8.591024 93.467 -108.2684
8.653278 93.516 -108.7282
8.715983 93.567 -109.1878
8.779143 93.618 -109.6475
8.842760 93.670 -110.1074
8.906839 93.722 -110.5673
8.971381 93.775 -111.0271
9.036392 93.828 -111.4865
9.101873 93.882 -111.9454
9.167829 93.936 -112.4033
9.234263 93.989 -112.8601
9.301178 94.043 -113.3154
9.368578 94.096 -113.7684
9.436467 94.150 -114.2187
9.504847 94.202 -114.6657
9.573723 94.255 -115.1087
9.643099 94.307 -115.5475
9.712976 94.359 -115.9814
9.783361 94.410 -116.4098
9.854255 94.461 -116.8323
9.925663 94.511 -117.2483
9.997588 94.561 -117.6577
10.070035 94.610 -118.0601
10.143007 94.659 -118.4554
10.216507 94.707 -118.8435
10.290540 94.755 -119.2242
10.365109 94.803 -119.5977
10.440219 94.850 -119.9641
10.515873 94.897 -120.3237
10.592076 94.944 -120.6767
10.668830 94.990 -121.0236
10.746141 95.035 -121.3646
10.824012 95.080 -121.7001
10.902447 95.125 -122.0307
10.981451 95.169 -122.3568
11.061027 95.213 -122.6789
11.141180 95.256 -122.9972
11.221913 95.299 -123.3123
11.303232 95.340 -123.6245
11.385140 95.381 -123.9341
11.467641 95.421 -124.2414
11.550741 95.460 -124.5467
11.634442 95.498 -124.8502
11.718750 95.535 -125.1520
11.803669 95.571 -125.4524
11.889203 95.606 -125.7515
11.975357 95.640 -126.0493
12.062136 95.672 -126.3461
12.149543 95.703 -126.6420
12.237583 95.733 -126.9371
12.326262 95.762 -127.2316
12.415583 95.790 -127.5257
12.505552 95.816 -127.8195
12.596172 95.842 -128.1134
12.687449 95.866 -128.4075
12.779387 95.889 -128.7023
12.871992 95.911 -128.9978
12.965268 95.932 -129.2946
13.059220 95.952 -129.5928
13.153852 95.971 -129.8929
13.249170 95.989 -130.1950
13.345179 96.005 -130.4995
13.441884 96.021 -130.8067
13.539289 96.037 -131.1169
13.637401 96.051 -131.4302
13.736223 96.064 -131.7470
13.835761 96.077 -132.0674
13.936021 96.089 -132.3916
14.037007 96.101 -132.7200
14.138725 96.112 -133.0526
14.241180 96.122 -133.3897
14.344377 96.132 -133.7314
14.448323 96.141 -134.0780
14.553021 96.151 -134.4295
14.658478 96.160 -134.7861
14.764700 96.168 -135.1479
14.871691 96.177 -135.5150
14.979457 96.185 -135.8875
15.088005 96.194 -136.2651
15.197339 96.202 -136.6480
15.307465 96.211 -137.0358
15.418389 96.219 -137.4284
15.530117 96.228 -137.8254
15.642655 96.236 -138.2265
15.756008 96.245 -138.6311
15.870182 96.254 -139.0388
15.985184 96.263 -139.4492
16.101019 96.273 -139.8614
16.217694 96.282 -140.2751
16.335214 96.293 -140.6896
16.453586 96.303 -141.1044
16.572815 96.314 -141.5189
16.692909 96.326 -141.9326
16.813872 96.338 -142.3451
16.935713 96.350 -142.7558
17.058436 96.363 -143.1646
17.182048 96.377 -143.5709
17.306556 96.391 -143.9745
17.431967 96.406 -144.3751
17.558286 96.421 -144.7723
17.685521 96.436 -145.1660
17.813677 96.452 -145.5558
17.942762 96.469 -145.9416
18.072783 96.485 -146.3229
18.203746 96.502 -146.6997
18.335658 96.518 -147.0716
18.468526 96.535 -147.4384
18.602356 96.551 -147.8000
18.737156 96.568 -148.1561
18.872934 96.584 -148.5067
19.009695 96.599 -148.8516
19.147447 96.614 -149.1909
19.286197 96.629 -149.5244
19.425953 96.643 -149.8525
19.566721 96.656 -150.1751
19.708510 96.668 -150.4925
19.851326 96.680 -150.8051
19.995177 96.691 -151.1132
20.140070 96.701 -151.4172
20.286013 96.711 -151.7176
20.433014 96.719 -152.0150
20.581080 96.726 -152.3099
20.730219 96.733 -152.6029
20.880439 96.738 -152.8946
21.031747 96.743 -153.1855
21.184152 96.746 -153.4762
21.337661 96.748 -153.7672
21.492282 96.750 -154.0589
21.648024 96.750 -154.3517
21.804895 96.749 -154.6461
21.962902 96.747 -154.9423
22.122054 96.745 -155.2409
22.282360 96.742 -155.5421
22.443827 96.738 -155.8464
22.606464 96.733 -156.1541
22.770280 96.728 -156.4655
22.935283 96.723 -156.7811
23.101481 96.717 -157.1010
23.268884 96.711 -157.4256
23.437500 96.705 -157.7547
23.607338 96.699 -158.0885
23.778406 96.692 -158.4267
23.950714 96.686 -158.7689
24.124271 96.680 -159.1147
24.299086 96.674 -159.4635
24.475167 96.668 -159.8148
24.652524 96.663 -160.1678
24.831166 96.658 -160.5219
25.011103 96.653 -160.8765
25.192344 96.649 -161.2310
25.374898 96.646 -161.5848
25.558775 96.643 -161.9373
25.743984 96.640 -162.2881
25.930536 96.638 -162.6367
26.118439 96.637 -162.9825
26.307704 96.636 -163.3250
26.498341 96.635 -163.6638
26.690359 96.635 -163.9984
26.883768 96.635 -164.3283
27.078579 96.634 -164.6533
27.274801 96.634 -164.9731
27.472446 96.634 -165.2877
27.671522 96.633 -165.5969
27.872042 96.633 -165.9009
28.074014 96.632 -166.1999
28.277450 96.630 -166.4941
28.482360 96.628 -166.7838
28.688755 96.625 -167.0694
28.896645 96.622 -167.3513
29.106042 96.617 -167.6301
29.316957 96.612 -167.9064
29.529400 96.607 -168.1808
29.743382 96.600 -168.4539
29.958915 96.593 -168.7265
30.176009 96.585 -168.9994
30.394677 96.576 -169.2731
30.614929 96.567 -169.5482
30.836778 96.556 -169.8252
31.060234 96.545 -170.1044
31.285309 96.534 -170.3860
31.512015 96.522 -170.6700
31.740364 96.510 -170.9566
31.970368 96.498 -171.2460
32.202039 96.485 -171.5382
32.435388 96.473 -171.8335
32.670428 96.460 -172.1319
32.907171 96.448 -172.4334
33.145630 96.436 -172.7380
33.385817 96.424 -173.0451
33.627745 96.412 -173.3541
33.871425 96.401 -173.6638
34.116871 96.389 -173.9733
34.364096 96.377 -174.2814
34.613113 96.366 -174.5871
34.863934 96.355 -174.8896
35.116572 96.343 -175.1886
35.371041 96.332 -175.4839
35.627354 96.322 -175.7756
35.885525 96.311 -176.0637
36.145566 96.300 -176.3483
36.407492 96.289 -176.6296
36.671316 96.277 -176.9072
36.937051 96.265 -177.1809
37.204712 96.253 -177.4506
37.474313 96.240 -177.7162
37.745867 96.226 -177.9778
38.019389 96.212 -178.2360
38.294893 96.198 -178.4914
38.572394 96.183 -178.7448
38.851905 96.168 -178.9971
39.133442 96.152 -179.2489
39.417019 96.136 -179.5009
39.702651 96.120 -179.7534
39.990353 96.103 179.9935
40.280140 96.086 179.7397
40.572026 96.069 179.4852
40.866028 96.051 179.2304
41.162160 96.033 178.9754
41.460438 96.016 178.7203
41.760877 95.998 178.4653
42.063494 95.980 178.2106
42.368303 95.962 177.9565
42.675322 95.945 177.7032
42.984565 95.927 177.4510
43.296048 95.910 177.2002
43.609789 95.892 176.9514
43.925804 95.874 176.7046
44.244108 95.856 176.4603
44.564719 95.838 176.2185
44.887654 95.820 175.9791
45.212928 95.802 175.7419
45.540560 95.784 175.5066
45.870565 95.766 175.2729
46.202962 95.747 175.0406
46.537768 95.728 174.8097
46.875000 95.709 174.5801
47.214676 95.689 174.3518
47.556813 95.669 174.1249
47.901429 95.649 173.8995
48.248542 95.629 173.6754
48.598171 95.609 173.4526
48.950334 95.588 173.2311
49.305048 95.567 173.0112
49.662333 95.547 172.7932
50.022206 95.526 172.5774
50.384688 95.504 172.3643
50.749796 95.483 172.1541
51.117550 95.462 171.9468
51.487969 95.440 171.7422
51.861072 95.418 171.5403
52.236879 95.397 171.3406
52.615409 95.375 171.1430
52.996681 95.353 170.9474
53.380717 95.332 170.7538
53.767536 95.310 170.5621
54.157158 95.288 170.3716
54.549603 95.266 170.1821
54.944892 95.245 169.9926
55.343045 95.224 169.8024
55.744084 95.204 169.6108
56.148028 95.183 169.4173
56.554900 95.163 169.2214
56.964720 95.143 169.0229
57.377510 95.123 168.8222
57.793291 95.102 168.6198
58.212085 95.081 168.4166
58.633914 95.060 168.2139
59.058799 95.038 168.0128
59.486764 95.015 167.8143
59.917829 94.991 167.6190
60.352019 94.967 167.4274
60.789354 94.942 167.2398
61.229859 94.917 167.0560
61.673556 94.891 166.8754
62.120468 94.865 166.6973
62.570618 94.839 166.5211
63.024031 94.812 166.3461
63.480729 94.786 166.1722
63.940736 94.759 165.9992
64.404077 94.732 165.8273
64.870776 94.705 165.6567
65.340856 94.678 165.4876
65.814343 94.652 165.3207
66.291261 94.625 165.1563
66.771635 94.598 164.9947
67.255489 94.572 164.8361
67.742850 94.546 164.6802
68.233743 94.519 164.5270
68.728193 94.493 164.3762
69.226226 94.466 164.2277
69.727867 94.440 164.0814
70.233144 94.413 163.9371
70.742083 94.386 163.7947
71.254709 94.358 163.6540
71.771050 94.331 163.5147
72.291132 94.304 163.3766
72.814984 94.277 163.2395
73.342631 94.250 163.1033
73.874102 94.223 162.9678
74.409424 94.196 162.8333
74.948626 94.170 162.7002
75.491734 94.143 162.5688
76.038779 94.117 162.4390
76.589787 94.091 162.3106
77.144788 94.065 162.1827
77.703811 94.040 162.0546
78.266885 94.014 161.9254
78.834039 93.989 161.7940
79.405303 93.964 161.6596
79.980706 93.939 161.5214
80.560280 93.913 161.3785
81.144053 93.887 161.2305
81.732056 93.860 161.0775
82.324320 93.832 160.9205
82.920876 93.802 160.7616
83.521755 93.771 160.6032
84.126988 93.738 160.4482
84.736607 93.704 160.2996
85.350643 93.668 160.1595
85.969129 93.632 160.0292
86.592097 93.595 159.9091
87.219579 93.558 159.7987
