* Measurement data measured by REW V5.31
* Source: EXCL: Microphone (USB Sound Device        ), MICROPHONE (Master Volume), L, volume: 0.390
* Format: 256k Log Swept Sine, 1 sweep at -15.0 dBFS with no timing reference
* Dated: Oct 26, 2024 2:40:22 PM
* REW Settings:
*  C-weighting compensation: Off
*  Target level: 75.0 dB
* Note: Clavelon Delta L
* Measurement: L Clavelon Delta
* Smoothing: 1/12 octave
* Frequency Step: 96 ppo
* Start Frequency: 0.36621094 Hz
*
* Freq(Hz)	SPL(dB)	Phase(degrees)
0.366211	84.134	158.1207
0.368865	84.128	158.0974
0.371538	84.119	158.0625
0.374230	84.107	158.0186
0.376942	84.095	157.9681
0.379673	84.082	157.9125
0.382424	84.068	157.8531
0.385196	84.053	157.7904
0.387987	84.039	157.7248
0.390798	84.024	157.6566
0.393630	84.009	157.5858
0.396483	83.994	157.5125
0.399356	83.978	157.4366
0.402250	83.963	157.3583
0.405165	83.948	157.2774
0.408101	83.932	157.1939
0.411058	83.916	157.1078
0.414037	83.901	157.0191
0.417037	83.885	156.9278
0.420059	83.869	156.8339
0.423103	83.853	156.7372
0.426169	83.836	156.6378
0.429257	83.820	156.5357
0.432368	83.803	156.4308
0.435501	83.787	156.3231
0.438656	83.770	156.2126
0.441835	83.753	156.0993
0.445037	83.736	155.9831
0.448262	83.719	155.8640
0.451510	83.702	155.7420
0.454782	83.685	155.6171
0.458077	83.667	155.4892
0.461397	83.650	155.3584
0.464740	83.632	155.2246
0.468108	83.614	155.0877
0.471500	83.596	154.9479
0.474917	83.578	154.8050
0.478358	83.560	154.6590
0.481825	83.541	154.5100
0.485316	83.523	154.3578
0.488833	83.504	154.2026
0.492375	83.485	154.0443
0.495943	83.467	153.8828
0.499537	83.448	153.7182
0.503157	83.428	153.5504
0.506803	83.409	153.3795
0.510475	83.390	153.2055
0.514175	83.370	153.0283
0.517900	83.350	152.8479
0.521653	83.330	152.6644
0.525434	83.310	152.4776
0.529241	83.290	152.2878
0.533076	83.270	152.0948
0.536939	83.249	151.8987
0.540830	83.229	151.6994
0.544749	83.208	151.4970
0.548696	83.187	151.2915
0.552673	83.166	151.0829
0.556677	83.145	150.8713
0.560711	83.123	150.6566
0.564774	83.102	150.4389
0.568867	83.080	150.2183
0.572989	83.058	149.9947
0.577141	83.036	149.7682
0.581324	83.014	149.5389
0.585536	82.992	149.3067
0.589779	82.969	149.0718
0.594053	82.947	148.8342
0.598358	82.924	148.5939
0.602694	82.901	148.3510
0.607061	82.878	148.1056
0.611460	82.854	147.8578
0.615891	82.831	147.6076
0.620354	82.807	147.3551
0.624849	82.783	147.1004
0.629377	82.759	146.8437
0.633938	82.735	146.5850
0.638532	82.711	146.3244
0.643159	82.686	146.0620
0.647819	82.662	145.7980
0.652514	82.637	145.5325
0.657242	82.612	145.2657
0.662005	82.587	144.9976
0.666802	82.561	144.7285
0.671634	82.535	144.4585
0.676501	82.510	144.1877
0.681403	82.484	143.9164
0.686341	82.458	143.6448
0.691314	82.431	143.3730
0.696324	82.404	143.1012
0.701370	82.377	142.8296
0.706452	82.350	142.5583
0.711571	82.322	142.2874
0.716728	82.293	142.0169
0.721921	82.264	141.7464
0.727153	82.232	141.4756
0.732422	82.199	141.2035
0.737729	82.163	140.9293
0.743075	82.125	140.6519
0.748460	82.086	140.3702
0.753883	82.045	140.0836
0.759346	82.003	139.7916
0.764849	81.960	139.4938
0.770391	81.916	139.1900
0.775974	81.872	138.8799
0.781597	81.827	138.5634
0.787261	81.781	138.2405
0.792966	81.735	137.9109
0.798712	81.688	137.5748
0.804500	81.641	137.2319
0.810329	81.592	136.8822
0.816201	81.544	136.5256
0.822116	81.494	136.1620
0.828073	81.444	135.7915
0.834074	81.393	135.4138
0.840118	81.341	135.0291
0.846206	81.288	134.6372
0.852338	81.235	134.2381
0.858514	81.180	133.8317
0.864735	81.125	133.4181
0.871001	81.069	132.9972
0.877313	81.011	132.5690
0.883670	80.953	132.1335
0.890074	80.894	131.6908
0.896524	80.833	131.2408
0.903020	80.772	130.7835
0.909564	80.709	130.3192
0.916155	80.645	129.8477
0.922794	80.580	129.3692
0.929481	80.514	128.8839
0.936216	80.446	128.3917
0.943000	80.377	127.8929
0.949834	80.307	127.3877
0.956717	80.235	126.8761
0.963649	80.161	126.3585
0.970632	80.086	125.8351
0.977666	80.010	125.3061
0.984750	79.932	124.7719
0.991886	79.852	124.2327
0.999074	79.770	123.6890
1.006314	79.687	123.1412
1.013606	79.601	122.5897
1.020951	79.514	122.0349
1.028349	79.425	121.4775
1.035801	79.333	120.9180
1.043307	79.240	120.3570
1.050867	79.144	119.7951
1.058482	79.046	119.2330
1.066152	78.946	118.6713
1.073878	78.843	118.1104
1.081660	78.738	117.5508
1.089498	78.629	116.9924
1.097393	78.518	116.4350
1.105345	78.403	115.8779
1.113355	78.284	115.3201
1.121423	78.162	114.7603
1.129549	78.036	114.1978
1.137734	77.905	113.6314
1.145979	77.771	113.0604
1.154283	77.632	112.4839
1.162647	77.489	111.9012
1.171072	77.343	111.3115
1.179558	77.193	110.7141
1.188106	77.039	110.1080
1.196715	76.882	109.4924
1.205387	76.721	108.8664
1.214122	76.557	108.2291
1.222920	76.390	107.5795
1.231782	76.221	106.9164
1.240708	76.048	106.2387
1.249699	75.873	105.5453
1.258754	75.696	104.8348
1.267876	75.516	104.1058
1.277063	75.335	103.3569
1.286318	75.152	102.5867
1.295639	74.967	101.7934
1.305027	74.781	100.9755
1.314484	74.595	100.1310
1.324009	74.407	99.2581
1.333604	74.220	98.3550
1.343268	74.032	97.4195
1.353002	73.844	96.4495
1.362806	73.657	95.4429
1.372681	73.471	94.3975
1.382628	73.286	93.3111
1.392647	73.102	92.1815
1.402739	72.920	91.0066
1.412904	72.741	89.7842
1.423142	72.564	88.5125
1.433455	72.389	87.1894
1.443843	72.217	85.8131
1.454305	72.046	84.3814
1.464844	71.877	82.8919
1.475459	71.708	81.3410
1.486150	71.539	79.7244
1.496920	71.367	78.0366
1.507767	71.194	76.2714
1.518693	71.018	74.4218
1.529698	70.839	72.4802
1.540783	70.659	70.4385
1.551948	70.477	68.2881
1.563194	70.294	66.0204
1.574521	70.110	63.6262
1.585931	69.926	61.0969
1.597423	69.744	58.4243
1.608999	69.562	55.6007
1.620658	69.383	52.6204
1.632402	69.207	49.4794
1.644232	69.035	46.1769
1.656146	68.867	42.7156
1.668147	68.705	39.1028
1.680235	68.550	35.3512
1.692411	68.402	31.4789
1.704675	68.263	27.5095
1.717028	68.133	23.4720
1.729470	68.015	19.3991
1.742003	67.908	15.3260
1.754626	67.815	11.2884
1.767341	67.737	7.3202
1.780147	67.675	3.4512
1.793047	67.630	-0.2942
1.806040	67.605	-3.8993
1.819128	67.600	-7.3550
1.832310	67.618	-10.6606
1.845587	67.660	-13.8217
1.858961	67.726	-16.8470
1.872432	67.817	-19.7461
1.886001	67.932	-22.5273
1.899667	68.071	-25.1970
1.913433	68.231	-27.7606
1.927299	68.412	-30.2221
1.941265	68.611	-32.5845
1.955332	68.828	-34.8506
1.969501	69.059	-37.0225
1.983773	69.303	-39.1022
1.998148	69.557	-41.0914
2.012627	69.820	-42.9917
2.027212	70.088	-44.8045
2.041902	70.360	-46.5309
2.056698	70.633	-48.1720
2.071602	70.905	-49.7290
2.086614	71.172	-51.2029
2.101734	71.434	-52.5946
2.116964	71.686	-53.9056
2.132304	71.928	-55.1374
2.147756	72.157	-56.2925
2.163320	72.372	-57.3745
2.178996	72.572	-58.3887
2.194786	72.758	-59.3421
2.210690	72.931	-60.2433
2.226710	73.092	-61.1008
2.242845	73.243	-61.9224
2.259098	73.386	-62.7133
2.275468	73.522	-63.4775
2.291957	73.650	-64.2171
2.308566	73.773	-64.9332
2.325295	73.890	-65.6259
2.342145	74.002	-66.2950
2.359117	74.109	-66.9399
2.376212	74.212	-67.5593
2.393431	74.312	-68.1520
2.410775	74.408	-68.7165
2.428244	74.501	-69.2510
2.445840	74.592	-69.7537
2.463564	74.681	-70.2227
2.481416	74.769	-70.6560
2.499397	74.856	-71.0518
2.517509	74.941	-71.4087
2.535752	75.026	-71.7259
2.554127	75.109	-72.0031
2.572635	75.190	-72.2412
2.591277	75.268	-72.4419
2.610055	75.344	-72.6071
2.628968	75.416	-72.7391
2.648019	75.484	-72.8396
2.667208	75.550	-72.9105
2.686535	75.612	-72.9535
2.706003	75.672	-72.9699
2.725612	75.730	-72.9611
2.745363	75.787	-72.9285
2.765257	75.843	-72.8734
2.785295	75.899	-72.7970
2.805478	75.957	-72.7004
2.825808	76.015	-72.5849
2.846285	76.076	-72.4513
2.866910	76.140	-72.3002
2.887685	76.207	-72.1317
2.908611	76.278	-71.9450
2.929688	76.352	-71.7390
2.950917	76.429	-71.5119
2.972301	76.510	-71.2626
2.993839	76.593	-70.9908
3.015534	76.678	-70.6977
3.037386	76.766	-70.3856
3.059396	76.855	-70.0575
3.081565	76.948	-69.7171
3.103896	77.042	-69.3685
3.126388	77.138	-69.0157
3.149043	77.237	-68.6630
3.171862	77.339	-68.3145
3.194847	77.443	-67.9738
3.217998	77.549	-67.6440
3.241317	77.659	-67.3274
3.264805	77.771	-67.0249
3.288463	77.887	-66.7361
3.312293	78.006	-66.4593
3.336295	78.129	-66.1925
3.360471	78.256	-65.9344
3.384822	78.386	-65.6848
3.409350	78.520	-65.4450
3.434056	78.656	-65.2169
3.458940	78.794	-65.0029
3.484005	78.934	-64.8060
3.509252	79.075	-64.6289
3.534681	79.217	-64.4746
3.560295	79.358	-64.3455
3.586094	79.499	-64.2438
3.612081	79.639	-64.1710
3.638255	79.778	-64.1279
3.664620	79.916	-64.1143
3.691175	80.053	-64.1293
3.717923	80.189	-64.1711
3.744864	80.325	-64.2379
3.772001	80.460	-64.3277
3.799335	80.594	-64.4387
3.826866	80.727	-64.5692
3.854597	80.859	-64.7177
3.882529	80.989	-64.8829
3.910664	81.116	-65.0638
3.939002	81.242	-65.2596
3.967546	81.364	-65.4700
3.996296	81.484	-65.6950
4.025255	81.600	-65.9352
4.054423	81.713	-66.1912
4.083804	81.823	-66.4632
4.113396	81.930	-66.7507
4.143204	82.034	-67.0524
4.173227	82.134	-67.3664
4.203468	82.231	-67.6902
4.233928	82.326	-68.0213
4.264609	82.417	-68.3572
4.295512	82.506	-68.6956
4.326639	82.591	-69.0351
4.357992	82.674	-69.3747
4.389572	82.753	-69.7146
4.421380	82.829	-70.0556
4.453419	82.902	-70.3985
4.485691	82.971	-70.7435
4.518196	83.036	-71.0902
4.550936	83.099	-71.4371
4.583914	83.159	-71.7822
4.617131	83.216	-72.1231
4.650589	83.272	-72.4574
4.684289	83.325	-72.7830
4.718233	83.376	-73.0981
4.752424	83.425	-73.4020
4.786862	83.473	-73.6945
4.821549	83.519	-73.9760
4.856488	83.562	-74.2474
4.891680	83.604	-74.5089
4.927127	83.644	-74.7610
4.962831	83.683	-75.0035
4.998794	83.722	-75.2360
5.035017	83.760	-75.4582
5.071503	83.799	-75.6693
5.108253	83.838	-75.8688
5.145270	83.877	-76.0563
5.182555	83.917	-76.2317
5.220110	83.957	-76.3957
5.257937	83.997	-76.5495
5.296038	84.039	-76.6950
5.334415	84.081	-76.8342
5.373071	84.124	-76.9692
5.412006	84.169	-77.1017
5.451224	84.216	-77.2330
5.490725	84.264	-77.3638
5.530514	84.315	-77.4943
5.570590	84.367	-77.6248
5.610957	84.421	-77.7563
5.651616	84.477	-77.8903
5.692570	84.535	-78.0290
5.733821	84.594	-78.1747
5.775370	84.654	-78.3298
5.817221	84.716	-78.4961
5.859375	84.779	-78.6748
5.901834	84.844	-78.8664
5.944602	84.909	-79.0709
5.987679	84.976	-79.2884
6.031068	85.044	-79.5191
6.074771	85.112	-79.7636
6.118792	85.180	-80.0226
6.163131	85.248	-80.2969
6.207792	85.316	-80.5869
6.252776	85.384	-80.8931
6.298086	85.451	-81.2152
6.343725	85.517	-81.5525
6.389694	85.583	-81.9038
6.435996	85.648	-82.2677
6.482634	85.712	-82.6427
6.529610	85.774	-83.0278
6.576926	85.835	-83.4223
6.624585	85.894	-83.8255
6.672590	85.952	-84.2372
6.720942	86.009	-84.6562
6.769645	86.064	-85.0813
6.818700	86.117	-85.5104
6.868111	86.170	-85.9418
6.917881	86.221	-86.3739
6.968010	86.270	-86.8055
7.018504	86.319	-87.2361
7.069362	86.366	-87.6653
7.120590	86.413	-88.0923
7.172189	86.458	-88.5164
7.224161	86.503	-88.9364
7.276511	86.548	-89.3514
7.329239	86.593	-89.7607
7.382350	86.638	-90.1638
7.435845	86.684	-90.5611
7.489729	86.729	-90.9527
7.544002	86.775	-91.3392
7.598669	86.822	-91.7212
7.653732	86.870	-92.0988
7.709194	86.919	-92.4726
7.765058	86.970	-92.8428
7.821327	87.021	-93.2102
7.878004	87.074	-93.5758
7.935091	87.129	-93.9408
7.992592	87.184	-94.3065
8.050510	87.242	-94.6736
8.108847	87.300	-95.0430
8.167607	87.360	-95.4152
8.226793	87.421	-95.7907
8.286408	87.484	-96.1702
8.346454	87.547	-96.5543
8.406936	87.611	-96.9437
8.467856	87.676	-97.3386
8.529218	87.741	-97.7390
8.591024	87.806	-98.1446
8.653278	87.872	-98.5551
8.715983	87.938	-98.9700
8.779143	88.004	-99.3889
8.842760	88.069	-99.8113
8.906839	88.134	-100.2367
8.971381	88.199	-100.6641
9.036392	88.263	-101.0926
9.101873	88.327	-101.5211
9.167829	88.390	-101.9486
9.234263	88.452	-102.3746
9.301178	88.514	-102.7983
9.368578	88.576	-103.2188
9.436467	88.637	-103.6355
9.504847	88.697	-104.0476
9.573723	88.757	-104.4547
9.643099	88.816	-104.8563
9.712976	88.874	-105.2525
9.783361	88.930	-105.6431
9.854255	88.984	-106.0280
9.925663	89.037	-106.4074
9.997588	89.087	-106.7814
10.070035	89.135	-107.1504
10.143007	89.181	-107.5148
10.216507	89.225	-107.8751
10.290540	89.269	-108.2316
10.365109	89.311	-108.5849
10.440219	89.353	-108.9352
10.515873	89.394	-109.2831
10.592076	89.434	-109.6290
10.668830	89.474	-109.9732
10.746141	89.514	-110.3159
10.824012	89.554	-110.6573
10.902447	89.593	-110.9974
10.981451	89.632	-111.3365
11.061027	89.670	-111.6744
11.141180	89.708	-112.0112
11.221913	89.745	-112.3469
11.303232	89.781	-112.6813
11.385140	89.817	-113.0143
11.467641	89.853	-113.3461
11.550741	89.887	-113.6764
11.634442	89.922	-114.0055
11.718750	89.955	-114.3333
11.803669	89.989	-114.6599
11.889203	90.022	-114.9854
11.975357	90.055	-115.3102
12.062136	90.088	-115.6343
12.149543	90.121	-115.9580
12.237583	90.153	-116.2815
12.326262	90.184	-116.6051
12.415583	90.215	-116.9290
12.505552	90.245	-117.2532
12.596172	90.275	-117.5781
12.687449	90.304	-117.9035
12.779387	90.331	-118.2297
12.871992	90.359	-118.5566
12.965268	90.385	-118.8842
13.059220	90.411	-119.2126
13.153852	90.436	-119.5416
13.249170	90.460	-119.8713
13.345179	90.485	-120.2018
13.441884	90.509	-120.5331
13.539289	90.533	-120.8654
13.637401	90.556	-121.1988
13.736223	90.580	-121.5338
13.835761	90.603	-121.8705
13.936021	90.626	-122.2095
14.037007	90.649	-122.5510
14.138725	90.671	-122.8954
14.241180	90.693	-123.2432
14.344377	90.715	-123.5947
14.448323	90.737	-123.9500
14.553021	90.758	-124.3093
14.658478	90.779	-124.6728
14.764700	90.799	-125.0402
14.871691	90.820	-125.4114
14.979457	90.840	-125.7861
15.088005	90.860	-126.1639
15.197339	90.880	-126.5444
15.307465	90.899	-126.9272
15.418389	90.919	-127.3119
15.530117	90.939	-127.6980
15.642655	90.958	-128.0853
15.756008	90.977	-128.4735
15.870182	90.997	-128.8626
15.985184	91.017	-129.2526
16.101019	91.037	-129.6436
16.217694	91.057	-130.0357
16.335214	91.078	-130.4292
16.453586	91.100	-130.8242
16.572815	91.121	-131.2211
16.692909	91.144	-131.6198
16.813872	91.167	-132.0203
16.935713	91.190	-132.4226
17.058436	91.214	-132.8263
17.182048	91.238	-133.2310
17.306556	91.263	-133.6362
17.431967	91.287	-134.0412
17.558286	91.311	-134.4454
17.685521	91.335	-134.8481
17.813677	91.359	-135.2485
17.942762	91.382	-135.6461
18.072783	91.406	-136.0403
18.203746	91.429	-136.4308
18.335658	91.452	-136.8173
18.468526	91.476	-137.1998
18.602356	91.499	-137.5785
18.737156	91.523	-137.9535
18.872934	91.547	-138.3251
19.009695	91.571	-138.6937
19.147447	91.595	-139.0598
19.286197	91.619	-139.4237
19.425953	91.643	-139.7858
19.566721	91.667	-140.1464
19.708510	91.690	-140.5056
19.851326	91.713	-140.8636
19.995177	91.735	-141.2203
20.140070	91.757	-141.5755
20.286013	91.777	-141.9292
20.433014	91.797	-142.2811
20.581080	91.816	-142.6311
20.730219	91.834	-142.9789
20.880439	91.851	-143.3247
21.031747	91.868	-143.6684
21.184152	91.885	-144.0104
21.337661	91.901	-144.3510
21.492282	91.917	-144.6908
21.648024	91.932	-145.0302
21.804895	91.947	-145.3701
21.962902	91.962	-145.7109
22.122054	91.976	-146.0532
22.282360	91.990	-146.3974
22.443827	92.003	-146.7438
22.606464	92.015	-147.0925
22.770280	92.028	-147.4436
22.935283	92.039	-147.7969
23.101481	92.050	-148.1525
23.268884	92.061	-148.5103
23.437500	92.071	-148.8701
23.607338	92.080	-149.2321
23.778406	92.089	-149.5963
23.950714	92.098	-149.9626
24.124271	92.107	-150.3311
24.299086	92.115	-150.7014
24.475167	92.123	-151.0734
24.652524	92.130	-151.4466
24.831166	92.138	-151.8206
25.011103	92.145	-152.1950
25.192344	92.152	-152.5694
25.374898	92.160	-152.9434
25.558775	92.167	-153.3169
25.743984	92.175	-153.6897
25.930536	92.182	-154.0616
26.118439	92.190	-154.4325
26.307704	92.197	-154.8020
26.498341	92.205	-155.1696
26.690359	92.212	-155.5350
26.883768	92.220	-155.8976
27.078579	92.227	-156.2575
27.274801	92.234	-156.6147
27.472446	92.242	-156.9700
27.671522	92.249	-157.3241
27.872042	92.256	-157.6779
28.074014	92.262	-158.0320
28.277450	92.268	-158.3863
28.482360	92.272	-158.7399
28.688755	92.274	-159.0908
28.896645	92.275	-159.4363
29.106042	92.274	-159.7735
29.316957	92.272	-160.0996
29.529400	92.268	-160.4130
29.743382	92.265	-160.7132
29.958915	92.261	-161.0012
30.176009	92.258	-161.2791
30.394677	92.256	-161.5496
30.614929	92.254	-161.8148
30.836778	92.253	-162.0764
31.060234	92.252	-162.3343
31.285309	92.251	-162.5879
31.512015	92.250	-162.8362
31.740364	92.250	-163.0785
31.970368	92.252	-163.3159
32.202039	92.255	-163.5511
32.435388	92.261	-163.7888
32.670428	92.269	-164.0350
32.907171	92.279	-164.2959
33.145630	92.291	-164.5767
33.385817	92.303	-164.8812
33.627745	92.314	-165.2110
33.871425	92.323	-165.5649
34.116871	92.329	-165.9395
34.364096	92.331	-166.3285
34.613113	92.328	-166.7228
34.863934	92.320	-167.1111
35.116572	92.306	-167.4801
35.371041	92.288	-167.8170
35.627354	92.269	-168.1120
35.885525	92.251	-168.3617
36.145566	92.237	-168.5716
36.407492	92.230	-168.7573
36.671316	92.232	-168.9420
36.937051	92.242	-169.1514
37.204712	92.258	-169.4076
37.474313	92.275	-169.7227
37.745867	92.291	-170.0954
38.019389	92.300	-170.5123
38.294893	92.302	-170.9516
38.572394	92.297	-171.3904
38.851905	92.286	-171.8108
39.133442	92.272	-172.2042
39.417019	92.258	-172.5717
39.702651	92.246	-172.9216
39.990353	92.236	-173.2641
40.280140	92.226	-173.6072
40.572026	92.218	-173.9534
40.866028	92.209	-174.3008
41.162160	92.199	-174.6450
41.460438	92.189	-174.9825
41.760877	92.179	-175.3122
42.063494	92.169	-175.6360
42.368303	92.161	-175.9574
42.675322	92.153	-176.2789
42.984565	92.144	-176.6016
43.296048	92.135	-176.9246
43.609789	92.124	-177.2459
43.925804	92.112	-177.5630
44.244108	92.099	-177.8735
44.564719	92.084	-178.1754
44.887654	92.069	-178.4669
45.212928	92.053	-178.7467
45.540560	92.037	-179.0146
45.870565	92.021	-179.2724
46.202962	92.007	-179.5233
46.537768	91.994	-179.7718
46.875000	91.982	179.9777
47.214676	91.971	179.7214
47.556813	91.961	179.4572
47.901429	91.951	179.1839
48.248542	91.940	178.9015
48.598171	91.929	178.6114
48.950334	91.917	178.3163
49.305048	91.903	178.0208
49.662333	91.888	177.7298
50.022206	91.871	177.4476
50.384688	91.855	177.1759
50.749796	91.839	176.9132
51.117550	91.824	176.6551
51.487969	91.810	176.3963
51.861072	91.797	176.1328
52.236879	91.783	175.8637
52.615409	91.769	175.5911
52.996681	91.753	175.3186
53.380717	91.736	175.0494
53.767536	91.719	174.7848
54.157158	91.701	174.5240
54.549603	91.684	174.2649
54.944892	91.667	174.0053
55.343045	91.651	173.7439
55.744084	91.634	173.4802
56.148028	91.617	173.2144
56.554900	91.601	172.9465
56.964720	91.585	172.6771
57.377510	91.568	172.4062
57.793291	91.552	172.1342
58.212085	91.535	171.8616
58.633914	91.517	171.5892
59.058799	91.499	171.3185
59.486764	91.479	171.0516
59.917829	91.459	170.7908
60.352019	91.437	170.5379
60.789354	91.415	170.2930
61.229859	91.392	170.0547
61.673556	91.368	169.8207
62.120468	91.344	169.5891
62.570618	91.320	169.3587
63.024031	91.294	169.1290
63.480729	91.268	168.8998
63.940736	91.241	168.6711
64.404077	91.214	168.4429
64.870776	91.186	168.2160
65.340856	91.159	167.9914
65.814343	91.131	167.7699
66.291261	91.105	167.5512
66.771635	91.079	167.3340
67.255489	91.055	167.1169
67.742850	91.031	166.8997
68.233743	91.007	166.6840
68.728193	90.983	166.4722
69.226226	90.959	166.2659
69.727867	90.936	166.0648
70.233144	90.912	165.8669
70.742083	90.889	165.6693
71.254709	90.866	165.4698
71.771050	90.842	165.2676
72.291132	90.817	165.0624
72.814984	90.791	164.8548
73.342631	90.764	164.6472
73.874102	90.735	164.4436
74.409424	90.707	164.2483
74.948626	90.679	164.0619
75.491734	90.652	163.8801
76.038779	90.627	163.6971
76.589787	90.602	163.5119
77.144788	90.577	163.3296
77.703811	90.552	163.1561
78.266885	90.528	162.9912
78.834039	90.504	162.8279
79.405303	90.479	162.6597
79.980706	90.452	162.4870
80.560280	90.422	162.3188
81.144053	90.388	162.1669
81.732056	90.353	162.0381
82.324320	90.320	161.9260
82.920876	90.290	161.8094
83.521755	90.263	161.6628
84.126988	90.236	161.4739
84.736607	90.205	161.2530
85.350643	90.170	161.0232
85.969129	90.133	160.8050
86.592097	90.096	160.6075
87.219579	90.061	160.4306
87.851608	90.030	160.2698
