* Measurement data measured by REW V5.31.3
* Source: EXCL: Microphone (USB Sound Device        ), MICROPHONE (Master Volume), R, volume: 0.390
* Format: 256k Log Swept Sine, 1 sweep at -12.0 dBFS with no timing reference
* Dated: Jul 14, 2025 2:47:09 PM
* REW Settings:
*  C-weighting compensation: Off
*  Target level: 75.0 dB
* Note: L CrinEar Daybreak 10ohm
* Measurement: L CrinEar Daybreak 10ohm
* Smoothing: 1/12 octave
* Frequency Step: 96 ppo
* Start Frequency: 0.36621094 Hz
*
* Freq(Hz) SPL(dB) Phase(degrees)
0.366211 93.855 159.1481
0.368865 93.850 159.1263
0.371538 93.841 159.0936
0.374230 93.831 159.0526
0.376942 93.819 159.0052
0.379673 93.806 158.9532
0.382424 93.793 158.8976
0.385196 93.780 158.8389
0.387987 93.766 158.7775
0.390798 93.752 158.7137
0.393630 93.738 158.6474
0.396483 93.724 158.5788
0.399356 93.709 158.5078
0.402250 93.695 158.4345
0.405165 93.681 158.3589
0.408101 93.666 158.2808
0.411058 93.651 158.2003
0.414037 93.636 158.1174
0.417037 93.621 158.0320
0.420059 93.606 157.9441
0.423103 93.591 157.8538
0.426169 93.576 157.7609
0.429257 93.560 157.6655
0.432368 93.545 157.5674
0.435501 93.529 157.4668
0.438656 93.514 157.3636
0.441835 93.498 157.2578
0.445037 93.482 157.1493
0.448262 93.466 157.0381
0.451510 93.450 156.9243
0.454782 93.433 156.8077
0.458077 93.417 156.6884
0.461397 93.400 156.5664
0.464740 93.384 156.4415
0.468108 93.367 156.3140
0.471500 93.350 156.1836
0.474917 93.333 156.0504
0.478358 93.316 155.9144
0.481825 93.298 155.7756
0.485316 93.281 155.6339
0.488833 93.263 155.4893
0.492375 93.246 155.3419
0.495943 93.228 155.1917
0.499537 93.210 155.0385
0.503157 93.192 154.8825
0.506803 93.174 154.7236
0.510475 93.156 154.5618
0.514175 93.137 154.3971
0.517900 93.119 154.2295
0.521653 93.100 154.0591
0.525434 93.081 153.8857
0.529241 93.062 153.7095
0.533076 93.043 153.5304
0.536939 93.024 153.3485
0.540830 93.004 153.1638
0.544749 92.985 152.9762
0.548696 92.965 152.7858
0.552673 92.945 152.5926
0.556677 92.925 152.3967
0.560711 92.905 152.1981
0.564774 92.885 151.9967
0.568867 92.865 151.7927
0.572989 92.844 151.5860
0.577141 92.823 151.3768
0.581324 92.802 151.1650
0.585536 92.781 150.9508
0.589779 92.760 150.7340
0.594053 92.739 150.5149
0.598358 92.718 150.2935
0.602694 92.696 150.0698
0.607061 92.674 149.8439
0.611460 92.652 149.6159
0.615891 92.630 149.3859
0.620354 92.608 149.1539
0.624849 92.586 148.9200
0.629377 92.563 148.6844
0.633938 92.540 148.4471
0.638532 92.517 148.2083
0.643159 92.494 147.9680
0.647819 92.471 147.7265
0.652514 92.448 147.4837
0.657242 92.424 147.2399
0.662005 92.400 146.9953
0.666802 92.376 146.7498
0.671634 92.352 146.5038
0.676501 92.328 146.2574
0.681403 92.304 146.0108
0.686341 92.279 145.7641
0.691314 92.254 145.5176
0.696324 92.229 145.2713
0.701370 92.204 145.0256
0.706452 92.178 144.7805
0.711571 92.152 144.5361
0.716728 92.125 144.2923
0.721921 92.097 144.0491
0.727153 92.067 143.8058
0.732422 92.036 143.5619
0.737729 92.002 143.3164
0.743075 91.967 143.0683
0.748460 91.930 142.8169
0.753883 91.892 142.5614
0.759346 91.853 142.3015
0.764849 91.813 142.0367
0.770391 91.772 141.7669
0.775974 91.731 141.4919
0.781597 91.689 141.2116
0.787261 91.647 140.9260
0.792966 91.604 140.6350
0.798712 91.561 140.3386
0.804500 91.517 140.0366
0.810329 91.472 139.7291
0.816201 91.427 139.4160
0.822116 91.381 139.0972
0.828073 91.335 138.7728
0.834074 91.288 138.4428
0.840118 91.240 138.1071
0.846206 91.191 137.7656
0.852338 91.141 137.4185
0.858514 91.091 137.0656
0.864735 91.040 136.7071
0.871001 90.988 136.3429
0.877313 90.935 135.9730
0.883670 90.881 135.5976
0.890074 90.826 135.2166
0.896524 90.770 134.8301
0.903020 90.714 134.4382
0.909564 90.656 134.0410
0.916155 90.596 133.6385
0.922794 90.536 133.2310
0.929481 90.474 132.8185
0.936216 90.412 132.4012
0.943000 90.347 131.9793
0.949834 90.282 131.5529
0.956717 90.215 131.1224
0.963649 90.147 130.6879
0.970632 90.077 130.2497
0.977666 90.005 129.8081
0.984750 89.932 129.3635
0.991886 89.857 128.9161
0.999074 89.781 128.4665
1.006314 89.703 128.0150
1.013606 89.623 127.5621
1.020951 89.541 127.1084
1.028349 89.457 126.6542
1.035801 89.371 126.2004
1.043307 89.283 125.7474
1.050867 89.192 125.2959
1.058482 89.100 124.8467
1.066152 89.005 124.4003
1.073878 88.909 123.9574
1.081660 88.810 123.5185
1.089498 88.709 123.0838
1.097393 88.608 122.6533
1.105345 88.505 122.2268
1.113355 88.401 121.8037
1.121423 88.298 121.3834
1.129549 88.194 120.9653
1.137734 88.091 120.5490
1.145979 87.988 120.1341
1.154283 87.885 119.7201
1.162647 87.782 119.3067
1.171072 87.678 118.8936
1.179558 87.574 118.4805
1.188106 87.468 118.0669
1.196715 87.362 117.6526
1.205387 87.254 117.2373
1.214122 87.144 116.8204
1.222920 87.031 116.4017
1.231782 86.917 115.9806
1.240708 86.799 115.5569
1.249699 86.678 115.1300
1.258754 86.553 114.6994
1.267876 86.424 114.2647
1.277063 86.291 113.8252
1.286318 86.153 113.3806
1.295639 86.009 112.9300
1.305027 85.859 112.4729
1.314484 85.703 112.0088
1.324009 85.540 111.5368
1.333604 85.369 111.0562
1.343268 85.191 110.5663
1.353002 85.004 110.0664
1.362806 84.808 109.5555
1.372681 84.602 109.0330
1.382628 84.386 108.4978
1.392647 84.159 107.9491
1.402739 83.920 107.3863
1.412904 83.669 106.8084
1.423142 83.404 106.2148
1.433455 83.124 105.6052
1.443843 82.828 104.9795
1.454305 82.513 104.3378
1.464844 82.178 103.6810
1.475459 81.817 103.0097
1.486150 81.429 102.3247
1.496920 81.012 101.6263
1.507767 80.563 100.9140
1.518693 80.083 100.1866
1.529698 79.573 99.4424
1.540783 79.033 98.6793
1.551948 78.465 97.8944
1.563194 77.871 97.0845
1.574521 77.254 96.2456
1.585931 76.615 95.3731
1.597423 75.959 94.4615
1.608999 75.287 93.5043
1.620658 74.602 92.4938
1.632402 73.909 91.4206
1.644232 73.210 90.2734
1.656146 72.510 89.0381
1.668147 71.813 87.6978
1.680235 71.122 86.2311
1.692411 70.444 84.6111
1.704675 69.782 82.8036
1.717028 69.143 80.7649
1.729470 68.532 78.4381
1.742003 67.956 75.7489
1.754626 67.423 72.5989
1.767341 66.938 68.8584
1.780147 66.511 64.3563
1.793047 66.149 58.8717
1.806040 65.861 52.1330
1.819128 65.653 43.8428
1.832310 65.531 33.7656
1.845587 65.498 21.9125
1.858961 65.556 8.7752
1.872432 65.701 -4.6408
1.886001 65.931 -17.2052
1.899667 66.240 -28.1784
1.913433 66.620 -37.3642
1.927299 67.066 -44.9196
1.941265 67.569 -51.1268
1.955332 68.122 -56.2661
1.969501 68.717 -60.5707
1.983773 69.346 -64.2214
1.998148 70.002 -67.3549
2.012627 70.676 -70.0734
2.027212 71.361 -72.4540
2.041902 72.050 -74.5548
2.056698 72.735 -76.4205
2.071602 73.408 -78.0855
2.086614 74.063 -79.5766
2.101734 74.693 -80.9156
2.116964 75.291 -82.1200
2.132304 75.853 -83.2050
2.147756 76.374 -84.1847
2.163320 76.851 -85.0730
2.178996 77.283 -85.8848
2.194786 77.673 -86.6362
2.210690 78.023 -87.3442
2.226710 78.339 -88.0242
2.242845 78.625 -88.6877
2.259098 78.884 -89.3421
2.275468 79.120 -89.9909
2.291957 79.335 -90.6352
2.308566 79.530 -91.2739
2.325295 79.707 -91.9049
2.342145 79.868 -92.5255
2.359117 80.013 -93.1326
2.376212 80.145 -93.7226
2.393431 80.265 -94.2918
2.410775 80.376 -94.8365
2.428244 80.477 -95.3527
2.445840 80.572 -95.8365
2.463564 80.661 -96.2840
2.481416 80.747 -96.6915
2.499397 80.831 -97.0561
2.517509 80.913 -97.3758
2.535752 80.994 -97.6502
2.554127 81.074 -97.8805
2.572635 81.150 -98.0704
2.591277 81.221 -98.2244
2.610055 81.286 -98.3470
2.628968 81.342 -98.4417
2.648019 81.391 -98.5106
2.667208 81.431 -98.5546
2.686535 81.463 -98.5736
2.706003 81.489 -98.5669
2.725612 81.509 -98.5333
2.745363 81.523 -98.4715
2.765257 81.535 -98.3797
2.785295 81.544 -98.2560
2.805478 81.552 -98.0987
2.825808 81.561 -97.9055
2.846285 81.571 -97.6746
2.866910 81.584 -97.4038
2.887685 81.600 -97.0910
2.908611 81.620 -96.7339
2.929688 81.643 -96.3306
2.950917 81.669 -95.8793
2.972301 81.697 -95.3790
2.993839 81.726 -94.8300
3.015534 81.756 -94.2339
3.037386 81.786 -93.5936
3.059396 81.818 -92.9127
3.081565 81.852 -92.1961
3.103896 81.888 -91.4489
3.126388 81.927 -90.6769
3.149043 81.970 -89.8863
3.171862 82.018 -89.0835
3.194847 82.072 -88.2745
3.217998 82.133 -87.4650
3.241317 82.201 -86.6593
3.264805 82.277 -85.8599
3.288463 82.362 -85.0674
3.312293 82.457 -84.2805
3.336295 82.561 -83.4973
3.360471 82.674 -82.7177
3.384822 82.795 -81.9435
3.409350 82.924 -81.1788
3.434056 83.061 -80.4294
3.458940 83.203 -79.7018
3.484005 83.350 -79.0028
3.509252 83.500 -78.3392
3.534681 83.653 -77.7173
3.560295 83.807 -77.1427
3.586094 83.962 -76.6197
3.612081 84.117 -76.1513
3.638255 84.272 -75.7388
3.664620 84.427 -75.3815
3.691175 84.582 -75.0768
3.717923 84.738 -74.8215
3.744864 84.895 -74.6120
3.772001 85.053 -74.4453
3.799335 85.211 -74.3185
3.826866 85.369 -74.2292
3.854597 85.526 -74.1756
3.882529 85.681 -74.1558
3.910664 85.833 -74.1685
3.939002 85.981 -74.2126
3.967546 86.126 -74.2878
3.996296 86.265 -74.3938
4.025255 86.400 -74.5312
4.054423 86.529 -74.7002
4.083804 86.653 -74.9007
4.113396 86.773 -75.1314
4.143204 86.888 -75.3896
4.173227 86.998 -75.6721
4.203468 87.103 -75.9747
4.233928 87.204 -76.2935
4.264609 87.301 -76.6244
4.295512 87.392 -76.9643
4.326639 87.479 -77.3106
4.357992 87.560 -77.6623
4.389572 87.637 -78.0197
4.421380 87.708 -78.3840
4.453419 87.773 -78.7566
4.485691 87.833 -79.1380
4.518196 87.887 -79.5268
4.550936 87.936 -79.9207
4.583914 87.981 -80.3159
4.617131 88.021 -80.7083
4.650589 88.057 -81.0938
4.684289 88.089 -81.4686
4.718233 88.118 -81.8298
4.752424 88.143 -82.1760
4.786862 88.164 -82.5070
4.821549 88.181 -82.8238
4.856488 88.194 -83.1270
4.891680 88.204 -83.4172
4.927127 88.211 -83.6941
4.962831 88.215 -83.9568
4.998794 88.217 -84.2038
5.035017 88.219 -84.4335
5.071503 88.219 -84.6441
5.108253 88.220 -84.8339
5.145270 88.220 -85.0019
5.182555 88.220 -85.1477
5.220110 88.220 -85.2721
5.257937 88.220 -85.3769
5.296038 88.221 -85.4648
5.334415 88.223 -85.5386
5.373071 88.226 -85.6013
5.412006 88.232 -85.6557
5.451224 88.240 -85.7034
5.490725 88.252 -85.7454
5.530514 88.267 -85.7821
5.570590 88.285 -85.8141
5.610957 88.307 -85.8431
5.651616 88.332 -85.8725
5.692570 88.360 -85.9063
5.733821 88.391 -85.9493
5.775370 88.424 -86.0062
5.817221 88.461 -86.0807
5.859375 88.501 -86.1750
5.901834 88.543 -86.2905
5.944602 88.589 -86.4275
5.987679 88.637 -86.5865
6.031068 88.687 -86.7687
6.074771 88.738 -86.9755
6.118792 88.791 -87.2091
6.163131 88.844 -87.4711
6.207792 88.897 -87.7633
6.252776 88.949 -88.0863
6.298086 89.002 -88.4402
6.343725 89.054 -88.8236
6.389694 89.105 -89.2346
6.435996 89.155 -89.6709
6.482634 89.203 -90.1304
6.529610 89.250 -90.6114
6.576926 89.294 -91.1127
6.624585 89.335 -91.6339
6.672590 89.374 -92.1740
6.720942 89.411 -92.7315
6.769645 89.445 -93.3035
6.818700 89.477 -93.8867
6.868111 89.506 -94.4774
6.917881 89.533 -95.0726
6.968010 89.558 -95.6704
7.018504 89.580 -96.2695
7.069362 89.600 -96.8690
7.120590 89.618 -97.4675
7.172189 89.635 -98.0627
7.224161 89.651 -98.6521
7.276511 89.666 -99.2334
7.329239 89.681 -99.8045
7.382350 89.696 -100.3646
7.435845 89.710 -100.9135
7.489729 89.726 -101.4513
7.544002 89.742 -101.9785
7.598669 89.760 -102.4953
7.653732 89.780 -103.0017
7.709194 89.802 -103.4979
7.765058 89.827 -103.9843
7.821327 89.854 -104.4620
7.878004 89.884 -104.9328
7.935091 89.917 -105.3989
7.992592 89.953 -105.8625
8.050510 89.993 -106.3255
8.108847 90.036 -106.7890
8.167607 90.082 -107.2542
8.226793 90.131 -107.7224
8.286408 90.183 -108.1952
8.346454 90.237 -108.6743
8.406936 90.294 -109.1611
8.467856 90.352 -109.6564
8.529218 90.412 -110.1605
8.591024 90.474 -110.6729
8.653278 90.537 -111.1932
8.715983 90.601 -111.7209
8.779143 90.664 -112.2555
8.842760 90.728 -112.7962
8.906839 90.792 -113.3420
8.971381 90.855 -113.8910
9.036392 90.917 -114.4414
9.101873 90.979 -114.9911
9.167829 91.040 -115.5383
9.234263 91.099 -116.0815
9.301178 91.158 -116.6193
9.368578 91.216 -117.1497
9.436467 91.272 -117.6710
9.504847 91.328 -118.1816
9.573723 91.383 -118.6801
9.643099 91.437 -119.1658
9.712976 91.490 -119.6382
9.783361 91.543 -120.0967
9.854255 91.596 -120.5412
9.925663 91.649 -120.9715
9.997588 91.702 -121.3878
10.070035 91.755 -121.7908
10.143007 91.808 -122.1814
10.216507 91.862 -122.5605
10.290540 91.916 -122.9291
10.365109 91.970 -123.2881
10.440219 92.024 -123.6386
10.515873 92.078 -123.9817
10.592076 92.133 -124.3187
10.668830 92.187 -124.6503
10.746141 92.241 -124.9774
10.824012 92.295 -125.3005
10.902447 92.348 -125.6202
10.981451 92.400 -125.9369
11.061027 92.452 -126.2509
11.141180 92.502 -126.5623
11.221913 92.551 -126.8711
11.303232 92.600 -127.1772
11.385140 92.646 -127.4805
11.467641 92.692 -127.7811
11.550741 92.736 -128.0789
11.634442 92.778 -128.3739
11.718750 92.819 -128.6663
11.803669 92.859 -128.9561
11.889203 92.898 -129.2437
11.975357 92.935 -129.5295
12.062136 92.970 -129.8140
12.149543 93.005 -130.0977
12.237583 93.038 -130.3811
12.326262 93.070 -130.6649
12.415583 93.100 -130.9496
12.505552 93.129 -131.2357
12.596172 93.157 -131.5236
12.687449 93.183 -131.8137
12.779387 93.207 -132.1063
12.871992 93.230 -132.4014
12.965268 93.252 -132.6992
13.059220 93.272 -132.9997
13.153852 93.290 -133.3027
13.249170 93.307 -133.6083
13.345179 93.323 -133.9163
13.441884 93.337 -134.2269
13.539289 93.351 -134.5402
13.637401 93.363 -134.8564
13.736223 93.375 -135.1759
13.835761 93.386 -135.4993
13.936021 93.396 -135.8273
14.037007 93.406 -136.1605
14.138725 93.416 -136.4998
14.241180 93.426 -136.8461
14.344377 93.435 -137.2001
14.448323 93.445 -137.5624
14.553021 93.454 -137.9336
14.658478 93.463 -138.3139
14.764700 93.472 -138.7034
14.871691 93.481 -139.1018
14.979457 93.489 -139.5086
15.088005 93.497 -139.9231
15.197339 93.505 -140.3444
15.307465 93.512 -140.7715
15.418389 93.520 -141.2033
15.530117 93.528 -141.6387
15.642655 93.536 -142.0769
15.756008 93.544 -142.5170
15.870182 93.553 -142.9583
15.985184 93.563 -143.4006
16.101019 93.573 -143.8436
16.217694 93.585 -144.2875
16.335214 93.598 -144.7324
16.453586 93.613 -145.1785
16.572815 93.628 -145.6260
16.692909 93.645 -146.0752
16.813872 93.663 -146.5260
16.935713 93.682 -146.9782
17.058436 93.701 -147.4314
17.182048 93.721 -147.8846
17.306556 93.742 -148.3371
17.431967 93.762 -148.7876
17.558286 93.783 -149.2347
17.685521 93.804 -149.6770
17.813677 93.824 -150.1133
17.942762 93.844 -150.5421
18.072783 93.864 -150.9625
18.203746 93.884 -151.3735
18.335658 93.904 -151.7745
18.468526 93.924 -152.1652
18.602356 93.943 -152.5455
18.737156 93.963 -152.9155
18.872934 93.982 -153.2756
19.009695 94.001 -153.6263
19.147447 94.020 -153.9682
19.286197 94.039 -154.3022
19.425953 94.057 -154.6291
19.566721 94.074 -154.9497
19.708510 94.091 -155.2651
19.851326 94.108 -155.5762
19.995177 94.123 -155.8839
20.140070 94.137 -156.1890
20.286013 94.151 -156.4923
20.433014 94.163 -156.7946
20.581080 94.173 -157.0964
20.730219 94.182 -157.3980
20.880439 94.190 -157.6998
21.031747 94.195 -158.0017
21.184152 94.200 -158.3040
21.337661 94.202 -158.6067
21.492282 94.203 -158.9099
21.648024 94.202 -159.2139
21.804895 94.201 -159.5191
21.962902 94.198 -159.8262
22.122054 94.194 -160.1357
22.282360 94.190 -160.4488
22.443827 94.185 -160.7661
22.606464 94.179 -161.0887
22.770280 94.173 -161.4171
22.935283 94.167 -161.7518
23.101481 94.160 -162.0929
23.268884 94.153 -162.4404
23.437500 94.146 -162.7940
23.607338 94.139 -163.1530
23.778406 94.132 -163.5171
23.950714 94.125 -163.8855
24.124271 94.118 -164.2577
24.299086 94.113 -164.6332
24.475167 94.107 -165.0115
24.652524 94.103 -165.3922
24.831166 94.100 -165.7749
25.011103 94.097 -166.1590
25.192344 94.095 -166.5439
25.374898 94.095 -166.9289
25.558775 94.095 -167.3135
25.743984 94.096 -167.6968
25.930536 94.098 -168.0783
26.118439 94.100 -168.4575
26.307704 94.103 -168.8337
26.498341 94.106 -169.2066
26.690359 94.110 -169.5756
26.883768 94.113 -169.9402
27.078579 94.117 -170.2998
27.274801 94.120 -170.6537
27.472446 94.122 -171.0012
27.671522 94.124 -171.3420
27.872042 94.125 -171.6757
28.074014 94.125 -172.0024
28.277450 94.125 -172.3224
28.482360 94.124 -172.6364
28.688755 94.122 -172.9451
28.896645 94.119 -173.2495
29.106042 94.115 -173.5506
29.316957 94.109 -173.8493
29.529400 94.103 -174.1464
29.743382 94.096 -174.4428
29.958915 94.087 -174.7395
30.176009 94.078 -175.0371
30.394677 94.067 -175.3368
30.614929 94.055 -175.6392
30.836778 94.043 -175.9452
31.060234 94.029 -176.2552
31.285309 94.015 -176.5694
31.512015 94.000 -176.8878
31.740364 93.985 -177.2102
31.970368 93.969 -177.5363
32.202039 93.953 -177.8661
32.435388 93.937 -178.1996
32.670428 93.922 -178.5368
32.907171 93.906 -178.8781
33.145630 93.891 -179.2232
33.385817 93.877 -179.5720
33.627745 93.862 -179.9234
33.871425 93.847 179.7237
34.116871 93.833 179.3710
34.364096 93.819 179.0198
34.613113 93.804 178.6717
34.863934 93.790 178.3274
35.116572 93.776 177.9875
35.371041 93.763 177.6520
35.627354 93.749 177.3209
35.885525 93.735 176.9942
36.145566 93.721 176.6721
36.407492 93.706 176.3550
36.671316 93.691 176.0435
36.937051 93.675 175.7381
37.204712 93.658 175.4390
37.474313 93.641 175.1458
37.745867 93.624 174.8575
38.019389 93.605 174.5728
38.294893 93.587 174.2900
38.572394 93.568 174.0077
38.851905 93.548 173.7247
39.133442 93.528 173.4406
39.417019 93.507 173.1553
39.702651 93.485 172.8688
39.990353 93.462 172.5815
40.280140 93.439 172.2931
40.572026 93.415 172.0036
40.866028 93.391 171.7128
41.162160 93.367 171.4210
41.460438 93.342 171.1287
41.760877 93.317 170.8370
42.063494 93.292 170.5469
42.368303 93.266 170.2592
42.675322 93.241 169.9740
42.984565 93.216 169.6909
43.296048 93.191 169.4094
43.609789 93.166 169.1289
43.925804 93.141 168.8491
44.244108 93.116 168.5701
44.564719 93.091 168.2923
44.887654 93.065 168.0161
45.212928 93.039 167.7416
45.540560 93.013 167.4688
45.870565 92.986 167.1975
46.202962 92.959 166.9276
46.537768 92.931 166.6592
46.875000 92.903 166.3932
47.214676 92.874 166.1302
47.556813 92.844 165.8710
47.901429 92.814 165.6160
48.248542 92.785 165.3652
48.598171 92.755 165.1180
48.950334 92.725 164.8734
49.305048 92.696 164.6304
49.662333 92.666 164.3881
50.022206 92.637 164.1459
50.384688 92.607 163.9041
50.749796 92.576 163.6633
51.117550 92.545 163.4248
51.487969 92.513 163.1898
51.861072 92.481 162.9591
52.236879 92.447 162.7329
52.615409 92.414 162.5109
52.996681 92.380 162.2924
53.380717 92.346 162.0767
53.767536 92.311 161.8633
54.157158 92.277 161.6512
54.549603 92.242 161.4397
54.944892 92.208 161.2280
55.343045 92.174 161.0160
55.744084 92.140 160.8038
56.148028 92.105 160.5917
56.554900 92.072 160.3795
56.964720 92.038 160.1666
57.377510 92.005 159.9520
57.793291 91.972 159.7352
58.212085 91.939 159.5162
58.633914 91.905 159.2960
59.058799 91.870 159.0756
59.486764 91.834 158.8564
59.917829 91.796 158.6399
60.352019 91.758 158.4282
60.789354 91.718 158.2231
61.229859 91.676 158.0261
61.673556 91.634 157.8369
62.120468 91.592 157.6540
62.570618 91.550 157.4751
63.024031 91.507 157.2984
63.480729 91.465 157.1228
63.940736 91.422 156.9481
64.404077 91.379 156.7745
64.870776 91.336 156.6026
65.340856 91.293 156.4332
65.814343 91.250 156.2673
66.291261 91.206 156.1058
66.771635 91.163 155.9494
67.255489 91.119 155.7982
67.742850 91.075 155.6526
68.233743 91.031 155.5131
68.728193 90.986 155.3801
69.226226 90.941 155.2537
69.727867 90.896 155.1329
70.233144 90.852 155.0160
70.742083 90.807 154.9007
71.254709 90.762 154.7857
71.771050 90.718 154.6711
72.291132 90.673 154.5577
72.814984 90.628 154.4463
73.342631 90.583 154.3366
73.874102 90.539 154.2276
74.409424 90.495 154.1182
74.948626 90.451 154.0082
75.491734 90.407 153.8993
76.038779 90.362 153.7936
76.589787 90.317 153.6924
77.144788 90.272 153.5955
77.703811 90.227 153.5013
78.266885 90.182 153.4081
78.834039 90.136 153.3148
79.405303 90.091 153.2206
79.980706 90.044 153.1249
80.560280 89.998 153.0272
81.144053 89.950 152.9275
81.732056 89.903 152.8256
82.324320 89.854 152.7214
82.920876 89.804 152.6161
83.521755 89.753 152.5121
84.126988 89.701 152.4130
84.736607 89.647 152.3223
85.350643 89.591 152.2431
85.969129 89.534 152.1779
86.592097 89.477 152.1278
87.219579 89.419 152.0919
