* Measurement data measured by REW V5.31.3
* Source: EXCL: Microphone (USB Sound Device        ), MICROPHONE (Master Volume), R, volume: 0.390
* Format: 256k Log Swept Sine, 1 sweep at -12.0 dBFS with no timing reference
* Dated: Jul 14, 2025 2:34:42 PM
* REW Settings:
*  C-weighting compensation: Off
*  Target level: 75.0 dB
* Note: CrinEar Daybreak R
* Measurement: R CrinEar Daybreak
* Smoothing: 1/12 octave
* Frequency Step: 96 ppo
* Start Frequency: 0.36621094 Hz
*
* Freq(Hz) SPL(dB) Phase(degrees)
0.366211 92.820 162.4762
0.368865 92.815 162.4575
0.371538 92.807 162.4296
0.374230 92.798 162.3945
0.376942 92.787 162.3540
0.379673 92.776 162.3097
0.382424 92.764 162.2622
0.385196 92.752 162.2122
0.387987 92.739 162.1599
0.390798 92.727 162.1056
0.393630 92.714 162.0492
0.396483 92.701 161.9909
0.399356 92.688 161.9307
0.402250 92.675 161.8685
0.405165 92.662 161.8043
0.408101 92.649 161.7381
0.411058 92.635 161.6699
0.414037 92.622 161.5997
0.417037 92.608 161.5275
0.420059 92.595 161.4532
0.423103 92.581 161.3768
0.426169 92.567 161.2983
0.429257 92.553 161.2177
0.432368 92.539 161.1349
0.435501 92.525 161.0501
0.438656 92.511 160.9630
0.441835 92.497 160.8738
0.445037 92.482 160.7824
0.448262 92.468 160.6887
0.451510 92.453 160.5929
0.454782 92.438 160.4948
0.458077 92.423 160.3944
0.461397 92.408 160.2918
0.464740 92.393 160.1869
0.468108 92.378 160.0797
0.471500 92.363 159.9701
0.474917 92.347 159.8583
0.478358 92.332 159.7442
0.481825 92.316 159.6277
0.485316 92.300 159.5088
0.488833 92.285 159.3876
0.492375 92.269 159.2641
0.495943 92.253 159.1382
0.499537 92.236 159.0099
0.503157 92.220 158.8793
0.506803 92.204 158.7462
0.510475 92.187 158.6108
0.514175 92.170 158.4731
0.517900 92.154 158.3329
0.521653 92.137 158.1904
0.525434 92.120 158.0455
0.529241 92.102 157.8983
0.533076 92.085 157.7487
0.536939 92.068 157.5968
0.540830 92.050 157.4425
0.544749 92.032 157.2859
0.548696 92.015 157.1271
0.552673 91.997 156.9659
0.556677 91.979 156.8025
0.560711 91.961 156.6369
0.564774 91.942 156.4690
0.568867 91.924 156.2989
0.572989 91.905 156.1267
0.577141 91.886 155.9524
0.581324 91.868 155.7759
0.585536 91.849 155.5974
0.589779 91.829 155.4170
0.594053 91.810 155.2345
0.598358 91.791 155.0501
0.602694 91.771 154.8639
0.607061 91.752 154.6759
0.611460 91.732 154.4861
0.615891 91.712 154.2946
0.620354 91.692 154.1015
0.624849 91.671 153.9069
0.629377 91.651 153.7108
0.633938 91.630 153.5134
0.638532 91.610 153.3146
0.643159 91.589 153.1146
0.647819 91.568 152.9136
0.652514 91.547 152.7115
0.657242 91.525 152.5086
0.662005 91.504 152.3048
0.666802 91.482 152.1005
0.671634 91.460 151.8956
0.676501 91.438 151.6903
0.681403 91.416 151.4848
0.686341 91.394 151.2791
0.691314 91.372 151.0736
0.696324 91.349 150.8682
0.701370 91.326 150.6631
0.706452 91.303 150.4585
0.711571 91.279 150.2544
0.716728 91.255 150.0507
0.721921 91.229 149.8473
0.727153 91.203 149.6439
0.732422 91.174 149.4398
0.737729 91.144 149.2344
0.743075 91.112 149.0269
0.748460 91.079 148.8165
0.753883 91.045 148.6028
0.759346 91.009 148.3854
0.764849 90.973 148.1641
0.770391 90.937 147.9387
0.775974 90.899 147.7090
0.781597 90.862 147.4751
0.787261 90.824 147.2369
0.792966 90.785 146.9943
0.798712 90.746 146.7473
0.804500 90.706 146.4958
0.810329 90.666 146.2399
0.816201 90.625 145.9795
0.822116 90.583 145.7147
0.828073 90.541 145.4453
0.834074 90.499 145.1714
0.840118 90.455 144.8931
0.846206 90.411 144.6102
0.852338 90.367 144.3228
0.858514 90.321 144.0309
0.864735 90.275 143.7345
0.871001 90.228 143.4337
0.877313 90.180 143.1285
0.883670 90.132 142.8189
0.890074 90.082 142.5051
0.896524 90.032 142.1869
0.903020 89.981 141.8646
0.909564 89.928 141.5381
0.916155 89.875 141.2076
0.922794 89.821 140.8733
0.929481 89.765 140.5351
0.936216 89.709 140.1932
0.943000 89.651 139.8479
0.949834 89.592 139.4991
0.956717 89.532 139.1472
0.963649 89.471 138.7923
0.970632 89.409 138.4346
0.977666 89.345 138.0744
0.984750 89.280 137.7119
0.991886 89.213 137.3475
0.999074 89.145 136.9813
1.006314 89.075 136.6138
1.013606 89.004 136.2453
1.020951 88.931 135.8761
1.028349 88.856 135.5069
1.035801 88.780 135.1378
1.043307 88.702 134.7695
1.050867 88.622 134.4025
1.058482 88.541 134.0372
1.066152 88.457 133.6742
1.073878 88.372 133.3139
1.081660 88.285 132.9566
1.089498 88.196 132.6026
1.097393 88.106 132.2519
1.105345 88.016 131.9043
1.113355 87.925 131.5592
1.121423 87.833 131.2164
1.129549 87.742 130.8755
1.137734 87.650 130.5360
1.145979 87.559 130.1976
1.154283 87.467 129.8603
1.162647 87.375 129.5236
1.171072 87.283 129.1875
1.179558 87.190 128.8516
1.188106 87.096 128.5159
1.196715 87.001 128.1799
1.205387 86.905 127.8437
1.214122 86.807 127.5068
1.222920 86.707 127.1691
1.231782 86.605 126.8303
1.240708 86.500 126.4901
1.249699 86.392 126.1482
1.258754 86.282 125.8043
1.267876 86.168 125.4581
1.277063 86.050 125.1093
1.286318 85.928 124.7574
1.295639 85.801 124.4022
1.305027 85.670 124.0431
1.314484 85.533 123.6798
1.324009 85.391 123.3117
1.333604 85.242 122.9385
1.343268 85.087 122.5597
1.353002 84.925 122.1746
1.362806 84.756 121.7827
1.372681 84.578 121.3834
1.382628 84.392 120.9762
1.392647 84.197 120.5604
1.402739 83.993 120.1354
1.412904 83.778 119.7005
1.423142 83.552 119.2553
1.433455 83.314 118.7994
1.443843 83.063 118.3325
1.454305 82.796 117.8547
1.464844 82.513 117.3664
1.475459 82.209 116.8680
1.486150 81.884 116.3602
1.496920 81.535 115.8431
1.507767 81.161 115.3166
1.518693 80.763 114.7803
1.529698 80.340 114.2334
1.540783 79.894 113.6746
1.551948 79.427 113.1028
1.563194 78.939 112.5162
1.574521 78.433 111.9130
1.585931 77.910 111.2911
1.597423 77.373 110.6479
1.608999 76.824 109.9806
1.620658 76.266 109.2857
1.632402 75.701 108.5595
1.644232 75.131 107.7973
1.656146 74.561 106.9937
1.668147 73.993 106.1422
1.680235 73.430 105.2353
1.692411 72.876 104.2636
1.704675 72.335 103.2160
1.717028 71.811 102.0787
1.729470 71.308 100.8348
1.742003 70.832 99.4632
1.754626 70.386 97.9375
1.767341 69.976 96.2242
1.780147 69.609 94.2804
1.793047 69.288 92.0503
1.806040 69.018 89.4607
1.819128 68.806 86.4131
1.832310 68.652 82.7722
1.845587 68.559 78.3468
1.858961 68.527 72.8641
1.872432 68.554 65.9413
1.886001 68.638 57.0825
1.899667 68.776 45.7842
1.913433 68.963 31.9019
1.927299 69.197 16.2550
1.941265 69.473 0.7110
1.955332 69.787 -12.9200
1.969501 70.134 -23.9154
1.983773 70.510 -32.4726
1.998148 70.910 -39.1075
2.012627 71.330 -44.3140
2.027212 71.765 -48.4723
2.041902 72.210 -51.8551
2.056698 72.660 -54.6544
2.071602 73.110 -57.0063
2.086614 73.557 -59.0084
2.101734 73.994 -60.7327
2.116964 74.419 -62.2337
2.132304 74.827 -63.5548
2.147756 75.216 -64.7322
2.163320 75.583 -65.7979
2.178996 75.929 -66.7806
2.194786 76.256 -67.7044
2.210690 76.567 -68.5848
2.226710 76.866 -69.4256
2.242845 77.156 -70.2238
2.259098 77.440 -70.9756
2.275468 77.719 -71.6786
2.291957 77.993 -72.3330
2.308566 78.264 -72.9407
2.325295 78.531 -73.5045
2.342145 78.795 -74.0279
2.359117 79.054 -74.5145
2.376212 79.309 -74.9674
2.393431 79.559 -75.3897
2.410775 79.805 -75.7843
2.428244 80.045 -76.1535
2.445840 80.280 -76.4995
2.463564 80.508 -76.8242
2.481416 80.731 -77.1292
2.499397 80.946 -77.4157
2.517509 81.154 -77.6846
2.535752 81.354 -77.9366
2.554127 81.546 -78.1722
2.572635 81.728 -78.3921
2.591277 81.901 -78.5971
2.610055 82.064 -78.7887
2.628968 82.218 -78.9678
2.648019 82.362 -79.1353
2.667208 82.497 -79.2918
2.686535 82.624 -79.4373
2.706003 82.744 -79.5718
2.725612 82.857 -79.6950
2.745363 82.965 -79.8064
2.765257 83.068 -79.9056
2.785295 83.167 -79.9920
2.805478 83.264 -80.0649
2.825808 83.360 -80.1237
2.846285 83.454 -80.1678
2.866910 83.549 -80.1964
2.887685 83.644 -80.2091
2.908611 83.740 -80.2053
2.929688 83.837 -80.1848
2.950917 83.933 -80.1476
2.972301 84.029 -80.0940
2.993839 84.123 -80.0247
3.015534 84.216 -79.9406
3.037386 84.306 -79.8428
3.059396 84.395 -79.7326
3.081565 84.483 -79.6113
3.103896 84.569 -79.4802
3.126388 84.654 -79.3408
3.149043 84.740 -79.1943
3.171862 84.825 -79.0421
3.194847 84.911 -78.8854
3.217998 84.998 -78.7249
3.241317 85.086 -78.5613
3.264805 85.176 -78.3944
3.288463 85.267 -78.2237
3.312293 85.360 -78.0482
3.336295 85.455 -77.8669
3.360471 85.550 -77.6794
3.384822 85.647 -77.4863
3.409350 85.745 -77.2891
3.434056 85.843 -77.0898
3.458940 85.942 -76.8907
3.484005 86.042 -76.6947
3.509252 86.142 -76.5044
3.534681 86.243 -76.3225
3.560295 86.344 -76.1516
3.586094 86.446 -75.9938
3.612081 86.548 -75.8504
3.638255 86.650 -75.7224
3.664620 86.753 -75.6096
3.691175 86.856 -75.5111
3.717923 86.960 -75.4258
3.744864 87.065 -75.3529
3.772001 87.170 -75.2919
3.799335 87.275 -75.2427
3.826866 87.380 -75.2055
3.854597 87.485 -75.1807
3.882529 87.589 -75.1688
3.910664 87.692 -75.1705
3.939002 87.795 -75.1863
3.967546 87.896 -75.2167
3.996296 87.995 -75.2622
4.025255 88.094 -75.3231
4.054423 88.190 -75.3993
4.083804 88.285 -75.4905
4.113396 88.379 -75.5963
4.143204 88.471 -75.7156
4.173227 88.562 -75.8477
4.203468 88.651 -75.9915
4.233928 88.738 -76.1459
4.264609 88.823 -76.3100
4.295512 88.906 -76.4832
4.326639 88.987 -76.6650
4.357992 89.066 -76.8552
4.389572 89.142 -77.0541
4.421380 89.216 -77.2621
4.453419 89.287 -77.4795
4.485691 89.356 -77.7060
4.518196 89.422 -77.9410
4.550936 89.486 -78.1832
4.583914 89.547 -78.4309
4.617131 89.606 -78.6823
4.650589 89.663 -78.9359
4.684289 89.718 -79.1901
4.718233 89.771 -79.4440
4.752424 89.822 -79.6971
4.786862 89.870 -79.9496
4.821549 89.917 -80.2018
4.856488 89.961 -80.4540
4.891680 90.002 -80.7062
4.927127 90.042 -80.9579
4.962831 90.081 -81.2083
4.998794 90.117 -81.4564
5.035017 90.153 -81.7013
5.071503 90.187 -81.9420
5.108253 90.220 -82.1780
5.145270 90.253 -82.4089
5.182555 90.285 -82.6347
5.220110 90.315 -82.8560
5.257937 90.345 -83.0732
5.296038 90.374 -83.2871
5.334415 90.402 -83.4981
5.373071 90.431 -83.7070
5.412006 90.459 -83.9139
5.451224 90.488 -84.1193
5.490725 90.518 -84.3231
5.530514 90.547 -84.5252
5.570590 90.578 -84.7261
5.610957 90.608 -84.9263
5.651616 90.640 -85.1269
5.692570 90.671 -85.3293
5.733821 90.704 -85.5349
5.775370 90.737 -85.7453
5.817221 90.772 -85.9615
5.859375 90.807 -86.1842
5.901834 90.843 -86.4137
5.944602 90.880 -86.6504
5.987679 90.918 -86.8947
6.031068 90.957 -87.1474
6.074771 90.996 -87.4096
6.118792 91.036 -87.6825
6.163131 91.077 -87.9671
6.207792 91.118 -88.2645
6.252776 91.159 -88.5750
6.298086 91.201 -88.8989
6.343725 91.243 -89.2358
6.389694 91.285 -89.5857
6.435996 91.327 -89.9481
6.482634 91.369 -90.3229
6.529610 91.411 -90.7099
6.576926 91.452 -91.1091
6.624585 91.493 -91.5206
6.672590 91.533 -91.9441
6.720942 91.572 -92.3790
6.769645 91.611 -92.8244
6.818700 91.650 -93.2791
6.868111 91.687 -93.7419
6.917881 91.724 -94.2119
6.968010 91.760 -94.6884
7.018504 91.795 -95.1709
7.069362 91.830 -95.6590
7.120590 91.864 -96.1518
7.172189 91.897 -96.6481
7.224161 91.930 -97.1466
7.276511 91.962 -97.6461
7.329239 91.994 -98.1456
7.382350 92.026 -98.6446
7.435845 92.058 -99.1429
7.489729 92.090 -99.6399
7.544002 92.121 -100.1353
7.598669 92.154 -100.6285
7.653732 92.186 -101.1189
7.709194 92.220 -101.6062
7.765058 92.254 -102.0902
7.821327 92.289 -102.5709
7.878004 92.325 -103.0487
7.935091 92.362 -103.5238
7.992592 92.400 -103.9965
8.050510 92.440 -104.4670
8.108847 92.480 -104.9355
8.167607 92.522 -105.4022
8.226793 92.566 -105.8676
8.286408 92.611 -106.3322
8.346454 92.657 -106.7965
8.406936 92.704 -107.2611
8.467856 92.753 -107.7262
8.529218 92.803 -108.1920
8.591024 92.854 -108.6586
8.653278 92.905 -109.1261
8.715983 92.958 -109.5946
8.779143 93.011 -110.0642
8.842760 93.065 -110.5348
8.906839 93.120 -111.0061
8.971381 93.174 -111.4778
9.036392 93.229 -111.9493
9.101873 93.284 -112.4202
9.167829 93.339 -112.8898
9.234263 93.394 -113.3577
9.301178 93.449 -113.8234
9.368578 93.503 -114.2860
9.436467 93.557 -114.7448
9.504847 93.611 -115.1991
9.573723 93.664 -115.6483
9.643099 93.717 -116.0918
9.712976 93.770 -116.5293
9.783361 93.822 -116.9600
9.854255 93.873 -117.3837
9.925663 93.925 -117.7999
9.997588 93.975 -118.2085
10.070035 94.026 -118.6094
10.143007 94.076 -119.0026
10.216507 94.126 -119.3882
10.290540 94.176 -119.7662
10.365109 94.225 -120.1369
10.440219 94.274 -120.5005
10.515873 94.323 -120.8575
10.592076 94.371 -121.2082
10.668830 94.419 -121.5530
10.746141 94.467 -121.8924
10.824012 94.514 -122.2267
10.902447 94.560 -122.5564
10.981451 94.606 -122.8818
11.061027 94.652 -123.2035
11.141180 94.696 -123.5215
11.221913 94.740 -123.8364
11.303232 94.783 -124.1483
11.385140 94.825 -124.4574
11.467641 94.866 -124.7641
11.550741 94.906 -125.0684
11.634442 94.946 -125.3706
11.718750 94.983 -125.6707
11.803669 95.020 -125.9690
11.889203 95.056 -126.2657
11.975357 95.090 -126.5608
12.062136 95.124 -126.8546
12.149543 95.156 -127.1473
12.237583 95.186 -127.4391
12.326262 95.216 -127.7302
12.415583 95.244 -128.0209
12.505552 95.272 -128.3113
12.596172 95.298 -128.6019
12.687449 95.322 -128.8928
12.779387 95.346 -129.1843
12.871992 95.369 -129.4768
12.965268 95.390 -129.7704
13.059220 95.410 -130.0654
13.153852 95.430 -130.3622
13.249170 95.448 -130.6609
13.345179 95.465 -130.9619
13.441884 95.481 -131.2654
13.539289 95.497 -131.5718
13.637401 95.512 -131.8814
13.736223 95.526 -132.1945
13.835761 95.539 -132.5115
13.936021 95.552 -132.8326
14.037007 95.564 -133.1584
14.138725 95.576 -133.4891
14.241180 95.587 -133.8250
14.344377 95.598 -134.1664
14.448323 95.608 -134.5137
14.553021 95.618 -134.8668
14.658478 95.628 -135.2260
14.764700 95.638 -135.5913
14.871691 95.647 -135.9625
14.979457 95.656 -136.3395
15.088005 95.665 -136.7219
15.197339 95.674 -137.1095
15.307465 95.683 -137.5018
15.418389 95.692 -137.8984
15.530117 95.700 -138.2988
15.642655 95.709 -138.7025
15.756008 95.718 -139.1089
15.870182 95.728 -139.5178
15.985184 95.738 -139.9287
16.101019 95.748 -140.3413
16.217694 95.759 -140.7552
16.335214 95.770 -141.1702
16.453586 95.782 -141.5862
16.572815 95.795 -142.0028
16.692909 95.808 -142.4198
16.813872 95.822 -142.8368
16.935713 95.837 -143.2536
17.058436 95.852 -143.6695
17.182048 95.867 -144.0842
17.306556 95.883 -144.4969
17.431967 95.899 -144.9069
17.558286 95.915 -145.3135
17.685521 95.932 -145.7160
17.813677 95.948 -146.1137
17.942762 95.965 -146.5058
18.072783 95.982 -146.8920
18.203746 95.999 -147.2718
18.335658 96.016 -147.6449
18.468526 96.033 -148.0112
18.602356 96.050 -148.3710
18.737156 96.068 -148.7242
18.872934 96.085 -149.0714
19.009695 96.101 -149.4127
19.147447 96.118 -149.7486
19.286197 96.134 -150.0796
19.425953 96.150 -150.4058
19.566721 96.165 -150.7276
19.708510 96.179 -151.0452
19.851326 96.192 -151.3586
19.995177 96.205 -151.6682
20.140070 96.216 -151.9739
20.286013 96.226 -152.2759
20.433014 96.235 -152.5744
20.581080 96.244 -152.8698
20.730219 96.251 -153.1625
20.880439 96.256 -153.4530
21.031747 96.261 -153.7422
21.184152 96.265 -154.0307
21.337661 96.269 -154.3194
21.492282 96.271 -154.6091
21.648024 96.272 -154.9007
21.804895 96.272 -155.1948
21.962902 96.271 -155.4921
22.122054 96.270 -155.7930
22.282360 96.267 -156.0978
22.443827 96.264 -156.4066
22.606464 96.260 -156.7195
22.770280 96.255 -157.0363
22.935283 96.250 -157.3569
23.101481 96.244 -157.6812
23.268884 96.237 -158.0090
23.437500 96.231 -158.3404
23.607338 96.224 -158.6752
23.778406 96.218 -159.0134
23.950714 96.212 -159.3550
24.124271 96.206 -159.7000
24.299086 96.200 -160.0482
24.475167 96.195 -160.3993
24.652524 96.190 -160.7530
24.831166 96.185 -161.1086
25.011103 96.181 -161.4655
25.192344 96.178 -161.8228
25.374898 96.175 -162.1798
25.558775 96.172 -162.5355
25.743984 96.170 -162.8891
25.930536 96.168 -163.2398
26.118439 96.166 -163.5869
26.307704 96.165 -163.9300
26.498341 96.165 -164.2684
26.690359 96.164 -164.6019
26.883768 96.164 -164.9301
27.078579 96.164 -165.2528
27.274801 96.164 -165.5697
27.472446 96.164 -165.8808
27.671522 96.164 -166.1862
27.872042 96.164 -166.4861
28.074014 96.163 -166.7810
28.277450 96.162 -167.0714
28.482360 96.161 -167.3580
28.688755 96.159 -167.6417
28.896645 96.156 -167.9230
29.106042 96.152 -168.2025
29.316957 96.148 -168.4806
29.529400 96.142 -168.7574
29.743382 96.135 -169.0330
29.958915 96.127 -169.3071
30.176009 96.118 -169.5797
30.394677 96.108 -169.8510
30.614929 96.097 -170.1214
30.836778 96.086 -170.3915
31.060234 96.074 -170.6625
31.285309 96.063 -170.9356
31.512015 96.051 -171.2121
31.740364 96.039 -171.4930
31.970368 96.027 -171.7788
32.202039 96.014 -172.0696
32.435388 96.002 -172.3648
32.670428 95.989 -172.6632
32.907171 95.976 -172.9633
33.145630 95.962 -173.2636
33.385817 95.949 -173.5624
33.627745 95.936 -173.8586
33.871425 95.923 -174.1514
34.116871 95.911 -174.4406
34.364096 95.900 -174.7264
34.613113 95.890 -175.0092
34.863934 95.881 -175.2899
35.116572 95.873 -175.5691
35.371041 95.866 -175.8477
35.627354 95.859 -176.1266
35.885525 95.853 -176.4063
36.145566 95.847 -176.6874
36.407492 95.840 -176.9701
36.671316 95.834 -177.2543
36.937051 95.826 -177.5395
37.204712 95.818 -177.8250
37.474313 95.809 -178.1099
37.745867 95.798 -178.3934
38.019389 95.787 -178.6751
38.294893 95.774 -178.9547
38.572394 95.761 -179.2325
38.851905 95.747 -179.5089
39.133442 95.731 -179.7843
39.417019 95.716 179.9408
39.702651 95.699 179.6660
39.990353 95.682 179.3914
40.280140 95.665 179.1168
40.572026 95.647 178.8422
40.866028 95.629 178.5674
41.162160 95.610 178.2925
41.460438 95.591 178.0175
41.760877 95.572 177.7427
42.063494 95.553 177.4686
42.368303 95.533 177.1957
42.675322 95.513 176.9248
42.984565 95.494 176.6560
43.296048 95.474 176.3896
43.609789 95.453 176.1255
43.925804 95.433 175.8636
44.244108 95.413 175.6039
44.564719 95.392 175.3464
44.887654 95.371 175.0914
45.212928 95.350 174.8391
45.540560 95.328 174.5894
45.870565 95.306 174.3423
46.202962 95.284 174.0975
46.537768 95.262 173.8541
46.875000 95.239 173.6120
47.214676 95.216 173.3710
47.556813 95.192 173.1316
47.901429 95.169 172.8947
48.248542 95.145 172.6608
48.598171 95.120 172.4304
48.950334 95.097 172.2028
49.305048 95.073 171.9770
49.662333 95.050 171.7521
50.022206 95.026 171.5273
50.384688 95.003 171.3029
50.749796 94.979 171.0797
51.117550 94.955 170.8586
51.487969 94.930 170.6406
51.861072 94.905 170.4262
52.236879 94.880 170.2156
52.615409 94.854 170.0093
52.996681 94.828 169.8073
53.380717 94.802 169.6097
53.767536 94.776 169.4163
54.157158 94.749 169.2260
54.549603 94.723 169.0375
54.944892 94.698 168.8495
55.343045 94.672 168.6609
55.744084 94.647 168.4712
56.148028 94.622 168.2799
56.554900 94.596 168.0869
56.964720 94.571 167.8918
57.377510 94.546 167.6948
57.793291 94.520 167.4964
58.212085 94.494 167.2976
58.633914 94.467 167.0997
59.058799 94.439 166.9042
59.486764 94.411 166.7120
59.917829 94.382 166.5234
60.352019 94.352 166.3383
60.789354 94.322 166.1562
61.229859 94.292 165.9769
61.673556 94.260 165.8001
62.120468 94.229 165.6260
62.570618 94.196 165.4548
63.024031 94.164 165.2863
63.480729 94.131 165.1204
63.940736 94.098 164.9570
64.404077 94.064 164.7962
64.870776 94.031 164.6382
65.340856 93.998 164.4832
65.814343 93.965 164.3315
66.291261 93.932 164.1832
66.771635 93.899 164.0381
67.255489 93.866 163.8965
67.742850 93.833 163.7584
68.233743 93.800 163.6241
68.728193 93.767 163.4940
69.226226 93.733 163.3680
69.727867 93.699 163.2464
70.233144 93.665 163.1285
70.742083 93.632 163.0136
71.254709 93.598 162.9005
71.771050 93.564 162.7885
72.291132 93.530 162.6771
72.814984 93.496 162.5672
73.342631 93.462 162.4599
73.874102 93.427 162.3564
74.409424 93.393 162.2573
74.948626 93.359 162.1622
75.491734 93.326 162.0705
76.038779 93.292 161.9815
76.589787 93.259 161.8951
77.144788 93.226 161.8110
77.703811 93.193 161.7286
78.266885 93.160 161.6466
78.834039 93.128 161.5635
79.405303 93.095 161.4779
79.980706 93.062 161.3884
80.560280 93.029 161.2943
81.144053 92.995 161.1955
81.732056 92.960 161.0925
82.324320 92.924 160.9868
82.920876 92.887 160.8807
83.521755 92.848 160.7774
84.126988 92.807 160.6801
84.736607 92.765 160.5917
85.350643 92.722 160.5140
85.969129 92.679 160.4482
86.592097 92.635 160.3941
87.219579 92.591 160.3510
