* Measurement data measured by REW V5.31.3
* Source: EXCL: Microphone (USB Sound Device        ), MICROPHONE (Master Volume), R, volume: 0.390
* Format: 256k Log Swept Sine, 1 sweep at -12.0 dBFS with no timing reference
* Dated: Jul 14, 2025 2:32:41 PM
* REW Settings:
*  C-weighting compensation: Off
*  Target level: 75.0 dB
* Note: CrinEar Daybreak L
* Measurement: L CrinEar Daybreak
* Smoothing: 1/12 octave
* Frequency Step: 96 ppo
* Start Frequency: 0.36621094 Hz
*
* Freq(Hz) SPL(dB) Phase(degrees)
0.366211 93.291 161.8973
0.368865 93.286 161.8781
0.371538 93.278 161.8493
0.374230 93.268 161.8131
0.376942 93.258 161.7714
0.379673 93.246 161.7257
0.382424 93.234 161.6767
0.385196 93.221 161.6251
0.387987 93.209 161.5712
0.390798 93.196 161.5152
0.393630 93.183 161.4571
0.396483 93.170 161.3969
0.399356 93.157 161.3348
0.402250 93.143 161.2706
0.405165 93.130 161.2043
0.408101 93.117 161.1360
0.411058 93.103 161.0656
0.414037 93.089 160.9932
0.417037 93.076 160.9186
0.420059 93.062 160.8419
0.423103 93.048 160.7630
0.426169 93.034 160.6820
0.429257 93.020 160.5987
0.432368 93.005 160.5133
0.435501 92.991 160.4256
0.438656 92.976 160.3357
0.441835 92.962 160.2435
0.445037 92.947 160.1491
0.448262 92.932 160.0524
0.451510 92.917 159.9533
0.454782 92.902 159.8520
0.458077 92.887 159.7482
0.461397 92.872 159.6422
0.464740 92.857 159.5338
0.468108 92.841 159.4230
0.471500 92.826 159.3098
0.474917 92.810 159.1942
0.478358 92.794 159.0762
0.481825 92.778 158.9558
0.485316 92.762 158.8329
0.488833 92.746 158.7076
0.492375 92.730 158.5799
0.495943 92.713 158.4497
0.499537 92.697 158.3170
0.503157 92.680 158.1819
0.506803 92.664 158.0444
0.510475 92.647 157.9043
0.514175 92.630 157.7618
0.517900 92.613 157.6169
0.521653 92.595 157.4695
0.525434 92.578 157.3196
0.529241 92.561 157.1673
0.533076 92.543 157.0125
0.536939 92.525 156.8553
0.540830 92.507 156.6957
0.544749 92.490 156.5337
0.548696 92.471 156.3693
0.552673 92.453 156.2026
0.556677 92.435 156.0334
0.560711 92.416 155.8620
0.564774 92.398 155.6883
0.568867 92.379 155.5123
0.572989 92.360 155.3340
0.577141 92.341 155.1535
0.581324 92.322 154.9709
0.585536 92.302 154.7862
0.589779 92.283 154.5993
0.594053 92.263 154.4104
0.598358 92.243 154.2196
0.602694 92.224 154.0267
0.607061 92.204 153.8321
0.611460 92.183 153.6356
0.615891 92.163 153.4373
0.620354 92.143 153.2374
0.624849 92.122 153.0359
0.629377 92.101 152.8328
0.633938 92.080 152.6284
0.638532 92.059 152.4225
0.643159 92.038 152.2155
0.647819 92.017 152.0073
0.652514 91.995 151.7980
0.657242 91.973 151.5879
0.662005 91.951 151.3769
0.666802 91.929 151.1653
0.671634 91.907 150.9531
0.676501 91.885 150.7405
0.681403 91.862 150.5276
0.686341 91.840 150.3147
0.691314 91.817 150.1018
0.696324 91.794 149.8891
0.701370 91.770 149.6768
0.706452 91.747 149.4649
0.711571 91.723 149.2536
0.716728 91.698 149.0427
0.721921 91.672 148.8321
0.727153 91.645 148.6215
0.732422 91.616 148.4102
0.737729 91.585 148.1975
0.743075 91.553 147.9826
0.748460 91.519 147.7648
0.753883 91.484 147.5435
0.759346 91.448 147.3184
0.764849 91.411 147.0892
0.770391 91.374 146.8557
0.775974 91.336 146.6178
0.781597 91.298 146.3755
0.787261 91.259 146.1286
0.792966 91.220 145.8772
0.798712 91.180 145.6212
0.804500 91.139 145.3606
0.810329 91.098 145.0954
0.816201 91.057 144.8254
0.822116 91.015 144.5508
0.828073 90.972 144.2715
0.834074 90.928 143.9874
0.840118 90.884 143.6986
0.846206 90.839 143.4051
0.852338 90.794 143.1069
0.858514 90.748 142.8040
0.864735 90.701 142.4964
0.871001 90.653 142.1841
0.877313 90.604 141.8672
0.883670 90.555 141.5457
0.890074 90.504 141.2197
0.896524 90.453 140.8892
0.903020 90.401 140.5543
0.909564 90.347 140.2150
0.916155 90.293 139.8715
0.922794 90.238 139.5239
0.929481 90.182 139.1723
0.936216 90.124 138.8168
0.943000 90.065 138.4576
0.949834 90.005 138.0948
0.956717 89.944 137.7286
0.963649 89.882 137.3592
0.970632 89.818 136.9869
0.977666 89.753 136.6119
0.984750 89.687 136.2345
0.991886 89.619 135.8549
0.999074 89.549 135.4735
1.006314 89.478 135.0906
1.013606 89.405 134.7066
1.020951 89.331 134.3220
1.028349 89.255 133.9370
1.035801 89.177 133.5523
1.043307 89.098 133.1684
1.050867 89.016 132.7856
1.058482 88.933 132.4046
1.066152 88.848 132.0259
1.073878 88.761 131.6500
1.081660 88.672 131.2772
1.089498 88.581 130.9078
1.097393 88.490 130.5417
1.105345 88.397 130.1788
1.113355 88.304 129.8185
1.121423 88.211 129.4605
1.129549 88.117 129.1042
1.137734 88.024 128.7495
1.145979 87.930 128.3958
1.154283 87.837 128.0429
1.162647 87.743 127.6907
1.171072 87.649 127.3388
1.179558 87.553 126.9871
1.188106 87.457 126.6353
1.196715 87.360 126.2831
1.205387 87.262 125.9303
1.214122 87.161 125.5766
1.222920 87.059 125.2218
1.231782 86.955 124.8656
1.240708 86.847 124.5076
1.249699 86.737 124.1475
1.258754 86.624 123.7851
1.267876 86.508 123.4198
1.277063 86.387 123.0514
1.286318 86.262 122.6795
1.295639 86.133 122.3035
1.305027 85.998 121.9231
1.314484 85.859 121.5378
1.324009 85.713 121.1471
1.333604 85.561 120.7504
1.343268 85.403 120.3472
1.353002 85.237 119.9368
1.362806 85.064 119.5188
1.372681 84.883 119.0924
1.382628 84.693 118.6570
1.392647 84.493 118.2118
1.402739 84.285 117.7563
1.412904 84.065 117.2897
1.423142 83.835 116.8116
1.433455 83.592 116.3213
1.443843 83.335 115.8188
1.454305 83.063 115.3040
1.464844 82.773 114.7773
1.475459 82.463 114.2392
1.486150 82.131 113.6902
1.496920 81.774 113.1303
1.507767 81.392 112.5595
1.518693 80.985 111.9769
1.529698 80.552 111.3817
1.540783 80.096 110.7724
1.551948 79.618 110.1473
1.563194 79.118 109.5045
1.574521 78.600 108.8417
1.585931 78.065 108.1563
1.597423 77.515 107.4451
1.608999 76.953 106.7047
1.620658 76.381 105.9309
1.632402 75.802 105.1189
1.644232 75.219 104.2629
1.656146 74.635 103.3562
1.668147 74.054 102.3909
1.680235 73.478 101.3571
1.692411 72.911 100.2435
1.704675 72.358 99.0356
1.717028 71.823 97.7163
1.729470 71.310 96.2639
1.742003 70.824 94.6517
1.754626 70.371 92.8461
1.767341 69.955 90.8042
1.780147 69.583 88.4715
1.793047 69.260 85.7775
1.806040 68.991 82.6303
1.819128 68.782 78.9085
1.832310 68.635 74.4503
1.845587 68.552 69.0390
1.858961 68.534 62.3917
1.872432 68.578 54.1704
1.886001 68.682 44.0631
1.899667 68.843 31.9991
1.913433 69.057 18.4671
1.927299 69.320 4.6162
1.941265 69.626 -8.2246
1.955332 69.972 -19.2239
1.969501 70.353 -28.2193
1.983773 70.763 -35.4463
1.998148 71.198 -41.2542
2.012627 71.653 -45.9654
2.027212 72.121 -49.8367
2.041902 72.599 -53.0612
2.056698 73.081 -55.7812
2.071602 73.562 -58.1017
2.086614 74.037 -60.1007
2.101734 74.501 -61.8370
2.116964 74.949 -63.3557
2.132304 75.378 -64.6921
2.147756 75.785 -65.8753
2.163320 76.167 -66.9301
2.178996 76.524 -67.8789
2.194786 76.859 -68.7427
2.210690 77.174 -69.5410
2.226710 77.474 -70.2907
2.242845 77.761 -71.0045
2.259098 78.040 -71.6908
2.275468 78.310 -72.3547
2.291957 78.574 -72.9989
2.308566 78.832 -73.6243
2.325295 79.084 -74.2311
2.342145 79.330 -74.8184
2.359117 79.571 -75.3854
2.376212 79.807 -75.9308
2.393431 80.037 -76.4530
2.410775 80.261 -76.9507
2.428244 80.480 -77.4222
2.445840 80.694 -77.8659
2.463564 80.902 -78.2802
2.481416 81.104 -78.6639
2.499397 81.300 -79.0159
2.517509 81.491 -79.3361
2.535752 81.674 -79.6250
2.554127 81.851 -79.8845
2.572635 82.020 -80.1176
2.591277 82.180 -80.3279
2.610055 82.331 -80.5189
2.628968 82.473 -80.6934
2.648019 82.607 -80.8531
2.667208 82.732 -80.9993
2.686535 82.849 -81.1323
2.706003 82.959 -81.2525
2.725612 83.063 -81.3596
2.745363 83.162 -81.4533
2.765257 83.257 -81.5333
2.785295 83.348 -81.5989
2.805478 83.437 -81.6497
2.825808 83.524 -81.6850
2.846285 83.611 -81.7042
2.866910 83.699 -81.7066
2.887685 83.787 -81.6916
2.908611 83.877 -81.6586
2.929688 83.967 -81.6072
2.950917 84.057 -81.5371
2.972301 84.147 -81.4486
2.993839 84.236 -81.3423
3.015534 84.323 -81.2191
3.037386 84.409 -81.0803
3.059396 84.494 -80.9275
3.081565 84.577 -80.7622
3.103896 84.660 -80.5863
3.126388 84.742 -80.4014
3.149043 84.825 -80.2093
3.171862 84.908 -80.0118
3.194847 84.991 -79.8102
3.217998 85.077 -79.6059
3.241317 85.163 -79.3995
3.264805 85.252 -79.1911
3.288463 85.343 -78.9802
3.312293 85.436 -78.7655
3.336295 85.531 -78.5460
3.360471 85.628 -78.3212
3.384822 85.726 -78.0916
3.409350 85.825 -77.8587
3.434056 85.926 -77.6249
3.458940 86.028 -77.3928
3.484005 86.131 -77.1655
3.509252 86.234 -76.9459
3.534681 86.338 -76.7372
3.560295 86.443 -76.5419
3.586094 86.548 -76.3626
3.612081 86.653 -76.2008
3.638255 86.759 -76.0575
3.664620 86.865 -75.9325
3.691175 86.971 -75.8249
3.717923 87.079 -75.7335
3.744864 87.187 -75.6572
3.772001 87.295 -75.5954
3.799335 87.403 -75.5476
3.826866 87.512 -75.5140
3.854597 87.620 -75.4947
3.882529 87.727 -75.4900
3.910664 87.833 -75.5004
3.939002 87.939 -75.5263
3.967546 88.042 -75.5683
3.996296 88.144 -75.6266
4.025255 88.244 -75.7016
4.054423 88.341 -75.7934
4.083804 88.438 -75.9018
4.113396 88.532 -76.0261
4.143204 88.625 -76.1652
4.173227 88.715 -76.3181
4.203468 88.804 -76.4833
4.233928 88.891 -76.6595
4.264609 88.975 -76.8455
4.295512 89.057 -77.0402
4.326639 89.137 -77.2431
4.357992 89.214 -77.4537
4.389572 89.288 -77.6724
4.421380 89.360 -77.8996
4.453419 89.428 -78.1357
4.485691 89.494 -78.3807
4.518196 89.557 -78.6337
4.550936 89.617 -78.8932
4.583914 89.675 -79.1576
4.617131 89.730 -79.4247
4.650589 89.783 -79.6926
4.684289 89.834 -79.9596
4.718233 89.883 -80.2246
4.752424 89.929 -80.4869
4.786862 89.973 -80.7468
4.821549 90.014 -81.0045
4.856488 90.053 -81.2605
4.891680 90.090 -81.5148
4.927127 90.125 -81.7669
4.962831 90.158 -82.0162
4.998794 90.190 -82.2617
5.035017 90.221 -82.5023
5.071503 90.250 -82.7372
5.108253 90.279 -82.9656
5.145270 90.307 -83.1872
5.182555 90.334 -83.4019
5.220110 90.361 -83.6103
5.257937 90.386 -83.8131
5.296038 90.412 -84.0111
5.334415 90.437 -84.2054
5.373071 90.462 -84.3967
5.412006 90.487 -84.5857
5.451224 90.513 -84.7730
5.490725 90.540 -84.9585
5.530514 90.568 -85.1425
5.570590 90.596 -85.3250
5.610957 90.626 -85.5070
5.651616 90.656 -85.6897
5.692570 90.687 -85.8748
5.733821 90.719 -86.0642
5.775370 90.752 -86.2596
5.817221 90.786 -86.4625
5.859375 90.822 -86.6737
5.901834 90.858 -86.8936
5.944602 90.896 -87.1226
5.987679 90.935 -87.3611
6.031068 90.975 -87.6099
6.074771 91.015 -87.8702
6.118792 91.056 -88.1432
6.163131 91.098 -88.4300
6.207792 91.139 -88.7316
6.252776 91.182 -89.0486
6.298086 91.224 -89.3810
6.343725 91.266 -89.7285
6.389694 91.309 -90.0908
6.435996 91.351 -90.4670
6.482634 91.393 -90.8569
6.529610 91.435 -91.2600
6.576926 91.476 -91.6763
6.624585 91.516 -92.1054
6.672590 91.555 -92.5473
6.720942 91.593 -93.0011
6.769645 91.631 -93.4656
6.818700 91.667 -93.9394
6.868111 91.703 -94.4210
6.917881 91.738 -94.9090
6.968010 91.772 -95.4028
7.018504 91.804 -95.9018
7.069362 91.836 -96.4053
7.120590 91.868 -96.9126
7.172189 91.898 -97.4222
7.224161 91.928 -97.9327
7.276511 91.958 -98.4430
7.329239 91.988 -98.9518
7.382350 92.017 -99.4588
7.435845 92.046 -99.9635
7.489729 92.076 -100.4659
7.544002 92.106 -100.9655
7.598669 92.136 -101.4620
7.653732 92.167 -101.9551
7.709194 92.199 -102.4445
7.765058 92.233 -102.9301
7.821327 92.267 -103.4122
7.878004 92.303 -103.8914
7.935091 92.339 -104.3682
7.992592 92.378 -104.8432
8.050510 92.418 -105.3169
8.108847 92.459 -105.7898
8.167607 92.503 -106.2621
8.226793 92.547 -106.7344
8.286408 92.594 -107.2073
8.346454 92.641 -107.6815
8.406936 92.690 -108.1578
8.467856 92.740 -108.6363
8.529218 92.792 -109.1172
8.591024 92.844 -109.6005
8.653278 92.897 -110.0862
8.715983 92.951 -110.5740
8.779143 93.006 -111.0639
8.842760 93.060 -111.5557
8.906839 93.115 -112.0489
8.971381 93.170 -112.5428
9.036392 93.225 -113.0364
9.101873 93.280 -113.5290
9.167829 93.334 -114.0196
9.234263 93.388 -114.5076
9.301178 93.442 -114.9921
9.368578 93.495 -115.4722
9.436467 93.548 -115.9468
9.504847 93.600 -116.4150
9.573723 93.652 -116.8760
9.643099 93.703 -117.3294
9.712976 93.754 -117.7745
9.783361 93.804 -118.2110
9.854255 93.854 -118.6385
9.925663 93.904 -119.0566
9.997588 93.953 -119.4655
10.070035 94.003 -119.8652
10.143007 94.052 -120.2561
10.216507 94.101 -120.6385
10.290540 94.151 -121.0127
10.365109 94.200 -121.3794
10.440219 94.249 -121.7390
10.515873 94.298 -122.0922
10.592076 94.347 -122.4397
10.668830 94.395 -122.7821
10.746141 94.443 -123.1199
10.824012 94.491 -123.4537
10.902447 94.539 -123.7838
10.981451 94.585 -124.1108
11.061027 94.631 -124.4350
11.141180 94.676 -124.7565
11.221913 94.721 -125.0754
11.303232 94.764 -125.3919
11.385140 94.806 -125.7059
11.467641 94.847 -126.0174
11.550741 94.887 -126.3265
11.634442 94.925 -126.6329
11.718750 94.962 -126.9367
11.803669 94.998 -127.2379
11.889203 95.033 -127.5366
11.975357 95.066 -127.8327
12.062136 95.098 -128.1266
12.149543 95.129 -128.4184
12.237583 95.159 -128.7084
12.326262 95.188 -128.9970
12.415583 95.215 -129.2848
12.505552 95.242 -129.5721
12.596172 95.267 -129.8594
12.687449 95.291 -130.1473
12.779387 95.315 -130.4362
12.871992 95.337 -130.7268
12.965268 95.358 -131.0193
13.059220 95.378 -131.3143
13.153852 95.398 -131.6120
13.249170 95.416 -131.9127
13.345179 95.433 -132.2168
13.441884 95.449 -132.5244
13.539289 95.464 -132.8358
13.637401 95.478 -133.1510
13.736223 95.492 -133.4702
13.835761 95.504 -133.7936
13.936021 95.516 -134.1214
14.037007 95.527 -134.4537
14.138725 95.538 -134.7908
14.241180 95.548 -135.1330
14.344377 95.558 -135.4805
14.448323 95.567 -135.8335
14.553021 95.576 -136.1923
14.658478 95.585 -136.5571
14.764700 95.593 -136.9280
14.871691 95.602 -137.3049
14.979457 95.610 -137.6880
15.088005 95.618 -138.0770
15.197339 95.626 -138.4716
15.307465 95.634 -138.8714
15.418389 95.641 -139.2761
15.530117 95.649 -139.6850
15.642655 95.657 -140.0975
15.756008 95.665 -140.5131
15.870182 95.673 -140.9311
15.985184 95.682 -141.3509
16.101019 95.691 -141.7719
16.217694 95.700 -142.1937
16.335214 95.710 -142.6158
16.453586 95.720 -143.0378
16.572815 95.731 -143.4593
16.692909 95.743 -143.8800
16.813872 95.755 -144.2995
16.935713 95.768 -144.7175
17.058436 95.781 -145.1334
17.182048 95.795 -145.5468
17.306556 95.809 -145.9569
17.431967 95.824 -146.3633
17.558286 95.839 -146.7651
17.685521 95.855 -147.1618
17.813677 95.871 -147.5526
17.942762 95.887 -147.9371
18.072783 95.904 -148.3148
18.203746 95.920 -148.6856
18.335658 95.938 -149.0495
18.468526 95.955 -149.4068
18.602356 95.973 -149.7578
18.737156 95.991 -150.1031
18.872934 96.009 -150.4435
19.009695 96.027 -150.7796
19.147447 96.045 -151.1122
19.286197 96.063 -151.4419
19.425953 96.080 -151.7690
19.566721 96.097 -152.0938
19.708510 96.112 -152.4163
19.851326 96.126 -152.7363
19.995177 96.139 -153.0536
20.140070 96.150 -153.3679
20.286013 96.161 -153.6788
20.433014 96.169 -153.9861
20.581080 96.177 -154.2898
20.730219 96.183 -154.5901
20.880439 96.187 -154.8873
21.031747 96.191 -155.1823
21.184152 96.194 -155.4756
21.337661 96.195 -155.7684
21.492282 96.196 -156.0616
21.648024 96.196 -156.3559
21.804895 96.195 -156.6524
21.962902 96.193 -156.9516
22.122054 96.190 -157.2540
22.282360 96.186 -157.5600
22.443827 96.182 -157.8699
22.606464 96.177 -158.1840
22.770280 96.171 -158.5025
22.935283 96.165 -158.8256
23.101481 96.159 -159.1537
23.268884 96.153 -159.4870
23.437500 96.146 -159.8257
23.607338 96.139 -160.1698
23.778406 96.133 -160.5191
23.950714 96.126 -160.8731
24.124271 96.119 -161.2311
24.299086 96.112 -161.5921
24.475167 96.106 -161.9552
24.652524 96.100 -162.3191
24.831166 96.094 -162.6831
25.011103 96.088 -163.0463
25.192344 96.084 -163.4084
25.374898 96.080 -163.7691
25.558775 96.077 -164.1284
25.743984 96.075 -164.4863
25.930536 96.073 -164.8427
26.118439 96.072 -165.1973
26.307704 96.071 -165.5494
26.498341 96.071 -165.8984
26.690359 96.070 -166.2431
26.883768 96.070 -166.5826
27.078579 96.069 -166.9161
27.274801 96.068 -167.2430
27.472446 96.067 -167.5632
27.671522 96.066 -167.8770
27.872042 96.064 -168.1845
28.074014 96.062 -168.4865
28.277450 96.059 -168.7834
28.482360 96.056 -169.0756
28.688755 96.052 -169.3634
28.896645 96.047 -169.6470
29.106042 96.041 -169.9267
29.316957 96.034 -170.2032
29.529400 96.026 -170.4771
29.743382 96.018 -170.7492
29.958915 96.008 -171.0204
30.176009 95.997 -171.2910
30.394677 95.986 -171.5610
30.614929 95.973 -171.8300
30.836778 95.959 -172.0974
31.060234 95.945 -172.3628
31.285309 95.931 -172.6267
31.512015 95.917 -172.8902
31.740364 95.904 -173.1559
31.970368 95.892 -173.4268
32.202039 95.881 -173.7060
32.435388 95.871 -173.9958
32.670428 95.860 -174.2971
32.907171 95.850 -174.6083
33.145630 95.838 -174.9266
33.385817 95.825 -175.2478
33.627745 95.812 -175.5677
33.871425 95.798 -175.8835
34.116871 95.785 -176.1938
34.364096 95.773 -176.4993
34.613113 95.761 -176.8017
34.863934 95.750 -177.1030
35.116572 95.740 -177.4041
35.371041 95.729 -177.7046
35.627354 95.718 -178.0027
35.885525 95.707 -178.2960
36.145566 95.696 -178.5829
36.407492 95.685 -178.8639
36.671316 95.675 -179.1414
36.937051 95.665 -179.4196
37.204712 95.655 -179.7028
37.474313 95.644 -179.9935
37.745867 95.632 179.7085
38.019389 95.617 179.4069
38.294893 95.598 179.1080
38.572394 95.577 178.8187
38.851905 95.555 178.5443
39.133442 95.531 178.2867
39.417019 95.508 178.0438
39.702651 95.486 177.8096
39.990353 95.466 177.5764
40.280140 95.447 177.3374
40.572026 95.430 177.0882
40.866028 95.411 176.8281
41.162160 95.392 176.5602
41.460438 95.372 176.2898
41.760877 95.350 176.0223
42.063494 95.328 175.7617
42.368303 95.306 175.5093
42.675322 95.284 175.2631
42.984565 95.264 175.0194
43.296048 95.245 174.7737
43.609789 95.227 174.5226
43.925804 95.209 174.2650
44.244108 95.189 174.0025
44.564719 95.168 173.7392
44.887654 95.145 173.4803
45.212928 95.121 173.2306
45.540560 95.096 172.9935
45.870565 95.071 172.7701
46.202962 95.046 172.5583
46.537768 95.023 172.3538
46.875000 95.002 172.1508
47.214676 94.982 171.9431
47.556813 94.962 171.7264
47.901429 94.943 171.4991
48.248542 94.922 171.2625
48.598171 94.900 171.0209
48.950334 94.877 170.7802
49.305048 94.851 170.5459
49.662333 94.825 170.3219
50.022206 94.799 170.1091
50.384688 94.773 169.9060
50.749796 94.748 169.7093
51.117550 94.724 169.5151
51.487969 94.701 169.3203
51.861072 94.678 169.1230
52.236879 94.655 168.9224
52.615409 94.631 168.7184
52.996681 94.607 168.5120
53.380717 94.582 168.3047
53.767536 94.555 168.0986
54.157158 94.528 167.8965
54.549603 94.499 167.7004
54.944892 94.470 167.5117
55.343045 94.441 167.3301
55.744084 94.413 167.1542
56.148028 94.385 166.9816
56.554900 94.358 166.8096
56.964720 94.332 166.6359
57.377510 94.305 166.4590
57.793291 94.279 166.2780
58.212085 94.252 166.0931
58.633914 94.224 165.9056
59.058799 94.195 165.7177
59.486764 94.164 165.5319
59.917829 94.132 165.3501
60.352019 94.098 165.1738
60.789354 94.063 165.0034
61.229859 94.027 164.8387
61.673556 93.989 164.6797
62.120468 93.951 164.5263
62.570618 93.912 164.3786
63.024031 93.873 164.2363
63.480729 93.833 164.0985
63.940736 93.794 163.9642
64.404077 93.755 163.8324
64.870776 93.716 163.7025
65.340856 93.678 163.5744
65.814343 93.640 163.4479
66.291261 93.603 163.3228
66.771635 93.566 163.1989
67.255489 93.530 163.0758
67.742850 93.494 162.9539
68.233743 93.458 162.8332
68.728193 93.422 162.7143
69.226226 93.386 162.5974
69.727867 93.350 162.4830
70.233144 93.313 162.3716
70.742083 93.276 162.2636
71.254709 93.239 162.1592
71.771050 93.201 162.0582
72.291132 93.163 161.9604
72.814984 93.125 161.8657
73.342631 93.086 161.7740
73.874102 93.048 161.6861
74.409424 93.009 161.6023
74.948626 92.970 161.5231
75.491734 92.931 161.4484
76.038779 92.892 161.3778
76.589787 92.853 161.3104
77.144788 92.815 161.2454
77.703811 92.777 161.1821
78.266885 92.739 161.1198
78.834039 92.701 161.0574
79.405303 92.662 160.9938
79.980706 92.624 160.9276
80.560280 92.586 160.8577
81.144053 92.547 160.7841
81.732056 92.506 160.7073
82.324320 92.465 160.6285
82.920876 92.422 160.5495
83.521755 92.377 160.4727
84.126988 92.331 160.4009
84.736607 92.283 160.3373
85.350643 92.235 160.2840
85.969129 92.186 160.2418
86.592097 92.137 160.2108
87.219579 92.089 160.1907
