* Measurement data measured by REW V5.31
* Source: EXCL: Microphone (USB Sound Device        ), MICROPHONE (Master Volume), L, volume: 0.390
* Format: 256k Log Swept Sine, 1 sweep at -15.0 dBFS with no timing reference
* Dated: Nov 17, 2024 1:05:43 PM
* REW Settings:
*  C-weighting compensation: Off
*  Target level: 75.0 dB
* Note: CVJ Aria Blue L
* Measurement: L CVJ Aria Blue
* Smoothing: 1/12 octave
* Frequency Step: 96 ppo
* Start Frequency: 0.36621094 Hz
*
* Freq(Hz)	SPL(dB)	Phase(degrees)
0.366211	84.522	156.4354
0.368865	84.516	156.4107
0.371538	84.507	156.3736
0.374230	84.496	156.3270
0.376942	84.483	156.2733
0.379673	84.470	156.2143
0.382424	84.456	156.1510
0.385196	84.441	156.0844
0.387987	84.427	156.0146
0.390798	84.412	155.9420
0.393630	84.397	155.8666
0.396483	84.382	155.7886
0.399356	84.367	155.7078
0.402250	84.351	155.6244
0.405165	84.336	155.5381
0.408101	84.320	155.4492
0.411058	84.305	155.3575
0.414037	84.289	155.2629
0.417037	84.273	155.1655
0.420059	84.257	155.0653
0.423103	84.241	154.9622
0.426169	84.225	154.8562
0.429257	84.208	154.7472
0.432368	84.192	154.6352
0.435501	84.175	154.5203
0.438656	84.158	154.4023
0.441835	84.142	154.2813
0.445037	84.125	154.1572
0.448262	84.108	154.0301
0.451510	84.090	153.8998
0.454782	84.073	153.7663
0.458077	84.056	153.6297
0.461397	84.038	153.4900
0.464740	84.020	153.3470
0.468108	84.002	153.2008
0.471500	83.984	153.0513
0.474917	83.966	152.8986
0.478358	83.948	152.7426
0.481825	83.930	152.5833
0.485316	83.911	152.4207
0.488833	83.893	152.2548
0.492375	83.874	152.0855
0.495943	83.855	151.9129
0.499537	83.836	151.7370
0.503157	83.817	151.5576
0.506803	83.797	151.3749
0.510475	83.778	151.1889
0.514175	83.758	150.9994
0.517900	83.739	150.8066
0.521653	83.719	150.6104
0.525434	83.699	150.4108
0.529241	83.679	150.2079
0.533076	83.658	150.0016
0.536939	83.638	149.7919
0.540830	83.617	149.5789
0.544749	83.596	149.3626
0.548696	83.575	149.1431
0.552673	83.554	148.9202
0.556677	83.533	148.6941
0.560711	83.512	148.4648
0.564774	83.490	148.2322
0.568867	83.469	147.9966
0.572989	83.447	147.7578
0.577141	83.425	147.5160
0.581324	83.403	147.2711
0.585536	83.380	147.0233
0.589779	83.358	146.7726
0.594053	83.335	146.5191
0.598358	83.312	146.2627
0.602694	83.289	146.0037
0.607061	83.266	145.7421
0.611460	83.243	145.4780
0.615891	83.220	145.2113
0.620354	83.196	144.9424
0.624849	83.172	144.6712
0.629377	83.148	144.3979
0.633938	83.124	144.1226
0.638532	83.100	143.8454
0.643159	83.075	143.5664
0.647819	83.050	143.2858
0.652514	83.026	143.0037
0.657242	83.000	142.7204
0.662005	82.975	142.4359
0.666802	82.950	142.1504
0.671634	82.924	141.8641
0.676501	82.898	141.5773
0.681403	82.872	141.2901
0.686341	82.846	141.0026
0.691314	82.820	140.7152
0.696324	82.793	140.4281
0.701370	82.766	140.1414
0.706452	82.739	139.8552
0.711571	82.711	139.5697
0.716728	82.682	139.2849
0.721921	82.652	139.0003
0.727153	82.621	138.7157
0.732422	82.588	138.4300
0.737729	82.552	138.1422
0.743075	82.514	137.8513
0.748460	82.475	137.5561
0.753883	82.434	137.2559
0.759346	82.392	136.9501
0.764849	82.350	136.6385
0.770391	82.306	136.3206
0.775974	82.262	135.9963
0.781597	82.218	135.6654
0.787261	82.172	135.3280
0.792966	82.127	134.9838
0.798712	82.080	134.6328
0.804500	82.033	134.2749
0.810329	81.986	133.9100
0.816201	81.937	133.5381
0.822116	81.888	133.1591
0.828073	81.838	132.7730
0.834074	81.788	132.3797
0.840118	81.737	131.9791
0.846206	81.685	131.5713
0.852338	81.632	131.1562
0.858514	81.578	130.7337
0.864735	81.523	130.3040
0.871001	81.467	129.8669
0.877313	81.411	129.4225
0.883670	81.353	128.9708
0.890074	81.294	128.5119
0.896524	81.234	128.0458
0.903020	81.174	127.5725
0.909564	81.111	127.0922
0.916155	81.048	126.6049
0.922794	80.984	126.1109
0.929481	80.918	125.6101
0.936216	80.850	125.1028
0.943000	80.782	124.5892
0.949834	80.712	124.0695
0.956717	80.640	123.5440
0.963649	80.567	123.0128
0.970632	80.493	122.4763
0.977666	80.416	121.9349
0.984750	80.338	121.3889
0.991886	80.258	120.8388
0.999074	80.177	120.2849
1.006314	80.093	119.7279
1.013606	80.008	119.1681
1.020951	79.921	118.6063
1.028349	79.831	118.0430
1.035801	79.739	117.4789
1.043307	79.645	116.9147
1.050867	79.549	116.3513
1.058482	79.451	115.7893
1.066152	79.350	115.2294
1.073878	79.246	114.6724
1.081660	79.140	114.1187
1.089498	79.031	113.5685
1.097393	78.920	113.0215
1.105345	78.806	112.4772
1.113355	78.689	111.9345
1.121423	78.569	111.3925
1.129549	78.446	110.8502
1.137734	78.320	110.3067
1.145979	78.191	109.7613
1.154283	78.060	109.2132
1.162647	77.925	108.6618
1.171072	77.787	108.1064
1.179558	77.647	107.5464
1.188106	77.503	106.9810
1.196715	77.357	106.4096
1.205387	77.208	105.8314
1.214122	77.056	105.2456
1.222920	76.900	104.6515
1.231782	76.742	104.0481
1.240708	76.581	103.4345
1.249699	76.418	102.8099
1.258754	76.251	102.1731
1.267876	76.082	101.5231
1.277063	75.909	100.8588
1.286318	75.734	100.1790
1.295639	75.556	99.4826
1.305027	75.376	98.7681
1.314484	75.192	98.0344
1.324009	75.006	97.2799
1.333604	74.818	96.5032
1.343268	74.626	95.7029
1.353002	74.433	94.8774
1.362806	74.236	94.0253
1.372681	74.037	93.1449
1.382628	73.836	92.2347
1.392647	73.632	91.2934
1.402739	73.426	90.3195
1.412904	73.218	89.3118
1.423142	73.006	88.2692
1.433455	72.792	87.1908
1.443843	72.574	86.0759
1.454305	72.352	84.9237
1.464844	72.123	83.7333
1.475459	71.888	82.5031
1.486150	71.643	81.2306
1.496920	71.388	79.9122
1.507767	71.122	78.5433
1.518693	70.845	77.1182
1.529698	70.557	75.6301
1.540783	70.258	74.0713
1.551948	69.951	72.4329
1.563194	69.634	70.7050
1.574521	69.311	68.8763
1.585931	68.981	66.9341
1.597423	68.646	64.8641
1.608999	68.308	62.6505
1.620658	67.969	60.2754
1.632402	67.628	57.7196
1.644232	67.289	54.9622
1.656146	66.953	51.9813
1.668147	66.622	48.7545
1.680235	66.298	45.2606
1.692411	65.982	41.4811
1.704675	65.678	37.4030
1.717028	65.387	33.0218
1.729470	65.112	28.3456
1.742003	64.855	23.3980
1.754626	64.619	18.2210
1.767341	64.407	12.8744
1.780147	64.221	7.4324
1.793047	64.066	1.9764
1.806040	63.943	-3.4150
1.819128	63.855	-8.6756
1.832310	63.805	-13.7588
1.845587	63.794	-18.6389
1.858961	63.824	-23.3067
1.872432	63.893	-27.7621
1.886001	64.000	-32.0091
1.899667	64.145	-36.0525
1.913433	64.324	-39.8977
1.927299	64.534	-43.5498
1.941265	64.773	-47.0138
1.955332	65.037	-50.2952
1.969501	65.324	-53.3993
1.983773	65.629	-56.3318
1.998148	65.949	-59.0985
2.012627	66.281	-61.7048
2.027212	66.621	-64.1565
2.041902	66.964	-66.4589
2.056698	67.308	-68.6171
2.071602	67.648	-70.6360
2.086614	67.981	-72.5205
2.101734	68.302	-74.2751
2.116964	68.609	-75.9049
2.132304	68.898	-77.4152
2.147756	69.166	-78.8128
2.163320	69.412	-80.1062
2.178996	69.634	-81.3068
2.194786	69.834	-82.4290
2.210690	70.012	-83.4893
2.226710	70.173	-84.5040
2.242845	70.318	-85.4866
2.259098	70.449	-86.4464
2.275468	70.568	-87.3892
2.291957	70.675	-88.3175
2.308566	70.773	-89.2317
2.325295	70.860	-90.1306
2.342145	70.939	-91.0122
2.359117	71.009	-91.8735
2.376212	71.070	-92.7106
2.393431	71.124	-93.5196
2.410775	71.171	-94.2956
2.428244	71.211	-95.0337
2.445840	71.245	-95.7282
2.463564	71.273	-96.3736
2.481416	71.295	-96.9642
2.499397	71.313	-97.4949
2.517509	71.325	-97.9615
2.535752	71.331	-98.3614
2.554127	71.331	-98.6943
2.572635	71.323	-98.9625
2.591277	71.306	-99.1699
2.610055	71.278	-99.3208
2.628968	71.240	-99.4181
2.648019	71.191	-99.4637
2.667208	71.132	-99.4577
2.686535	71.065	-99.3992
2.706003	70.991	-99.2863
2.725612	70.911	-99.1163
2.745363	70.827	-98.8862
2.765257	70.742	-98.5926
2.785295	70.657	-98.2317
2.805478	70.575	-97.7998
2.825808	70.497	-97.2931
2.846285	70.427	-96.7077
2.866910	70.365	-96.0396
2.887685	70.313	-95.2846
2.908611	70.272	-94.4382
2.929688	70.243	-93.4951
2.950917	70.224	-92.4506
2.972301	70.214	-91.3012
2.993839	70.212	-90.0464
3.015534	70.218	-88.6896
3.037386	70.232	-87.2381
3.059396	70.254	-85.7024
3.081565	70.284	-84.0965
3.103896	70.323	-82.4367
3.126388	70.371	-80.7414
3.149043	70.430	-79.0303
3.171862	70.500	-77.3235
3.194847	70.582	-75.6405
3.217998	70.678	-73.9992
3.241317	70.788	-72.4137
3.264805	70.915	-70.8940
3.288463	71.058	-69.4445
3.312293	71.221	-68.0653
3.336295	71.402	-66.7540
3.360471	71.602	-65.5095
3.384822	71.820	-64.3329
3.409350	72.054	-63.2271
3.434056	72.300	-62.1966
3.458940	72.557	-61.2459
3.484005	72.821	-60.3788
3.509252	73.088	-59.5989
3.534681	73.356	-58.9083
3.560295	73.622	-58.3086
3.586094	73.883	-57.8000
3.612081	74.137	-57.3819
3.638255	74.384	-57.0523
3.664620	74.623	-56.8079
3.691175	74.855	-56.6440
3.717923	75.080	-56.5544
3.744864	75.301	-56.5322
3.772001	75.517	-56.5701
3.799335	75.729	-56.6607
3.826866	75.935	-56.7968
3.854597	76.137	-56.9719
3.882529	76.333	-57.1801
3.910664	76.523	-57.4165
3.939002	76.706	-57.6773
3.967546	76.882	-57.9602
3.996296	77.050	-58.2645
4.025255	77.210	-58.5913
4.054423	77.362	-58.9421
4.083804	77.506	-59.3184
4.113396	77.641	-59.7194
4.143204	77.769	-60.1427
4.173227	77.889	-60.5838
4.203468	78.001	-61.0371
4.233928	78.107	-61.4966
4.264609	78.206	-61.9562
4.295512	78.299	-62.4108
4.326639	78.386	-62.8562
4.357992	78.467	-63.2903
4.389572	78.541	-63.7131
4.421380	78.610	-64.1263
4.453419	78.671	-64.5321
4.485691	78.726	-64.9317
4.518196	78.774	-65.3244
4.550936	78.817	-65.7080
4.583914	78.854	-66.0788
4.617131	78.886	-66.4320
4.650589	78.914	-66.7627
4.684289	78.940	-67.0663
4.718233	78.962	-67.3388
4.752424	78.981	-67.5777
4.786862	78.997	-67.7820
4.821549	79.011	-67.9522
4.856488	79.021	-68.0895
4.891680	79.029	-68.1951
4.927127	79.035	-68.2703
4.962831	79.040	-68.3160
4.998794	79.045	-68.3326
5.035017	79.052	-68.3202
5.071503	79.061	-68.2784
5.108253	79.072	-68.2064
5.145270	79.087	-68.1032
5.182555	79.105	-67.9688
5.220110	79.126	-67.8047
5.257937	79.151	-67.6142
5.296038	79.179	-67.4028
5.334415	79.210	-67.1768
5.373071	79.247	-66.9428
5.412006	79.288	-66.7071
5.451224	79.334	-66.4745
5.490725	79.387	-66.2479
5.530514	79.445	-66.0289
5.570590	79.509	-65.8186
5.610957	79.578	-65.6191
5.651616	79.653	-65.4341
5.692570	79.732	-65.2682
5.733821	79.814	-65.1269
5.775370	79.899	-65.0151
5.817221	79.986	-64.9370
5.859375	80.075	-64.8949
5.901834	80.166	-64.8897
5.944602	80.258	-64.9209
5.987679	80.352	-64.9873
6.031068	80.446	-65.0876
6.074771	80.540	-65.2210
6.118792	80.633	-65.3867
6.163131	80.725	-65.5845
6.207792	80.813	-65.8143
6.252776	80.899	-66.0758
6.298086	80.982	-66.3680
6.343725	81.063	-66.6886
6.389694	81.139	-67.0340
6.435996	81.213	-67.3997
6.482634	81.283	-67.7814
6.529610	81.349	-68.1751
6.576926	81.412	-68.5784
6.624585	81.470	-68.9895
6.672590	81.524	-69.4075
6.720942	81.574	-69.8305
6.769645	81.621	-70.2556
6.818700	81.664	-70.6791
6.868111	81.705	-71.0970
6.917881	81.743	-71.5059
6.968010	81.779	-71.9033
7.018504	81.812	-72.2880
7.069362	81.844	-72.6597
7.120590	81.874	-73.0178
7.172189	81.904	-73.3618
7.224161	81.934	-73.6908
7.276511	81.964	-74.0039
7.329239	81.995	-74.3003
7.382350	82.028	-74.5802
7.435845	82.063	-74.8444
7.489729	82.099	-75.0950
7.544002	82.138	-75.3346
7.598669	82.180	-75.5661
7.653732	82.225	-75.7919
7.709194	82.273	-76.0140
7.765058	82.326	-76.2340
7.821327	82.382	-76.4540
7.878004	82.441	-76.6768
7.935091	82.504	-76.9056
7.992592	82.569	-77.1436
8.050510	82.638	-77.3933
8.108847	82.710	-77.6565
8.167607	82.784	-77.9338
8.226793	82.860	-78.2260
8.286408	82.938	-78.5335
8.346454	83.017	-78.8570
8.406936	83.097	-79.1967
8.467856	83.178	-79.5525
8.529218	83.258	-79.9236
8.591024	83.339	-80.3084
8.653278	83.418	-80.7050
8.715983	83.498	-81.1110
8.779143	83.576	-81.5247
8.842760	83.653	-81.9444
8.906839	83.728	-82.3681
8.971381	83.803	-82.7937
9.036392	83.876	-83.2187
9.101873	83.949	-83.6404
9.167829	84.020	-84.0568
9.234263	84.091	-84.4664
9.301178	84.160	-84.8680
9.368578	84.230	-85.2604
9.436467	84.299	-85.6427
9.504847	84.368	-86.0139
9.573723	84.437	-86.3737
9.643099	84.506	-86.7220
9.712976	84.575	-87.0593
9.783361	84.643	-87.3864
9.854255	84.710	-87.7042
9.925663	84.777	-88.0135
9.997588	84.842	-88.3153
10.070035	84.906	-88.6108
10.143007	84.970	-88.9012
10.216507	85.033	-89.1881
10.290540	85.096	-89.4725
10.365109	85.158	-89.7551
10.440219	85.221	-90.0368
10.515873	85.283	-90.3181
10.592076	85.345	-90.5993
10.668830	85.407	-90.8809
10.746141	85.469	-91.1626
10.824012	85.530	-91.4442
10.902447	85.591	-91.7253
10.981451	85.651	-92.0053
11.061027	85.711	-92.2837
11.141180	85.770	-92.5599
11.221913	85.828	-92.8333
11.303232	85.885	-93.1034
11.385140	85.941	-93.3697
11.467641	85.997	-93.6317
11.550741	86.052	-93.8895
11.634442	86.107	-94.1428
11.718750	86.161	-94.3919
11.803669	86.215	-94.6369
11.889203	86.269	-94.8780
11.975357	86.323	-95.1159
12.062136	86.377	-95.3509
12.149543	86.431	-95.5836
12.237583	86.484	-95.8143
12.326262	86.537	-96.0436
12.415583	86.589	-96.2717
12.505552	86.641	-96.4990
12.596172	86.692	-96.7257
12.687449	86.742	-96.9517
12.779387	86.791	-97.1772
12.871992	86.839	-97.4020
12.965268	86.887	-97.6263
13.059220	86.934	-97.8498
13.153852	86.980	-98.0728
13.249170	87.026	-98.2951
13.345179	87.072	-98.5172
13.441884	87.118	-98.7394
13.539289	87.163	-98.9621
13.637401	87.208	-99.1860
13.736223	87.254	-99.4118
13.835761	87.299	-99.6404
13.936021	87.344	-99.8725
14.037007	87.389	-100.1090
14.138725	87.433	-100.3505
14.241180	87.477	-100.5977
14.344377	87.521	-100.8510
14.448323	87.564	-101.1105
14.553021	87.606	-101.3763
14.658478	87.648	-101.6481
14.764700	87.689	-101.9254
14.871691	87.730	-102.2076
14.979457	87.769	-102.4941
15.088005	87.809	-102.7840
15.197339	87.848	-103.0768
15.307465	87.886	-103.3717
15.418389	87.925	-103.6684
15.530117	87.963	-103.9665
15.642655	88.001	-104.2661
15.756008	88.040	-104.5673
15.870182	88.079	-104.8706
15.985184	88.118	-105.1765
16.101019	88.158	-105.4855
16.217694	88.199	-105.7983
16.335214	88.240	-106.1154
16.453586	88.281	-106.4372
16.572815	88.324	-106.7638
16.692909	88.366	-107.0951
16.813872	88.410	-107.4308
16.935713	88.453	-107.7701
17.058436	88.497	-108.1123
17.182048	88.541	-108.4563
17.306556	88.585	-108.8011
17.431967	88.630	-109.1455
17.558286	88.674	-109.4887
17.685521	88.719	-109.8299
17.813677	88.763	-110.1683
17.942762	88.808	-110.5038
18.072783	88.854	-110.8361
18.203746	88.900	-111.1653
18.335658	88.946	-111.4918
18.468526	88.993	-111.8157
18.602356	89.041	-112.1376
18.737156	89.089	-112.4576
18.872934	89.137	-112.7760
19.009695	89.186	-113.0928
19.147447	89.235	-113.4081
19.286197	89.284	-113.7215
19.425953	89.333	-114.0329
19.566721	89.382	-114.3418
19.708510	89.431	-114.6478
19.851326	89.479	-114.9506
19.995177	89.526	-115.2499
20.140070	89.573	-115.5455
20.286013	89.620	-115.8373
20.433014	89.666	-116.1255
20.581080	89.712	-116.4102
20.730219	89.758	-116.6918
20.880439	89.803	-116.9709
21.031747	89.848	-117.2480
21.184152	89.893	-117.5239
21.337661	89.938	-117.7994
21.492282	89.983	-118.0753
21.648024	90.027	-118.3525
21.804895	90.071	-118.6316
21.962902	90.115	-118.9133
22.122054	90.158	-119.1982
22.282360	90.201	-119.4865
22.443827	90.242	-119.7784
22.606464	90.283	-120.0736
22.770280	90.323	-120.3720
22.935283	90.362	-120.6730
23.101481	90.400	-120.9761
23.268884	90.437	-121.2811
23.437500	90.474	-121.5876
23.607338	90.509	-121.8953
23.778406	90.544	-122.2044
23.950714	90.579	-122.5150
24.124271	90.614	-122.8274
24.299086	90.648	-123.1419
24.475167	90.682	-123.4587
24.652524	90.716	-123.7779
24.831166	90.750	-124.0996
25.011103	90.784	-124.4234
25.192344	90.818	-124.7491
25.374898	90.853	-125.0761
25.558775	90.887	-125.4040
25.743984	90.921	-125.7325
25.930536	90.956	-126.0612
26.118439	90.991	-126.3899
26.307704	91.026	-126.7185
26.498341	91.061	-127.0470
26.690359	91.097	-127.3753
26.883768	91.133	-127.7032
27.078579	91.169	-128.0307
27.274801	91.205	-128.3575
27.472446	91.242	-128.6833
27.671522	91.278	-129.0078
27.872042	91.314	-129.3309
28.074014	91.349	-129.6524
28.277450	91.385	-129.9722
28.482360	91.420	-130.2902
28.688755	91.455	-130.6064
28.896645	91.489	-130.9207
29.106042	91.523	-131.2330
29.316957	91.557	-131.5434
29.529400	91.590	-131.8518
29.743382	91.623	-132.1585
29.958915	91.655	-132.4637
30.176009	91.687	-132.7680
30.394677	91.719	-133.0716
30.614929	91.750	-133.3751
30.836778	91.781	-133.6788
31.060234	91.812	-133.9831
31.285309	91.842	-134.2882
31.512015	91.872	-134.5942
31.740364	91.901	-134.9013
31.970368	91.930	-135.2098
32.202039	91.958	-135.5199
32.435388	91.987	-135.8320
32.670428	92.015	-136.1465
32.907171	92.043	-136.4636
33.145630	92.071	-136.7835
33.385817	92.099	-137.1062
33.627745	92.126	-137.4315
33.871425	92.154	-137.7592
34.116871	92.181	-138.0888
34.364096	92.208	-138.4200
34.613113	92.234	-138.7522
34.863934	92.261	-139.0847
35.116572	92.287	-139.4170
35.371041	92.313	-139.7483
35.627354	92.338	-140.0781
35.885525	92.363	-140.4060
36.145566	92.389	-140.7317
36.407492	92.414	-141.0553
36.671316	92.439	-141.3771
36.937051	92.464	-141.6973
37.204712	92.489	-142.0162
37.474313	92.513	-142.3340
37.745867	92.537	-142.6506
38.019389	92.561	-142.9657
38.294893	92.585	-143.2792
38.572394	92.608	-143.5909
38.851905	92.631	-143.9012
39.133442	92.654	-144.2104
39.417019	92.677	-144.5195
39.702651	92.699	-144.8288
39.990353	92.721	-145.1388
40.280140	92.743	-145.4495
40.572026	92.764	-145.7604
40.866028	92.785	-146.0709
41.162160	92.806	-146.3807
41.460438	92.826	-146.6898
41.760877	92.846	-146.9987
42.063494	92.866	-147.3080
42.368303	92.886	-147.6185
42.675322	92.906	-147.9304
42.984565	92.925	-148.2435
43.296048	92.943	-148.5569
43.609789	92.961	-148.8695
43.925804	92.979	-149.1805
44.244108	92.997	-149.4894
44.564719	93.014	-149.7965
44.887654	93.031	-150.1024
45.212928	93.049	-150.4079
45.540560	93.066	-150.7134
45.870565	93.083	-151.0191
46.202962	93.100	-151.3248
46.537768	93.116	-151.6302
46.875000	93.133	-151.9352
47.214676	93.150	-152.2399
47.556813	93.166	-152.5448
47.901429	93.183	-152.8501
48.248542	93.199	-153.1560
48.598171	93.215	-153.4622
48.950334	93.232	-153.7683
49.305048	93.247	-154.0736
49.662333	93.263	-154.3778
50.022206	93.279	-154.6809
50.384688	93.294	-154.9830
50.749796	93.309	-155.2846
51.117550	93.324	-155.5856
51.487969	93.339	-155.8858
51.861072	93.353	-156.1844
52.236879	93.368	-156.4808
52.615409	93.381	-156.7746
52.996681	93.395	-157.0661
53.380717	93.409	-157.3558
53.767536	93.424	-157.6448
54.157158	93.438	-157.9336
54.549603	93.453	-158.2231
54.944892	93.467	-158.5138
55.343045	93.482	-158.8063
55.744084	93.498	-159.1017
56.148028	93.513	-159.4009
56.554900	93.528	-159.7046
56.964720	93.544	-160.0130
57.377510	93.559	-160.3260
57.793291	93.573	-160.6425
58.212085	93.587	-160.9614
58.633914	93.600	-161.2811
59.058799	93.612	-161.5999
59.486764	93.623	-161.9164
59.917829	93.634	-162.2302
60.352019	93.644	-162.5412
60.789354	93.654	-162.8502
61.229859	93.664	-163.1575
61.673556	93.672	-163.4631
62.120468	93.681	-163.7665
62.570618	93.688	-164.0675
63.024031	93.696	-164.3663
63.480729	93.703	-164.6639
63.940736	93.710	-164.9610
64.404077	93.717	-165.2580
64.870776	93.723	-165.5546
65.340856	93.729	-165.8502
65.814343	93.735	-166.1443
66.291261	93.740	-166.4366
66.771635	93.745	-166.7267
67.255489	93.750	-167.0138
67.742850	93.756	-167.2974
68.233743	93.761	-167.5776
68.728193	93.767	-167.8551
69.226226	93.773	-168.1308
69.727867	93.780	-168.4055
70.233144	93.787	-168.6799
70.742083	93.795	-168.9544
71.254709	93.802	-169.2295
71.771050	93.810	-169.5057
72.291132	93.817	-169.7828
72.814984	93.825	-170.0605
73.342631	93.832	-170.3383
73.874102	93.840	-170.6161
74.409424	93.848	-170.8942
74.948626	93.855	-171.1740
75.491734	93.864	-171.4570
76.038779	93.872	-171.7440
76.589787	93.880	-172.0350
77.144788	93.888	-172.3290
77.703811	93.895	-172.6258
78.266885	93.903	-172.9259
78.834039	93.911	-173.2303
79.405303	93.919	-173.5400
79.980706	93.927	-173.8553
80.560280	93.934	-174.1770
81.144053	93.941	-174.5056
81.732056	93.947	-174.8413
82.324320	93.952	-175.1834
82.920876	93.956	-175.5299
83.521755	93.958	-175.8779
84.126988	93.958	-176.2245
84.736607	93.956	-176.5666
85.350643	93.953	-176.9017
85.969129	93.950	-177.2281
86.592097	93.945	-177.5452
87.219579	93.941	-177.8535
