* Measurement data measured by REW V5.30 beta 5
* Source: EXCL: Microphone (Realtek(R) Audio), MICROPHONE (Master Volume), L, volume: 1.000
* Format: 256k Log Swept Sine, 1 sweep at -18.0 dBFS with no timing reference
* Dated: Dec 31, 2023 1:22:16 PM
* REW Settings:
*  C-weighting compensation: Off
*  Target level: 75.0 dB
* Note: CVJ Assasin Silver
* Measurement: CVJ Assasin Silver 01
* Smoothing: 1/12 octave
* Frequency Step: 96 ppo
* Start Frequency: 0.36621094 Hz
*
* Freq(Hz) SPL(dB) Phase(degrees)
0.366211 81.634 -19.5247
0.368865 81.628 -19.5466
0.371538 81.618 -19.5795
0.374230 81.607 -19.6207
0.376942 81.594 -19.6681
0.379673 81.580 -19.7203
0.382424 81.565 -19.7760
0.385196 81.550 -19.8348
0.387987 81.535 -19.8962
0.390798 81.520 -19.9600
0.393630 81.504 -20.0262
0.396483 81.488 -20.0947
0.399356 81.473 -20.1655
0.402250 81.457 -20.2386
0.405165 81.441 -20.3141
0.408101 81.424 -20.3919
0.411058 81.408 -20.4721
0.414037 81.392 -20.5547
0.417037 81.375 -20.6397
0.420059 81.359 -20.7272
0.423103 81.342 -20.8171
0.426169 81.325 -20.9096
0.429257 81.308 -21.0046
0.432367 81.291 -21.1021
0.435501 81.273 -21.2022
0.438656 81.256 -21.3049
0.441835 81.238 -21.4103
0.445037 81.221 -21.5182
0.448262 81.203 -21.6289
0.451510 81.185 -21.7422
0.454782 81.167 -21.8582
0.458077 81.149 -21.9770
0.461397 81.131 -22.0986
0.464740 81.112 -22.2229
0.468108 81.094 -22.3500
0.471500 81.075 -22.4799
0.474917 81.056 -22.6126
0.478358 81.037 -22.7482
0.481825 81.018 -22.8867
0.485316 80.999 -23.0281
0.488833 80.979 -23.1724
0.492375 80.960 -23.3196
0.495943 80.940 -23.4697
0.499537 80.920 -23.6227
0.503157 80.900 -23.7788
0.506803 80.880 -23.9378
0.510475 80.860 -24.0998
0.514174 80.840 -24.2647
0.517900 80.819 -24.4327
0.521653 80.798 -24.6037
0.525433 80.778 -24.7777
0.529241 80.757 -24.9547
0.533076 80.735 -25.1347
0.536939 80.714 -25.3177
0.540830 80.693 -25.5037
0.544749 80.671 -25.6927
0.548696 80.649 -25.8848
0.552673 80.627 -26.0798
0.556677 80.605 -26.2778
0.560711 80.583 -26.4788
0.564774 80.561 -26.6827
0.568867 80.538 -26.8896
0.572989 80.515 -27.0994
0.577141 80.492 -27.3120
0.581324 80.469 -27.5276
0.585536 80.446 -27.7459
0.589779 80.423 -27.9671
0.594053 80.399 -28.1910
0.598358 80.376 -28.4177
0.602694 80.352 -28.6471
0.607061 80.328 -28.8790
0.611460 80.303 -29.1136
0.615891 80.279 -29.3507
0.620354 80.254 -29.5903
0.624849 80.229 -29.8322
0.629377 80.204 -30.0765
0.633938 80.179 -30.3231
0.638532 80.154 -30.5718
0.643159 80.129 -30.8226
0.647819 80.103 -31.0754
0.652514 80.077 -31.3301
0.657242 80.051 -31.5867
0.662005 80.025 -31.8449
0.666802 79.998 -32.1046
0.671634 79.972 -32.3658
0.676501 79.945 -32.6284
0.681403 79.918 -32.8921
0.686341 79.890 -33.1568
0.691314 79.863 -33.4224
0.696324 79.835 -33.6888
0.701369 79.807 -33.9558
0.706452 79.779 -34.2233
0.711571 79.750 -34.4914
0.716727 79.720 -34.7600
0.721921 79.689 -35.0295
0.727153 79.656 -35.3003
0.732422 79.621 -35.5731
0.737729 79.583 -35.8490
0.743075 79.543 -36.1288
0.748460 79.501 -36.4135
0.753883 79.458 -36.7038
0.759346 79.412 -37.0002
0.764849 79.366 -37.3030
0.770391 79.319 -37.6126
0.775974 79.270 -37.9290
0.781597 79.221 -38.2525
0.787261 79.171 -38.5833
0.792965 79.120 -38.9214
0.798712 79.068 -39.2670
0.804499 79.015 -39.6201
0.810329 78.962 -39.9810
0.816201 78.907 -40.3498
0.822116 78.852 -40.7264
0.828073 78.795 -41.1111
0.834073 78.738 -41.5040
0.840118 78.680 -41.9052
0.846205 78.621 -42.3148
0.852337 78.560 -42.7328
0.858514 78.499 -43.1595
0.864735 78.437 -43.5948
0.871001 78.374 -44.0390
0.877313 78.310 -44.4920
0.883670 78.245 -44.9539
0.890074 78.179 -45.4249
0.896523 78.112 -45.9050
0.903020 78.044 -46.3942
0.909564 77.976 -46.8927
0.916155 77.906 -47.4004
0.922793 77.835 -47.9174
0.929480 77.763 -48.4437
0.936216 77.690 -48.9793
0.943000 77.616 -49.5242
0.949833 77.540 -50.0784
0.956716 77.464 -50.6418
0.963649 77.387 -51.2144
0.970632 77.309 -51.7962
0.977666 77.230 -52.3869
0.984750 77.149 -52.9866
0.991886 77.068 -53.5950
0.999074 76.986 -54.2120
1.006313 76.902 -54.8374
1.013605 76.818 -55.4711
1.020950 76.732 -56.1126
1.028349 76.645 -56.7619
1.035801 76.557 -57.4185
1.043306 76.469 -58.0821
1.050867 76.379 -58.7525
1.058482 76.287 -59.4294
1.066152 76.195 -60.1123
1.073878 76.101 -60.8013
1.081659 76.006 -61.4964
1.089498 75.909 -62.1980
1.097393 75.809 -62.9069
1.105345 75.707 -63.6243
1.113355 75.601 -64.3518
1.121422 75.492 -65.0910
1.129549 75.378 -65.8434
1.137734 75.261 -66.6106
1.145978 75.139 -67.3939
1.154283 75.013 -68.1946
1.162647 74.883 -69.0141
1.171072 74.749 -69.8538
1.179558 74.611 -70.7150
1.188106 74.471 -71.5992
1.196715 74.327 -72.5080
1.205387 74.181 -73.4430
1.214122 74.032 -74.4058
1.222920 73.881 -75.3982
1.231781 73.728 -76.4221
1.240708 73.574 -77.4794
1.249698 73.418 -78.5721
1.258754 73.262 -79.7022
1.267875 73.106 -80.8720
1.277063 72.950 -82.0835
1.286317 72.794 -83.3390
1.295638 72.639 -84.6407
1.305027 72.486 -85.9910
1.314484 72.335 -87.3918
1.324009 72.186 -88.8454
1.333603 72.040 -90.3537
1.343267 71.898 -91.9186
1.353001 71.760 -93.5415
1.362805 71.627 -95.2238
1.372681 71.499 -96.9664
1.382628 71.378 -98.7696
1.392647 71.263 -100.6333
1.402739 71.156 -102.5568
1.412904 71.057 -104.5389
1.423142 70.967 -106.5774
1.433455 70.886 -108.6700
1.443842 70.816 -110.8140
1.454305 70.757 -113.0064
1.464843 70.708 -115.2450
1.475458 70.670 -117.5278
1.486150 70.642 -119.8527
1.496919 70.626 -122.2179
1.507766 70.619 -124.6203
1.518692 70.623 -127.0562
1.529697 70.636 -129.5213
1.540782 70.658 -132.0100
1.551947 70.690 -134.5165
1.563193 70.730 -137.0341
1.574521 70.779 -139.5562
1.585931 70.836 -142.0754
1.597423 70.900 -144.5847
1.608998 70.972 -147.0769
1.620658 71.052 -149.5450
1.632402 71.137 -151.9825
1.644231 71.229 -154.3830
1.656146 71.326 -156.7410
1.668147 71.429 -159.0514
1.680235 71.536 -161.3095
1.692410 71.648 -163.5117
1.704674 71.763 -165.6548
1.717027 71.881 -167.7362
1.729469 72.002 -169.7542
1.742002 72.125 -171.7072
1.754625 72.249 -173.5949
1.767340 72.374 -175.4170
1.780147 72.499 -177.1741
1.793046 72.625 -178.8676
1.806040 72.752 179.5005
1.819127 72.879 177.9271
1.832309 73.008 176.4085
1.845587 73.140 174.9403
1.858961 73.276 173.5180
1.872431 73.417 172.1382
1.886000 73.563 170.7977
1.899666 73.715 169.4946
1.913432 73.872 168.2272
1.927298 74.034 166.9944
1.941264 74.200 165.7954
1.955331 74.371 164.6296
1.969500 74.546 163.4966
1.983772 74.724 162.3959
1.998147 74.905 161.3275
2.012626 75.087 160.2910
2.027211 75.271 159.2863
2.041901 75.456 158.3135
2.056697 75.642 157.3726
2.071601 75.826 156.4636
2.086613 76.009 155.5864
2.101733 76.191 154.7413
2.116963 76.370 153.9280
2.132303 76.545 153.1467
2.147755 76.717 152.3967
2.163318 76.885 151.6776
2.178995 77.048 150.9879
2.194785 77.206 150.3262
2.210689 77.361 149.6901
2.226709 77.511 149.0771
2.242844 77.658 148.4852
2.259097 77.802 147.9125
2.275467 77.944 147.3575
2.291956 78.082 146.8193
2.308565 78.219 146.2970
2.325294 78.353 145.7902
2.342144 78.485 145.2984
2.359116 78.616 144.8213
2.376211 78.745 144.3587
2.393430 78.873 143.9105
2.410774 79.000 143.4764
2.428243 79.126 143.0566
2.445839 79.252 142.6511
2.463562 79.377 142.2599
2.481415 79.502 141.8831
2.499396 79.626 141.5209
2.517508 79.751 141.1734
2.535750 79.876 140.8409
2.554126 80.001 140.5233
2.572634 80.125 140.2208
2.591276 80.249 139.9332
2.610054 80.373 139.6601
2.628967 80.495 139.4006
2.648018 80.617 139.1540
2.667206 80.737 138.9191
2.686534 80.857 138.6947
2.706002 80.976 138.4799
2.725610 81.095 138.2733
2.745361 81.213 138.0738
2.765255 81.331 137.8803
2.785294 81.449 137.6918
2.805477 81.566 137.5072
2.825807 81.684 137.3257
2.846284 81.803 137.1466
2.866909 81.922 136.9692
2.887684 82.042 136.7935
2.908609 82.162 136.6195
2.929686 82.283 136.4478
2.950916 82.405 136.2793
2.972299 82.527 136.1146
2.993838 82.649 135.9540
3.015532 82.772 135.7974
3.037384 82.895 135.6443
3.059394 83.019 135.4936
3.081564 83.142 135.3443
3.103894 83.266 135.1954
3.126386 83.390 135.0454
3.149041 83.514 134.8934
3.171861 83.638 134.7380
3.194845 83.762 134.5783
3.217996 83.887 134.4135
3.241315 84.011 134.2429
3.264803 84.136 134.0664
3.288461 84.261 133.8843
3.312291 84.386 133.6973
3.336293 84.511 133.5060
3.360469 84.637 133.3110
3.384820 84.762 133.1127
3.409348 84.888 132.9107
3.434054 85.014 132.7048
3.458938 85.139 132.4942
3.484003 85.264 132.2783
3.509250 85.389 132.0562
3.534679 85.514 131.8270
3.560293 85.637 131.5899
3.586092 85.761 131.3442
3.612079 85.883 131.0893
3.638253 86.004 130.8248
3.664618 86.125 130.5505
3.691173 86.245 130.2666
3.717921 86.364 129.9736
3.744862 86.482 129.6719
3.771999 86.599 129.3623
3.799332 86.715 129.0454
3.826864 86.830 128.7218
3.854595 86.945 128.3922
3.882527 87.058 128.0568
3.910661 87.169 127.7163
3.938999 87.280 127.3708
3.967543 87.389 127.0202
3.996294 87.496 126.6646
4.025252 87.602 126.3033
4.054421 87.706 125.9361
4.083801 87.809 125.5627
4.113394 87.909 125.1831
4.143201 88.009 124.7979
4.173225 88.106 124.4080
4.203466 88.202 124.0142
4.233926 88.296 123.6179
4.264606 88.389 123.2199
4.295509 88.480 122.8213
4.326636 88.569 122.4227
4.357989 88.657 122.0244
4.389569 88.743 121.6261
4.421378 88.827 121.2274
4.453417 88.910 120.8278
4.485688 88.990 120.4272
4.518193 89.069 120.0258
4.550934 89.146 119.6245
4.583912 89.221 119.2241
4.617129 89.295 118.8259
4.650587 89.367 118.4310
4.684287 89.439 118.0406
4.718231 89.509 117.6553
4.752421 89.578 117.2755
4.786859 89.645 116.9009
4.821547 89.712 116.5313
4.856485 89.777 116.1663
4.891677 89.840 115.8056
4.927125 89.903 115.4493
4.962829 89.965 115.0977
4.998791 90.027 114.7511
5.035015 90.087 114.4099
5.071500 90.148 114.0745
5.108251 90.208 113.7453
5.145267 90.268 113.4225
5.182552 90.328 113.1059
5.220107 90.388 112.7951
5.257934 90.448 112.4896
5.296035 90.507 112.1885
5.334412 90.567 111.8909
5.373067 90.627 111.5960
5.412003 90.687 111.3032
5.451221 90.748 111.0120
5.490722 90.809 110.7223
5.530510 90.872 110.4339
5.570587 90.934 110.1467
5.610953 90.998 109.8600
5.651613 91.062 109.5731
5.692567 91.127 109.2846
5.733818 91.192 108.9933
5.775367 91.257 108.6978
5.817218 91.324 108.3972
5.859372 91.390 108.0909
5.901831 91.457 107.7785
5.944598 91.525 107.4601
5.987675 91.593 107.1353
6.031065 91.662 106.8039
6.074768 91.730 106.4653
6.118788 91.798 106.1189
6.163127 91.866 105.7639
6.207788 91.934 105.3998
6.252772 92.001 105.0262
6.298082 92.067 104.6434
6.343721 92.133 104.2515
6.389690 92.198 103.8515
6.435992 92.262 103.4441
6.482630 92.325 103.0302
6.529606 92.386 102.6103
6.576922 92.446 102.1848
6.624581 92.505 101.7539
6.672585 92.561 101.3181
6.720938 92.616 100.8782
6.769640 92.670 100.4357
6.818696 92.722 99.9924
6.868107 92.772 99.5502
6.917876 92.820 99.1105
6.968006 92.866 98.6744
7.018499 92.911 98.2425
7.069358 92.954 97.8156
7.120586 92.996 97.3948
7.172184 93.036 96.9817
7.224157 93.075 96.5780
7.276506 93.113 96.1853
7.329235 93.150 95.8049
7.382345 93.187 95.4375
7.435841 93.223 95.0833
7.489724 93.259 94.7423
7.543997 93.296 94.4146
7.598664 93.333 94.1004
7.653728 93.371 93.7998
7.709189 93.411 93.5128
7.765053 93.452 93.2390
7.821322 93.495 92.9773
7.877998 93.540 92.7260
7.935086 93.587 92.4828
7.992587 93.637 92.2458
8.050504 93.690 92.0130
8.108841 93.746 91.7829
8.167601 93.805 91.5537
8.226787 93.867 91.3228
8.286402 93.932 91.0873
8.346449 94.000 90.8441
8.406931 94.071 90.5905
8.467851 94.144 90.3245
8.529212 94.220 90.0445
8.591018 94.298 89.7491
8.653272 94.377 89.4367
8.715977 94.458 89.1056
8.779137 94.539 88.7545
8.842754 94.621 88.3828
8.906833 94.703 87.9907
8.971375 94.784 87.5788
9.036386 94.865 87.1480
9.101867 94.944 86.6995
9.167823 95.021 86.2344
9.234257 95.096 85.7538
9.301172 95.169 85.2600
9.368572 95.239 84.7556
9.436460 95.307 84.2436
9.504841 95.371 83.7268
9.573717 95.432 83.2077
9.643092 95.490 82.6888
9.712970 95.545 82.1727
9.783354 95.598 81.6628
9.854248 95.647 81.1621
9.925656 95.694 80.6732
9.997581 95.739 80.1978
10.070028 95.782 79.7377
10.143000 95.824 79.2944
10.216500 95.864 78.8691
10.290533 95.904 78.4628
10.365103 95.944 78.0755
10.440212 95.985 77.7065
10.515866 96.026 77.3546
10.592069 96.069 77.0184
10.668823 96.114 76.6961
10.746134 96.160 76.3854
10.824005 96.209 76.0836
10.902440 96.260 75.7874
10.981443 96.313 75.4936
11.061020 96.369 75.1992
11.141172 96.427 74.9013
11.221906 96.487 74.5971
11.303225 96.548 74.2840
11.385133 96.611 73.9597
11.467634 96.674 73.6228
11.550734 96.738 73.2724
11.634435 96.801 72.9082
11.718742 96.864 72.5302
11.803661 96.926 72.1391
11.889195 96.986 71.7362
11.975349 97.044 71.3234
12.062128 97.099 70.9029
12.149535 97.153 70.4771
12.237576 97.203 70.0486
12.326254 97.252 69.6200
12.415575 97.298 69.1943
12.505544 97.341 68.7738
12.596164 97.382 68.3608
12.687441 97.422 67.9568
12.779379 97.461 67.5634
12.871984 97.498 67.1812
12.965260 97.535 66.8102
13.059211 97.572 66.4499
13.153843 97.610 66.0989
13.249161 97.648 65.7553
13.345170 97.688 65.4170
13.441875 97.729 65.0808
13.539280 97.771 64.7437
13.637391 97.814 64.4026
13.736214 97.859 64.0543
13.835752 97.905 63.6960
13.936011 97.951 63.3252
14.036998 97.997 62.9402
14.138716 98.043 62.5398
14.241171 98.088 62.1239
14.344368 98.131 61.6931
14.448313 98.172 61.2491
14.553011 98.210 60.7940
14.658468 98.245 60.3314
14.764689 98.277 59.8649
14.871680 98.305 59.3989
14.979446 98.330 58.9380
15.087994 98.352 58.4869
15.197328 98.370 58.0499
15.307454 98.387 57.6309
15.418378 98.402 57.2329
15.530106 98.417 56.8581
15.642643 98.432 56.5069
15.755996 98.448 56.1786
15.870171 98.467 55.8709
15.985172 98.489 55.5801
16.101007 98.515 55.3006
16.217682 98.545 55.0265
16.335201 98.580 54.7506
16.453573 98.619 54.4659
16.572803 98.662 54.1655
16.692898 98.708 53.8439
16.813862 98.757 53.4966
16.935701 98.806 53.1210
17.058424 98.855 52.7168
17.182035 98.903 52.2860
17.306543 98.949 51.8323
17.431953 98.991 51.3615
17.558273 99.029 50.8809
17.685509 99.062 50.3985
17.813665 99.092 49.9225
17.942751 99.118 49.4607
18.072771 99.142 49.0193
18.203733 99.165 48.6025
18.335646 99.188 48.2119
18.468513 99.212 47.8460
18.602345 99.240 47.5002
18.737144 99.271 47.1668
18.872921 99.307 46.8363
19.009682 99.348 46.4981
19.147434 99.392 46.1424
19.286184 99.439 45.7609
19.425940 99.487 45.3477
19.566708 99.534 44.9002
19.708496 99.578 44.4202
19.851313 99.617 43.9133
19.995163 99.649 43.3890
20.140057 99.674 42.8598
20.285999 99.690 42.3399
20.433001 99.699 41.8439
20.581066 99.701 41.3850
20.730206 99.699 40.9737
20.880424 99.695 40.6159
21.031733 99.691 40.3126
21.184137 99.690 40.0588
21.337646 99.695 39.8444
21.492268 99.706 39.6551
21.648010 99.725 39.4742
21.804880 99.750 39.2852
21.962887 99.780 39.0739
22.122040 99.814 38.8300
22.282345 99.848 38.5492
22.443811 99.880 38.2327
22.606449 99.909 37.8870
22.770266 99.932 37.5226
22.935268 99.949 37.1520
23.101467 99.961 36.7876
23.268869 99.969 36.4399
23.437485 99.974 36.1158
23.607323 99.978 35.8177
23.778391 99.984 35.5431
23.950699 99.992 35.2852
24.124256 100.003 35.0349
24.299070 100.018 34.7818
24.475151 100.037 34.5166
24.652508 100.057 34.2325
24.831150 100.078 33.9259
25.011087 100.098 33.5969
25.192327 100.117 33.2481
25.374882 100.134 32.8842
25.558758 100.150 32.5099
25.743967 100.163 32.1298
25.930519 100.175 31.7466
26.118422 100.185 31.3619
26.307686 100.195 30.9762
26.498322 100.204 30.5897
26.690340 100.211 30.2036
26.883749 100.217 29.8202
27.078560 100.222 29.4437
27.274782 100.225 29.0791
27.472427 100.228 28.7318
27.671503 100.230 28.4057
27.872023 100.234 28.1022
28.073996 100.240 27.8193
28.277431 100.250 27.5514
28.482342 100.265 27.2900
28.688736 100.284 27.0256
28.896626 100.306 26.7496
29.106022 100.331 26.4561
29.316936 100.355 26.1430
29.529379 100.379 25.8132
29.743361 100.400 25.4729
29.958893 100.418 25.1307
30.175987 100.434 24.7954
30.394655 100.447 24.4738
30.614908 100.459 24.1691
30.836756 100.471 23.8807
31.060211 100.484 23.6040
31.285286 100.499 23.3312
31.511992 100.516 23.0536
31.740341 100.533 22.7628
31.970345 100.550 22.4526
32.202015 100.565 22.1203
32.435364 100.577 21.7664
32.670403 100.585 21.3948
32.907146 100.587 21.0128
33.145607 100.583 20.6293
33.385796 100.573 20.2538
33.627724 100.558 19.8959
33.871403 100.539 19.5630
34.116848 100.518 19.2596
34.364071 100.497 18.9861
34.613087 100.478 18.7382
34.863907 100.463 18.5075
35.116547 100.452 18.2828
35.371017 100.445 18.0522
35.627331 100.443 17.8050
35.885502 100.445 17.5344
36.145542 100.448 17.2380
36.407467 100.451 16.9174
36.671291 100.455 16.5769
36.937027 100.458 16.2220
37.204689 100.461 15.8569
37.474289 100.464 15.4843
37.745842 100.466 15.1058
38.019363 100.467 14.7236
38.294868 100.467 14.3422
38.572369 100.464 13.9691
38.851879 100.458 13.6147
39.133415 100.449 13.2900
39.416992 100.439 13.0037
39.702625 100.430 12.7598
39.990326 100.422 12.5566
40.280113 100.417 12.3873
40.571999 100.415 12.2421
40.866001 100.417 12.1111
41.162132 100.420 11.9865
41.460411 100.425 11.8624
41.760849 100.430 11.7351
42.063465 100.434 11.6027
42.368275 100.436 11.4648
42.675293 100.436 11.3226
42.984535 100.434 11.1786
43.296021 100.430 11.0342
43.609760 100.425 10.8873
43.925774 100.421 10.7301
44.244080 100.417 10.5502
44.564690 100.413 10.3363
44.887623 100.406 10.0845
45.212898 100.394 9.8038
45.540531 100.376 9.5148
45.870537 100.354 9.2418
46.202934 100.333 9.0000
46.537739 100.318 8.7848
46.874969 100.312 8.5708
47.214645 100.318 8.3210
47.556782 100.330 8.0056
47.901398 100.344 7.6160
48.248512 100.353 7.1701
48.598141 100.353 6.7030
48.950302 100.347 6.2515
49.305016 100.335 5.8403
49.662300 100.323 5.4766
50.022175 100.311 5.1555
50.384655 100.300 4.8698
50.749763 100.290 4.6177
51.117516 100.279 4.4024
51.487934 100.269 4.2251
51.861038 100.263 4.0773
52.236843 100.260 3.9385
52.615372 100.261 3.7825
52.996643 100.262 3.5888
53.380680 100.258 3.3523
53.767498 100.246 3.0858
54.157120 100.225 2.8141
54.549564 100.196 2.5609
54.944855 100.164 2.3381
55.343006 100.133 2.1405
55.744045 100.106 1.9500
56.147991 100.084 1.7471
56.554863 100.066 1.5190
56.964684 100.054 1.2596
57.377472 100.045 0.9612
57.793251 100.041 0.6083
58.212044 100.038 0.1848
58.633873 100.029 -0.3083
59.058758 100.008 -0.8392
59.486721 99.973 -1.3500
59.917786 99.927 -1.7842
60.351974 99.880 -2.1180
60.789310 99.840 -2.3741
61.229816 99.813 -2.6086
61.673512 99.797 -2.8820
62.120422 99.786 -3.2390
62.570572 99.772 -3.6995
63.023983 99.745 -4.2532
63.480682 99.697 -4.8472
63.940689 99.624 -5.3831
64.404030 99.533 -5.7449
64.870728 99.444 -5.8593
65.340805 99.381 -5.7533
65.814293 99.362 -5.5547
66.291214 99.386 -5.4193
66.771591 99.441 -5.4432
67.255447 99.510 -5.6321
67.742805 99.584 -5.9385
68.233696 99.660 -6.3171
68.728142 99.739 -6.7538
69.226173 99.820 -7.2585
69.727814 99.898 -7.8480
70.233093 99.969 -8.5365
70.742035 100.029 -9.3384
71.254662 100.074 -10.2733
71.771004 100.097 -11.3661
72.291084 100.092 -12.6385
72.814934 100.051 -14.0958
73.342583 99.964 -15.7166
73.874054 99.824 -17.4523
74.409378 99.631 -19.2350
74.948578 99.386 -20.9904
75.491684 99.098 -22.6539
76.038727 98.780 -24.1902
76.589737 98.445 -25.6042
77.144737 98.103 -26.9336
77.703758 97.754 -28.2224
78.266830 97.391 -29.4936
78.833984 97.000 -30.7339
79.405251 96.565 -31.8792
79.980652 96.062 -32.7871
80.560226 95.476 -33.2090
81.143997 94.806 -32.7769
81.732002 94.076 -30.9771
82.324265 93.350 -27.0375
82.920822 92.749 -19.7461
83.521698 92.449 -7.6995
84.126930 92.619 8.6066
84.736549 93.276 24.3948
85.350586 94.258 35.0007
85.969070 95.348 40.1579
86.592041 96.389 41.5471
87.219521 97.303 40.6745
87.851547 98.068 38.5386
88.488159 98.688 35.7578
89.129379 99.179 32.7057
89.775246 99.561 29.6035
90.425797 99.848 26.5839
91.081062 100.057 23.7350
91.741074 100.200 21.1213
92.405869 100.295 18.7798
93.075478 100.355 16.7097
93.749939 100.396 14.8752
94.429291 100.423 13.2271
95.113564 100.444 11.7173
95.802795 100.458 10.3032
96.497025 100.465 8.9556
97.196281 100.462 7.6719
97.900604 100.447 6.4758
