* Measurement data measured by REW V5.30.4
* Source: EXCL: Microphone (Realtek(R) Audio), MICROPHONE (Master Volume), L, volume: 1.000
* Format: 256k Log Swept Sine, 1 sweep at -19.0 dBFS with no timing reference
* Dated: Jan 15, 2024 12:15:39 AM
* REW Settings:
*  C-weighting compensation: Off
*  Target level: 75.0 dB
* Note: CVJ Seven
* Measurement: CVJ Seven V.Game
* Smoothing: 1/12 octave
* Frequency Step: 96 ppo
* Start Frequency: 0.36621094 Hz
*
* Freq(Hz) SPL(dB) Phase(degrees)
0.366211 73.938 -18.4144
0.368865 73.933 -18.4286
0.371538 73.927 -18.4501
0.374230 73.920 -18.4770
0.376942 73.911 -18.5082
0.379673 73.902 -18.5425
0.382424 73.892 -18.5794
0.385196 73.883 -18.6184
0.387987 73.873 -18.6593
0.390798 73.863 -18.7020
0.393630 73.852 -18.7464
0.396483 73.842 -18.7925
0.399356 73.832 -18.8403
0.402250 73.821 -18.8898
0.405165 73.811 -18.9410
0.408101 73.800 -18.9939
0.411058 73.789 -19.0485
0.414037 73.778 -19.1048
0.417037 73.768 -19.1628
0.420059 73.757 -19.2226
0.423103 73.746 -19.2842
0.426169 73.735 -19.3475
0.429257 73.723 -19.4126
0.432367 73.712 -19.4795
0.435501 73.701 -19.5481
0.438656 73.689 -19.6186
0.441835 73.678 -19.6908
0.445037 73.666 -19.7649
0.448262 73.655 -19.8408
0.451510 73.643 -19.9185
0.454782 73.631 -19.9980
0.458077 73.619 -20.0793
0.461397 73.607 -20.1624
0.464740 73.595 -20.2474
0.468108 73.583 -20.3342
0.471500 73.570 -20.4228
0.474917 73.558 -20.5132
0.478358 73.546 -20.6055
0.481825 73.533 -20.6995
0.485316 73.520 -20.7953
0.488833 73.508 -20.8930
0.492375 73.495 -20.9924
0.495943 73.482 -21.0936
0.499537 73.469 -21.1965
0.503157 73.456 -21.3012
0.506803 73.443 -21.4076
0.510475 73.429 -21.5157
0.514174 73.416 -21.6255
0.517900 73.402 -21.7370
0.521653 73.389 -21.8501
0.525433 73.375 -21.9649
0.529241 73.361 -22.0812
0.533076 73.348 -22.1990
0.536939 73.334 -22.3184
0.540830 73.319 -22.4393
0.544749 73.305 -22.5616
0.548696 73.291 -22.6854
0.552673 73.277 -22.8105
0.556677 73.262 -22.9369
0.560711 73.247 -23.0645
0.564774 73.233 -23.1934
0.568867 73.218 -23.3234
0.572989 73.203 -23.4545
0.577141 73.188 -23.5866
0.581324 73.173 -23.7196
0.585536 73.158 -23.8535
0.589779 73.142 -23.9882
0.594053 73.127 -24.1236
0.598358 73.111 -24.2596
0.602694 73.095 -24.3962
0.607061 73.080 -24.5332
0.611460 73.064 -24.6705
0.615891 73.048 -24.8080
0.620354 73.032 -24.9456
0.624849 73.015 -25.0832
0.629377 72.999 -25.2206
0.633938 72.982 -25.3578
0.638532 72.966 -25.4946
0.643159 72.949 -25.6307
0.647819 72.932 -25.7662
0.652514 72.915 -25.9007
0.657242 72.898 -26.0342
0.662005 72.881 -26.1665
0.666802 72.863 -26.2973
0.671634 72.846 -26.4266
0.676501 72.828 -26.5540
0.681403 72.811 -26.6794
0.686341 72.793 -26.8026
0.691314 72.775 -26.9233
0.696324 72.756 -27.0413
0.701369 72.738 -27.1564
0.706452 72.720 -27.2684
0.711571 72.701 -27.3772
0.716727 72.682 -27.4827
0.721921 72.662 -27.5849
0.727153 72.642 -27.6839
0.732422 72.621 -27.7803
0.737729 72.600 -27.8744
0.743075 72.577 -27.9669
0.748460 72.554 -28.0582
0.753883 72.530 -28.1487
0.759346 72.505 -28.2386
0.764849 72.479 -28.3280
0.770391 72.453 -28.4170
0.775974 72.426 -28.5055
0.781597 72.398 -28.5936
0.787261 72.370 -28.6812
0.792965 72.341 -28.7682
0.798712 72.312 -28.8546
0.804499 72.282 -28.9403
0.810329 72.251 -29.0252
0.816201 72.220 -29.1093
0.822116 72.189 -29.1924
0.828073 72.157 -29.2744
0.834073 72.124 -29.3553
0.840118 72.091 -29.4349
0.846205 72.058 -29.5132
0.852337 72.024 -29.5900
0.858514 71.990 -29.6651
0.864735 71.956 -29.7385
0.871001 71.921 -29.8100
0.877313 71.886 -29.8795
0.883670 71.851 -29.9467
0.890074 71.815 -30.0117
0.896523 71.779 -30.0741
0.903020 71.744 -30.1337
0.909564 71.708 -30.1905
0.916155 71.672 -30.2443
0.922793 71.636 -30.2947
0.929480 71.600 -30.3416
0.936216 71.564 -30.3848
0.943000 71.528 -30.4240
0.949833 71.492 -30.4589
0.956716 71.456 -30.4895
0.963649 71.421 -30.5152
0.970632 71.386 -30.5360
0.977666 71.351 -30.5514
0.984750 71.317 -30.5612
0.991886 71.284 -30.5652
0.999074 71.250 -30.5628
1.006313 71.218 -30.5539
1.013605 71.186 -30.5381
1.020950 71.155 -30.5151
1.028349 71.124 -30.4844
1.035801 71.095 -30.4456
1.043306 71.066 -30.3985
1.050867 71.039 -30.3426
1.058482 71.012 -30.2774
1.066152 70.987 -30.2025
1.073878 70.963 -30.1173
1.081659 70.940 -30.0211
1.089498 70.918 -29.9133
1.097393 70.898 -29.7929
1.105345 70.878 -29.6591
1.113355 70.859 -29.5108
1.121422 70.841 -29.3474
1.129549 70.824 -29.1685
1.137734 70.807 -28.9738
1.145978 70.791 -28.7631
1.154283 70.775 -28.5366
1.162647 70.760 -28.2945
1.171072 70.746 -28.0368
1.179558 70.732 -27.7640
1.188106 70.719 -27.4764
1.196715 70.706 -27.1743
1.205387 70.695 -26.8582
1.214122 70.684 -26.5286
1.222920 70.675 -26.1861
1.231781 70.666 -25.8311
1.240708 70.658 -25.4645
1.249698 70.651 -25.0869
1.258754 70.646 -24.6990
1.267875 70.642 -24.3016
1.277063 70.639 -23.8957
1.286317 70.637 -23.4822
1.295638 70.637 -23.0621
1.305027 70.638 -22.6363
1.314484 70.641 -22.2061
1.324009 70.645 -21.7726
1.333603 70.651 -21.3370
1.343267 70.659 -20.9006
1.353001 70.669 -20.4646
1.362805 70.680 -20.0305
1.372681 70.694 -19.5996
1.382628 70.710 -19.1734
1.392647 70.728 -18.7531
1.402739 70.749 -18.3403
1.412904 70.771 -17.9361
1.423142 70.797 -17.5416
1.433455 70.825 -17.1576
1.443842 70.856 -16.7842
1.454305 70.890 -16.4211
1.464843 70.928 -16.0671
1.475458 70.969 -15.7205
1.486150 71.014 -15.3794
1.496919 71.062 -15.0426
1.507766 71.115 -14.7091
1.518692 71.171 -14.3788
1.529697 71.231 -14.0518
1.540782 71.295 -13.7287
1.551947 71.363 -13.4100
1.563193 71.434 -13.0965
1.574521 71.508 -12.7890
1.585931 71.586 -12.4883
1.597423 71.666 -12.1953
1.608998 71.750 -11.9106
1.620658 71.836 -11.6351
1.632402 71.924 -11.3696
1.644231 72.015 -11.1148
1.656146 72.108 -10.8713
1.668147 72.203 -10.6400
1.680235 72.299 -10.4214
1.692410 72.397 -10.2163
1.704674 72.496 -10.0252
1.717027 72.595 -9.8487
1.729469 72.695 -9.6875
1.742002 72.796 -9.5421
1.754625 72.896 -9.4129
1.767340 72.997 -9.3005
1.780147 73.097 -9.2052
1.793046 73.196 -9.1273
1.806040 73.295 -9.0667
1.819127 73.393 -9.0234
1.832309 73.491 -8.9968
1.845587 73.589 -8.9862
1.858961 73.688 -8.9909
1.872431 73.788 -9.0101
1.886000 73.889 -9.0432
1.899666 73.991 -9.0895
1.913432 74.095 -9.1486
1.927298 74.199 -9.2202
1.941264 74.305 -9.3038
1.955331 74.412 -9.3990
1.969500 74.519 -9.5056
1.983772 74.627 -9.6232
1.998147 74.736 -9.7516
2.012626 74.845 -9.8904
2.027211 74.954 -10.0394
2.041901 75.063 -10.1984
2.056697 75.172 -10.3670
2.071601 75.281 -10.5452
2.086613 75.389 -10.7328
2.101733 75.496 -10.9296
2.116963 75.603 -11.1357
2.132303 75.708 -11.3510
2.147755 75.812 -11.5757
2.163318 75.915 -11.8103
2.178995 76.016 -12.0553
2.194785 76.116 -12.3113
2.210689 76.214 -12.5792
2.226709 76.311 -12.8596
2.242844 76.407 -13.1526
2.259097 76.502 -13.4582
2.275467 76.596 -13.7757
2.291956 76.688 -14.1043
2.308565 76.780 -14.4429
2.325294 76.871 -14.7906
2.342144 76.960 -15.1461
2.359116 77.049 -15.5082
2.376211 77.137 -15.8759
2.393430 77.223 -16.2480
2.410774 77.309 -16.6234
2.428243 77.394 -17.0009
2.445839 77.477 -17.3797
2.463562 77.560 -17.7587
2.481415 77.641 -18.1373
2.499396 77.722 -18.5150
2.517508 77.801 -18.8915
2.535750 77.880 -19.2673
2.554126 77.957 -19.6433
2.572634 78.032 -20.0208
2.591276 78.107 -20.4014
2.610054 78.179 -20.7865
2.628967 78.250 -21.1766
2.648018 78.320 -21.5717
2.667206 78.387 -21.9713
2.686534 78.454 -22.3745
2.706002 78.519 -22.7801
2.725610 78.582 -23.1868
2.745361 78.645 -23.5931
2.765255 78.706 -23.9974
2.785294 78.767 -24.3983
2.805477 78.826 -24.7943
2.825807 78.885 -25.1837
2.846284 78.944 -25.5653
2.866909 79.001 -25.9380
2.887684 79.058 -26.3010
2.908609 79.115 -26.6541
2.929686 79.171 -26.9977
2.950916 79.226 -27.3327
2.972299 79.280 -27.6603
2.993838 79.332 -27.9814
3.015532 79.384 -28.2966
3.037384 79.434 -28.6063
3.059394 79.484 -28.9102
3.081564 79.533 -29.2082
3.103894 79.581 -29.4997
3.126386 79.629 -29.7842
3.149041 79.677 -30.0611
3.171861 79.725 -30.3296
3.194845 79.773 -30.5888
3.217996 79.823 -30.8382
3.241315 79.873 -31.0767
3.264803 79.924 -31.3039
3.288461 79.975 -31.5190
3.312291 80.028 -31.7217
3.336293 80.081 -31.9120
3.360469 80.135 -32.0902
3.384820 80.189 -32.2570
3.409348 80.244 -32.4130
3.434054 80.300 -32.5594
3.458938 80.356 -32.6972
3.484003 80.414 -32.8274
3.509250 80.473 -32.9512
3.534679 80.533 -33.0695
3.560293 80.596 -33.1832
3.586092 80.660 -33.2928
3.612079 80.727 -33.3985
3.638253 80.796 -33.5001
3.664618 80.868 -33.5969
3.691173 80.942 -33.6880
3.717921 81.019 -33.7728
3.744862 81.098 -33.8516
3.771999 81.179 -33.9255
3.799332 81.263 -33.9960
3.826864 81.349 -34.0656
3.854595 81.437 -34.1365
3.882527 81.528 -34.2113
3.910661 81.620 -34.2923
3.938999 81.714 -34.3818
3.967543 81.811 -34.4812
3.996294 81.909 -34.5912
4.025252 82.010 -34.7118
4.054421 82.113 -34.8423
4.083801 82.218 -34.9817
4.113394 82.326 -35.1295
4.143201 82.436 -35.2859
4.173225 82.548 -35.4516
4.203466 82.661 -35.6279
4.233926 82.776 -35.8163
4.264606 82.892 -36.0183
4.295509 83.009 -36.2355
4.326636 83.127 -36.4689
4.357989 83.245 -36.7196
4.389569 83.363 -36.9876
4.421378 83.482 -37.2725
4.453417 83.601 -37.5737
4.485688 83.721 -37.8904
4.518193 83.841 -38.2217
4.550934 83.962 -38.5673
4.583912 84.082 -38.9267
4.617129 84.202 -39.2998
4.650587 84.322 -39.6867
4.684287 84.441 -40.0875
4.718231 84.559 -40.5026
4.752421 84.676 -40.9320
4.786859 84.791 -41.3759
4.821547 84.906 -41.8341
4.856485 85.019 -42.3060
4.891677 85.132 -42.7906
4.927125 85.243 -43.2865
4.962829 85.353 -43.7925
4.998791 85.461 -44.3074
5.035015 85.568 -44.8301
5.071500 85.673 -45.3603
5.108251 85.776 -45.8977
5.145267 85.878 -46.4424
5.182552 85.978 -46.9949
5.220107 86.075 -47.5549
5.257934 86.171 -48.1217
5.296035 86.265 -48.6940
5.334412 86.358 -49.2704
5.373067 86.448 -49.8495
5.412003 86.537 -50.4298
5.451221 86.623 -51.0108
5.490722 86.708 -51.5921
5.530510 86.791 -52.1739
5.570587 86.872 -52.7565
5.610953 86.951 -53.3396
5.651613 87.028 -53.9225
5.692567 87.103 -54.5038
5.733818 87.176 -55.0823
5.775367 87.247 -55.6567
5.817218 87.317 -56.2261
5.859372 87.384 -56.7902
5.901831 87.450 -57.3488
5.944598 87.514 -57.9022
5.987675 87.577 -58.4499
6.031065 87.637 -58.9910
6.074768 87.696 -59.5244
6.118788 87.753 -60.0488
6.163127 87.809 -60.5629
6.207788 87.863 -61.0659
6.252772 87.916 -61.5575
6.298082 87.967 -62.0376
6.343721 88.017 -62.5056
6.389690 88.065 -62.9609
6.435992 88.113 -63.4023
6.482630 88.159 -63.8285
6.529606 88.204 -64.2381
6.576922 88.249 -64.6301
6.624581 88.293 -65.0041
6.672585 88.336 -65.3595
6.720938 88.379 -65.6960
6.769640 88.422 -66.0132
6.818696 88.465 -66.3103
6.868107 88.508 -66.5865
6.917876 88.552 -66.8410
6.968006 88.597 -67.0732
7.018499 88.643 -67.2829
7.069358 88.691 -67.4706
7.120586 88.740 -67.6370
7.172184 88.792 -67.7833
7.224157 88.846 -67.9107
7.276506 88.904 -68.0200
7.329235 88.965 -68.1124
7.382345 89.029 -68.1888
7.435841 89.098 -68.2511
7.489724 89.170 -68.3022
7.543997 89.247 -68.3457
7.598664 89.328 -68.3854
7.653728 89.414 -68.4246
7.709189 89.505 -68.4663
7.765053 89.601 -68.5128
7.821322 89.701 -68.5671
7.877998 89.806 -68.6332
7.935086 89.915 -68.7153
7.992587 90.028 -68.8177
8.050504 90.145 -68.9438
8.108841 90.264 -69.0958
8.167601 90.386 -69.2751
8.226787 90.511 -69.4834
8.286402 90.636 -69.7223
8.346449 90.763 -69.9935
8.406931 90.889 -70.2984
8.467851 91.014 -70.6371
8.529212 91.139 -71.0090
8.591018 91.261 -71.4125
8.653272 91.381 -71.8455
8.715977 91.498 -72.3059
8.779137 91.611 -72.7919
8.842754 91.719 -73.3012
8.906833 91.823 -73.8311
8.971375 91.921 -74.3775
9.036386 92.014 -74.9354
9.101867 92.101 -75.5002
9.167823 92.182 -76.0676
9.234257 92.257 -76.6339
9.301172 92.325 -77.1947
9.368572 92.387 -77.7448
9.436460 92.444 -78.2784
9.504841 92.494 -78.7900
9.573717 92.540 -79.2751
9.643092 92.580 -79.7299
9.712970 92.616 -80.1506
9.783354 92.648 -80.5332
9.854248 92.678 -80.8738
9.925656 92.706 -81.1694
9.997581 92.733 -81.4185
10.070028 92.760 -81.6208
10.143000 92.788 -81.7766
10.216500 92.818 -81.8872
10.290533 92.851 -81.9543
10.365103 92.889 -81.9812
10.440212 92.932 -81.9727
10.515866 92.981 -81.9350
10.592069 93.036 -81.8752
10.668823 93.097 -81.7999
10.746134 93.166 -81.7164
10.824005 93.242 -81.6325
10.902440 93.325 -81.5564
10.981443 93.414 -81.4959
11.061020 93.508 -81.4576
11.141172 93.608 -81.4468
11.221906 93.711 -81.4682
11.303225 93.816 -81.5257
11.385133 93.924 -81.6219
11.467634 94.032 -81.7578
11.550734 94.139 -81.9328
11.634435 94.244 -82.1454
11.718742 94.347 -82.3933
11.803661 94.446 -82.6733
11.889195 94.541 -82.9810
11.975349 94.631 -83.3113
12.062128 94.715 -83.6583
12.149535 94.794 -84.0163
12.237576 94.866 -84.3795
12.326254 94.933 -84.7416
12.415575 94.994 -85.0962
12.505544 95.049 -85.4374
12.596164 95.100 -85.7599
12.687441 95.146 -86.0591
12.779379 95.189 -86.3307
12.871984 95.230 -86.5712
12.965260 95.268 -86.7788
13.059211 95.307 -86.9525
13.153843 95.345 -87.0929
13.249161 95.386 -87.2014
13.345170 95.429 -87.2810
13.441875 95.475 -87.3363
13.539280 95.525 -87.3729
13.637391 95.581 -87.3970
13.736214 95.641 -87.4156
13.835752 95.706 -87.4362
13.936011 95.776 -87.4663
14.036998 95.851 -87.5125
14.138716 95.929 -87.5807
14.241171 96.009 -87.6758
14.344368 96.092 -87.8014
14.448313 96.175 -87.9591
14.553011 96.258 -88.1489
14.658468 96.339 -88.3691
14.764689 96.418 -88.6164
14.871680 96.493 -88.8863
14.979446 96.565 -89.1726
15.087994 96.632 -89.4688
15.197328 96.695 -89.7679
15.307454 96.755 -90.0629
15.418378 96.810 -90.3473
15.530106 96.864 -90.6158
15.642643 96.916 -90.8646
15.755996 96.968 -91.0917
15.870171 97.021 -91.2973
15.985172 97.076 -91.4841
16.101007 97.135 -91.6572
16.217682 97.199 -91.8235
16.335201 97.268 -91.9915
16.453573 97.342 -92.1710
16.572803 97.421 -92.3715
16.692898 97.505 -92.6019
16.813862 97.591 -92.8694
16.935701 97.678 -93.1792
17.058424 97.765 -93.5333
17.182035 97.850 -93.9310
17.306543 97.931 -94.3684
17.431953 98.006 -94.8388
17.558273 98.075 -95.3330
17.685509 98.137 -95.8401
17.813665 98.192 -96.3485
17.942751 98.240 -96.8463
18.072771 98.281 -97.3225
18.203733 98.318 -97.7681
18.335646 98.351 -98.1762
18.468513 98.384 -98.5436
18.602345 98.417 -98.8705
18.737144 98.452 -99.1609
18.872921 98.492 -99.4218
19.009682 98.537 -99.6633
19.147434 98.587 -99.8967
19.286184 98.643 -100.1337
19.425940 98.703 -100.3850
19.566708 98.766 -100.6591
19.708496 98.832 -100.9613
19.851313 98.896 -101.2936
19.995163 98.959 -101.6540
20.140057 99.018 -102.0373
20.285999 99.073 -102.4357
20.433001 99.122 -102.8395
20.581066 99.165 -103.2381
20.730206 99.204 -103.6214
20.880424 99.238 -103.9808
21.031733 99.269 -104.3093
21.184137 99.299 -104.6033
21.337646 99.329 -104.8618
21.492268 99.360 -105.0872
21.648010 99.394 -105.2847
21.804880 99.432 -105.4612
21.962887 99.474 -105.6252
22.122040 99.520 -105.7854
22.282345 99.569 -105.9495
22.443811 99.621 -106.1238
22.606449 99.674 -106.3121
22.770266 99.729 -106.5157
22.935268 99.782 -106.7331
23.101467 99.834 -106.9604
23.268869 99.884 -107.1917
23.437485 99.932 -107.4200
23.607323 99.978 -107.6384
23.778391 100.023 -107.8409
23.950699 100.068 -108.0236
24.124256 100.114 -108.1860
24.299070 100.164 -108.3314
24.475151 100.218 -108.4668
24.652508 100.277 -108.6027
24.831150 100.342 -108.7514
25.011087 100.410 -108.9255
25.192327 100.482 -109.1353
25.374882 100.554 -109.3866
25.558758 100.623 -109.6792
25.743967 100.687 -110.0061
25.930519 100.745 -110.3530
26.118422 100.793 -110.7005
26.307686 100.833 -111.0257
26.498322 100.867 -111.3060
26.690340 100.896 -111.5226
26.883749 100.925 -111.6643
27.078560 100.960 -111.7312
27.274782 101.004 -111.7357
27.472427 101.063 -111.7028
27.671503 101.136 -111.6667
27.872023 101.225 -111.6657
28.073996 101.326 -111.7353
28.277431 101.434 -111.9025
28.482342 101.543 -112.1811
28.688736 101.647 -112.5693
28.896626 101.740 -113.0506
29.106022 101.817 -113.5965
29.316936 101.876 -114.1703
29.529379 101.916 -114.7327
29.743361 101.941 -115.2466
29.958893 101.954 -115.6826
30.175987 101.961 -116.0234
30.394655 101.968 -116.2663
30.614908 101.980 -116.4242
30.836756 102.001 -116.5229
31.060211 102.034 -116.5956
31.285286 102.077 -116.6760
31.511992 102.129 -116.7912
31.740341 102.185 -116.9562
31.970345 102.241 -117.1727
32.202015 102.293 -117.4305
32.435364 102.342 -117.7124
32.670403 102.386 -118.0007
32.907146 102.427 -118.2833
33.145607 102.470 -118.5582
33.385796 102.516 -118.8339
33.627724 102.565 -119.1268
33.871403 102.618 -119.4546
34.116848 102.670 -119.8295
34.364071 102.719 -120.2520
34.613087 102.762 -120.7093
34.863907 102.794 -121.1773
35.116547 102.818 -121.6268
35.371017 102.835 -122.0316
35.627331 102.850 -122.3764
35.885502 102.868 -122.6604
36.145542 102.891 -122.8971
36.407467 102.923 -123.1090
36.671291 102.962 -123.3181
36.937027 103.006 -123.5389
37.204689 103.052 -123.7737
37.474289 103.097 -124.0141
37.745842 103.142 -124.2467
38.019363 103.188 -124.4607
38.294868 103.235 -124.6540
38.572369 103.288 -124.8340
38.851879 103.345 -125.0157
39.133415 103.406 -125.2148
39.416992 103.469 -125.4421
39.702625 103.530 -125.6991
39.990326 103.588 -125.9787
40.280113 103.641 -126.2692
40.571999 103.690 -126.5590
40.866001 103.736 -126.8408
41.162132 103.780 -127.1124
41.460411 103.822 -127.3762
41.760849 103.864 -127.6361
42.063465 103.905 -127.8963
42.368275 103.947 -128.1603
42.675293 103.988 -128.4321
42.984535 104.029 -128.7161
43.296021 104.070 -129.0167
43.609760 104.109 -129.3354
43.925774 104.145 -129.6691
44.244080 104.178 -130.0088
44.564690 104.208 -130.3415
44.887623 104.236 -130.6550
45.212898 104.265 -130.9428
45.540531 104.297 -131.2073
45.870537 104.334 -131.4603
46.202934 104.377 -131.7186
46.537739 104.424 -131.9978
46.874969 104.474 -132.3065
47.214645 104.523 -132.6431
47.556782 104.569 -132.9966
47.901398 104.611 -133.3512
48.248512 104.650 -133.6926
48.598141 104.687 -134.0129
48.950302 104.725 -134.3125
49.305016 104.764 -134.5988
49.662300 104.804 -134.8815
50.022175 104.844 -135.1685
50.384655 104.884 -135.4627
50.749763 104.922 -135.7628
51.117516 104.957 -136.0664
51.487934 104.991 -136.3719
51.861038 105.022 -136.6794
52.236843 105.052 -136.9894
52.615372 105.079 -137.3008
52.996643 105.105 -137.6108
53.380680 105.130 -137.9165
53.767498 105.154 -138.2171
54.157120 105.180 -138.5144
54.549564 105.208 -138.8127
54.944855 105.237 -139.1166
55.343006 105.270 -139.4299
55.744045 105.304 -139.7551
56.147991 105.341 -140.0931
56.554863 105.379 -140.4433
56.964684 105.419 -140.8044
57.377472 105.459 -141.1756
57.793251 105.501 -141.5584
58.212044 105.543 -141.9555
58.633873 105.582 -142.3661
59.058758 105.618 -142.7818
59.486721 105.649 -143.1855
59.917786 105.675 -143.5574
60.351974 105.699 -143.8854
60.789310 105.725 -144.1717
61.229816 105.754 -144.4322
61.673512 105.786 -144.6870
62.120422 105.820 -144.9507
62.570572 105.853 -145.2276
63.023983 105.885 -145.5148
63.480682 105.915 -145.8074
63.940689 105.943 -146.1034
64.404030 105.971 -146.4044
64.870728 105.997 -146.7137
65.340805 106.023 -147.0332
65.814293 106.047 -147.3624
66.291214 106.071 -147.6994
66.771591 106.094 -148.0431
67.255447 106.117 -148.3943
67.742805 106.139 -148.7536
68.233696 106.161 -149.1184
68.728142 106.181 -149.4819
69.226173 106.200 -149.8367
69.727814 106.221 -150.1790
70.233093 106.242 -150.5112
70.742035 106.266 -150.8395
71.254662 106.292 -151.1700
71.771004 106.318 -151.5063
72.291084 106.345 -151.8498
72.814934 106.372 -152.2003
73.342583 106.397 -152.5564
73.874054 106.421 -152.9149
74.409378 106.444 -153.2711
74.948578 106.465 -153.6209
75.491684 106.486 -153.9636
76.038727 106.508 -154.3021
76.589737 106.530 -154.6412
77.144737 106.553 -154.9848
77.703758 106.576 -155.3342
78.266830 106.599 -155.6888
78.833984 106.622 -156.0482
79.405251 106.645 -156.4124
79.980652 106.668 -156.7829
80.560226 106.690 -157.1620
81.143997 106.712 -157.5513
81.732002 106.732 -157.9508
82.324265 106.750 -158.3582
82.920822 106.765 -158.7691
83.521698 106.778 -159.1782
84.126930 106.788 -159.5803
