* Measurement data measured by REW V5.20.7
* Source: 마이크(Realtek High Definition Audi, MICROPHONE (마스), L, volume: 0.050
* Format: 128k Log Swept Sine, 1 sweep at -12.0 dBFS with no timing reference
* Dated: May 27, 2023 1:33:48 PM
* REW Settings:
*  C-weighting compensation: Off
*  Target level: 75.0 dB
* Note: ; 
* Measurement: KZ PR2 L
* Smoothing: 1/24 octave
* Frequency Step: 1/48 octave
* Start Frequency: 20.300 Hz
*
* Freq(Hz)	SPL(dB)	Phase(degrees)
20.299999	75.224	-172.6035
20.600000	75.185	-172.9945
20.900000	75.099	-173.6233
21.200001	75.007	-174.0334
21.400000	74.950	-174.1927
21.799999	74.852	-174.3623
22.000000	74.815	-174.4324
22.400000	74.760	-174.6301
22.700001	74.731	-174.8656
23.000000	74.705	-175.1850
23.299999	74.681	-175.5673
23.600000	74.659	-175.9957
24.000000	74.636	-176.6288
24.299999	74.624	-177.1613
24.700001	74.611	-177.9688
25.000000	74.595	-178.6396
25.400000	74.557	-179.5583
25.799999	74.498	179.6231
26.200001	74.432	179.0147
26.500000	74.392	178.6937
26.900000	74.363	178.3506
27.200001	74.356	178.0584
27.600000	74.353	177.5353
28.000000	74.330	176.8951
28.500000	74.258	176.1786
29.000000	74.166	175.8106
29.500000	74.104	175.7186
30.000000	74.088	175.5628
30.400000	74.083	175.2439
30.700001	74.071	174.9118
31.100000	74.036	174.4495
31.500000	73.989	174.0480
32.000000	73.935	173.6320
32.500000	73.897	173.1768
33.000000	73.862	172.5874
33.500000	73.813	171.9347
34.000000	73.755	171.3522
34.500000	73.706	170.8686
35.000000	73.673	170.3975
35.500000	73.648	169.8530
36.000000	73.613	169.2538
36.500000	73.562	168.6919
37.000000	73.503	168.2472
37.500000	73.447	167.9258
38.200001	73.382	167.5859
38.700001	73.345	167.3475
39.500000	73.286	166.9091
40.000000	73.246	166.6116
40.599998	73.194	166.2515
41.200001	73.139	165.8865
41.799999	73.082	165.5098
42.500000	73.012	165.0752
43.099998	72.954	164.7277
43.700001	72.900	164.3896
44.400002	72.841	163.9836
45.000000	72.791	163.6331
45.500000	72.748	163.3516
46.200001	72.689	162.9829
46.799999	72.639	162.6937
47.500000	72.584	162.3695
48.200001	72.532	162.0206
48.700001	72.491	161.7518
49.400002	72.424	161.3863
50.000000	72.362	161.1259
50.799999	72.286	160.8629
51.500000	72.237	160.6090
52.200001	72.190	160.2273
53.000000	72.112	159.7553
53.799999	72.024	159.4848
54.500000	71.969	159.3433
55.200001	71.929	159.1262
56.000000	71.876	158.8116
57.000000	71.799	158.4699
58.000000	71.721	158.2032
59.000000	71.650	157.9782
60.000000	71.582	157.6939
60.799999	71.522	157.4532
61.500000	71.466	157.2617
62.200001	71.411	157.0866
63.000000	71.350	156.9011
64.000000	71.277	156.6635
65.000000	71.203	156.4282
66.000000	71.130	156.2177
67.000000	71.058	156.0166
68.000000	70.987	155.8343
69.000000	70.916	155.6478
70.000000	70.839	155.4847
71.000000	70.764	155.3972
72.000000	70.703	155.3158
73.000000	70.649	155.1441
74.000000	70.585	154.9225
75.000000	70.513	154.7352
76.199997	70.427	154.5920
77.500000	70.351	154.4925
78.800003	70.277	154.2842
80.000000	70.196	154.1433
81.199997	70.115	154.0156
82.500000	70.016	153.9373
83.800003	69.930	153.8793
85.000000	69.847	153.7346
86.199997	69.759	153.6672
87.500000	69.689	153.6378
88.500000	69.645	153.5452
90.000000	69.572	153.4167
91.199997	69.516	153.3598
92.500000	69.451	153.3130
93.800003	69.378	153.2651
95.000000	69.298	153.3003
96.199997	69.231	153.4216
97.500000	69.175	153.4799
98.800003	69.122	153.4909
100.000000	69.078	153.4084
101.500000	68.988	153.1848
103.000000	68.862	153.1807
104.400002	68.756	153.2581
106.000000	68.639	153.3052
107.500000	68.553	153.3604
109.000000	68.490	153.3694
110.599998	68.425	153.5335
112.000000	68.380	154.0091
113.800003	68.365	154.6563
115.000000	68.329	154.8057
117.199997	68.179	154.8218
118.000000	68.117	154.7698
120.599998	67.960	154.5026
122.000000	67.918	154.6181
124.099998	67.941	155.0715
125.000000	67.950	155.2053
126.500000	67.933	155.3922
128.000000	67.882	155.4757
131.500000	67.743	156.0099
132.000000	67.740	156.1035
134.000000	67.739	156.4062
136.000000	67.703	156.4433
138.000000	67.599	156.4535
140.000000	67.515	156.5386
143.000000	67.474	156.5574
145.000000	67.445	156.5593
147.500000	67.380	156.6917
150.000000	67.307	156.7533
152.500000	67.240	156.8324
155.000000	67.176	156.9270
157.500000	67.111	157.0025
160.000000	67.047	157.1159
162.500000	66.984	157.3392
165.000000	66.899	157.5976
167.500000	66.810	157.8204
170.000000	66.740	157.9515
172.500000	66.683	158.0793
175.000000	66.627	158.2820
177.500000	66.575	158.4620
180.000000	66.524	158.5966
182.500000	66.467	158.8022
185.000000	66.410	159.0974
187.500000	66.357	159.3394
190.000000	66.302	159.4996
192.500000	66.248	159.6792
195.000000	66.196	159.8962
197.500000	66.148	160.1340
200.000000	66.103	160.3766
203.000000	66.046	160.6498
206.000000	65.983	160.8614
209.000000	65.924	161.0692
212.000000	65.876	161.3763
214.000000	65.848	161.5972
218.000000	65.781	161.9761
220.000000	65.743	162.1764
224.000000	65.671	162.6606
227.000000	65.628	163.0135
230.000000	65.588	163.2969
233.000000	65.544	163.5883
236.000000	65.497	163.9174
240.000000	65.443	164.3428
243.000000	65.415	164.5930
247.000000	65.374	164.8767
250.000000	65.340	165.0658
254.000000	65.289	165.3465
258.000000	65.239	165.7592
262.000000	65.195	166.1344
265.000000	65.160	166.3636
269.000000	65.116	166.7034
272.000000	65.085	166.9804
276.000000	65.046	167.3576
280.000000	65.005	167.7505
285.000000	64.954	168.2102
290.000000	64.901	168.6199
295.000000	64.851	169.0086
300.000000	64.818	169.3946
304.000000	64.786	169.7326
307.000000	64.759	170.0219
311.000000	64.724	170.4296
315.000000	64.693	170.8113
320.000000	64.659	171.2562
325.000000	64.627	171.6706
330.000000	64.587	172.0836
335.000000	64.547	172.5226
340.000000	64.515	172.9753
345.000000	64.491	173.4078
350.000000	64.464	173.8563
355.000000	64.437	174.2925
360.000000	64.406	174.7016
365.000000	64.376	175.1252
370.000000	64.350	175.5432
375.000000	64.326	175.9786
382.000000	64.306	176.5692
387.000000	64.284	176.9622
395.000000	64.239	177.5916
400.000000	64.215	177.9921
406.000000	64.194	178.4554
412.000000	64.174	178.8760
418.000000	64.155	179.3177
425.000000	64.130	179.9029
431.000000	64.113	-179.5462
437.000000	64.102	-179.0398
444.000000	64.083	-178.5188
450.000000	64.065	-178.1139
455.000000	64.053	-177.7710
462.000000	64.043	-177.2309
468.000000	64.033	-176.7625
475.000000	64.009	-176.2360
482.000000	63.987	-175.6931
487.000000	63.976	-175.3282
494.000000	63.966	-174.8330
500.000000	63.961	-174.3587
508.000000	63.954	-173.7488
515.000000	63.946	-173.2599
522.000000	63.937	-172.7051
530.000000	63.928	-172.0913
538.000000	63.923	-171.5171
545.000000	63.920	-170.9912
552.000000	63.911	-170.4793
560.000000	63.906	-169.8621
570.000000	63.913	-169.1259
580.000000	63.912	-168.4674
590.000000	63.907	-167.7703
600.000000	63.899	-167.0243
608.000000	63.892	-166.4216
615.000000	63.892	-165.8837
622.000000	63.896	-165.3660
630.000000	63.895	-164.7844
640.000000	63.895	-164.0541
650.000000	63.903	-163.3622
660.000000	63.908	-162.6534
670.000000	63.920	-161.8645
680.000000	63.933	-161.0936
690.000000	63.949	-160.3809
700.000000	63.969	-159.6936
710.000000	63.988	-159.0345
720.000000	64.005	-158.3482
730.000000	64.031	-157.5933
740.000000	64.062	-156.8647
750.000000	64.094	-156.1571
762.000000	64.123	-155.2550
775.000000	64.157	-154.3098
788.000000	64.195	-153.4511
800.000000	64.230	-152.5932
812.000000	64.270	-151.7256
825.000000	64.322	-150.8108
838.000000	64.382	-149.8526
850.000000	64.435	-149.0152
862.000000	64.485	-148.2314
875.000000	64.546	-147.3883
885.000000	64.599	-146.6775
900.000000	64.681	-145.6107
912.000000	64.750	-144.8674
925.000000	64.831	-144.1421
938.000000	64.921	-143.4049
950.000000	65.001	-142.6786
962.000000	65.082	-141.9748
975.000000	65.175	-141.2744
988.000000	65.270	-140.6074
1000.000000	65.363	-140.0036
1015.000000	65.480	-139.2923
1030.000000	65.590	-138.6371
1044.000000	65.696	-138.0359
1060.000000	65.820	-137.3629
1075.000000	65.926	-136.7570
1090.000000	66.028	-136.2047
1106.000000	66.138	-135.6951
1120.000000	66.229	-135.2964
1138.000000	66.344	-134.8072
1150.000000	66.423	-134.4915
1172.000000	66.571	-133.9029
1180.000000	66.625	-133.7005
1206.000000	66.802	-133.1180
1220.000000	66.904	-132.8166
1241.000000	67.065	-132.3783
1250.000000	67.136	-132.1965
1265.000000	67.256	-131.9033
1280.000000	67.373	-131.6287
1315.000000	67.638	-131.0641
1320.000000	67.674	-130.9778
1340.000000	67.819	-130.6168
1360.000000	67.973	-130.2874
1380.000000	68.131	-129.9652
1400.000000	68.291	-129.6578
1430.000000	68.534	-129.2792
1450.000000	68.696	-129.0218
1475.000000	68.900	-128.7077
1500.000000	69.108	-128.4194
1525.000000	69.315	-128.1432
1550.000000	69.517	-127.8840
1575.000000	69.729	-127.7128
1600.000000	69.950	-127.6847
1625.000000	70.166	-127.8057
1650.000000	70.354	-128.0578
1675.000000	70.514	-128.3439
1700.000000	70.655	-128.5597
1725.000000	70.787	-128.6658
1750.000000	70.925	-128.6618
1775.000000	71.074	-128.5840
1800.000000	71.235	-128.4780
1825.000000	71.407	-128.3625
1850.000000	71.589	-128.2700
1875.000000	71.782	-128.2246
1900.000000	71.985	-128.1986
1925.000000	72.198	-128.1866
1950.000000	72.422	-128.2289
1975.000000	72.660	-128.3408
2000.000000	72.914	-128.5190
2030.000000	73.236	-128.8923
2060.000000	73.575	-129.5670
2090.000000	73.914	-130.5882
2120.000000	74.229	-131.9435
2140.000000	74.417	-132.9884
2180.000000	74.738	-135.2223
2200.000000	74.878	-136.3440
2240.000000	75.138	-138.5527
2270.000000	75.329	-140.2614
2300.000000	75.517	-142.1008
2330.000000	75.695	-144.1208
2360.000000	75.851	-146.3650
2400.000000	76.004	-149.7296
2430.000000	76.053	-152.4982
2470.000000	75.996	-156.2787
2500.000000	75.851	-158.8388
2540.000000	75.570	-161.3828
2580.000000	75.306	-162.8820
2620.000000	75.150	-163.9854
2650.000000	75.085	-165.0192
2690.000000	74.984	-166.8817
2720.000000	74.851	-168.4731
2760.000000	74.568	-170.3462
2800.000000	74.212	-171.4155
2850.000000	73.795	-171.5202
2900.000000	73.505	-170.9420
2950.000000	73.333	-170.3848
3000.000000	73.225	-170.1507
3040.000000	73.146	-170.1919
3070.000000	73.081	-170.2841
3110.000000	72.983	-170.3737
3150.000000	72.879	-170.3635
3200.000000	72.759	-170.2181
3250.000000	72.659	-169.9633
3300.000000	72.579	-169.6436
3350.000000	72.523	-169.2598
3400.000000	72.503	-168.8467
3450.000000	72.527	-168.5414
3500.000000	72.580	-168.5339
3550.000000	72.631	-168.8924
3600.000000	72.658	-169.4876
3650.000000	72.666	-170.2144
3700.000000	72.655	-171.0959
3750.000000	72.610	-172.2121
3820.000000	72.431	-174.0731
3870.000000	72.188	-175.1767
3950.000000	71.679	-175.4343
4000.000000	71.396	-174.6701
4060.000000	71.141	-173.3179
4120.000000	70.961	-171.6626
4180.000000	70.873	-169.7846
4250.000000	70.899	-167.6559
4310.000000	71.017	-166.1769
4370.000000	71.191	-165.2223
4440.000000	71.400	-164.9263
4500.000000	71.527	-165.2448
4550.000000	71.568	-165.6076
4620.000000	71.564	-165.6502
4680.000000	71.601	-165.1588
4750.000000	71.758	-164.5421
4820.000000	72.008	-164.5259
4870.000000	72.199	-165.1077
4940.000000	72.413	-166.7245
5000.000000	72.507	-168.5912
5080.000000	72.496	-171.2012
5150.000000	72.395	-173.2464
5220.000000	72.255	-174.9907
5300.000000	72.093	-176.7492
5380.000000	71.935	-178.5764
5450.000000	71.775	179.6261
5520.000000	71.580	177.5617
5600.000000	71.268	174.7526
5700.000000	70.619	171.2643
5800.000000	69.709	169.4568
5900.000000	68.794	169.8831
6000.000000	68.041	171.0141
6080.000000	67.487	171.9617
6150.000000	67.001	172.9467
6220.000000	66.513	174.1132
6300.000000	65.951	175.7154
6400.000000	65.243	178.2314
6500.000000	64.562	-178.5297
6600.000000	63.947	-174.7599
6700.000000	63.365	-171.0168
6800.000000	62.673	-166.7604
6900.000000	61.953	-160.3209
7000.000000	61.526	-152.1059
7100.000000	61.438	-143.9734
7200.000000	61.534	-136.4950
7300.000000	61.742	-129.2906
7400.000000	62.059	-122.2902
7500.000000	62.478	-115.5789
7620.000000	63.102	-107.5070
7750.000000	64.051	-98.5042
7880.000000	65.422	-90.2373
8000.000000	66.999	-84.6392
8120.000000	68.665	-81.7850
8250.000000	70.395	-81.1344
8380.000000	72.270	-81.7086
8500.000000	74.087	-85.3929
8620.000000	75.561	-93.3064
8750.000000	76.526	-104.6216
8850.000000	76.848	-113.4633
9000.000000	76.845	-125.2209
9120.000000	76.524	-132.9552
9250.000000	75.932	-138.7054
9380.000000	75.380	-141.3835
9500.000000	75.132	-142.4514
9620.000000	75.168	-143.4708
9750.000000	75.423	-145.8299
9880.000000	75.670	-149.9770
10000.000000	75.750	-154.8089
10150.000000	75.599	-161.1677
10300.000000	75.167	-166.6253
10440.000000	74.687	-169.6612
10600.000000	74.431	-172.1485
10750.000000	74.347	-176.1175
10900.000000	74.077	178.7242
11060.000000	73.530	173.6563
11200.000000	72.928	170.2407
11380.000000	72.117	167.1671
11500.000000	71.582	165.8428
11720.000000	70.725	165.0820
11800.000000	70.510	165.0899
12060.000000	70.116	163.9673
12200.000000	69.963	162.5244
12410.000000	69.748	160.1152
12500.000000	69.687	159.0337
12650.000000	69.635	156.9014
12800.000000	69.620	154.1549
13150.000000	69.496	144.8170
13200.000000	69.441	143.1697
13400.000000	69.077	136.2503
13600.000000	68.507	129.4471
13800.000000	67.812	123.3394
14000.000000	67.039	118.3098
14300.000000	65.895	112.6805
14500.000000	65.270	109.6009
14750.000000	64.730	104.9951
15000.000000	64.293	97.6647
15250.000000	63.598	87.3973
15500.000000	62.483	75.1660
15750.000000	60.875	60.7677
16000.000000	58.563	42.3634
16250.000000	55.092	13.9509
16500.000000	49.964	-41.8849
16750.000000	46.223	-122.7046
17000.000000	48.662	-173.8336
17250.000000	51.313	167.7670
17500.000000	53.100	158.7714
17750.000000	54.383	150.5505
18000.000000	55.305	141.0623
18250.000000	55.844	130.4404
18500.000000	55.995	119.5510
18750.000000	55.882	109.0880
19000.000000	55.739	99.5406
19250.000000	55.751	90.2956
19500.000000	55.896	80.0114
19750.000000	55.909	68.3823
20000.000000	55.718	59.9063
