* Measurement data measured by REW V5.30.5
* Source: EXCL: Microphone (Realtek(R) Audio), MICROPHONE (Master Volume), L, volume: 1.000
* Format: 256k Log Swept Sine, 1 sweep at -21.0 dBFS with no timing reference
* Dated: Jan 31, 2024 12:53:26 AM
* REW Settings:
*  C-weighting compensation: Off
*  Target level: 75.0 dB
* Note: EA500LM
* Measurement: L Jan 31
* Smoothing: 1/24 octave
* Frequency Step: 96 ppo
* Start Frequency: 0.36621094 Hz
*
* Freq(Hz) SPL(dB) Phase(degrees)
0.366211 74.838 167.4874
0.368865 74.833 167.4619
0.371538 74.826 167.4247
0.374230 74.818 167.3819
0.376942 74.810 167.3361
0.379673 74.802 167.2885
0.382424 74.794 167.2393
0.385196 74.785 167.1887
0.387987 74.777 167.1365
0.390798 74.768 167.0828
0.393630 74.760 167.0276
0.396483 74.751 166.9709
0.399356 74.742 166.9126
0.402250 74.733 166.8527
0.405165 74.725 166.7913
0.408101 74.716 166.7282
0.411058 74.707 166.6634
0.414037 74.698 166.5971
0.417037 74.689 166.5290
0.420059 74.679 166.4592
0.423103 74.670 166.3878
0.426169 74.661 166.3146
0.429257 74.652 166.2396
0.432367 74.642 166.1629
0.435501 74.633 166.0843
0.438656 74.623 166.0040
0.441835 74.613 165.9218
0.445037 74.604 165.8377
0.448262 74.594 165.7518
0.451510 74.584 165.6639
0.454782 74.574 165.5742
0.458077 74.564 165.4825
0.461397 74.554 165.3888
0.464740 74.544 165.2932
0.468108 74.534 165.1956
0.471500 74.523 165.0959
0.474917 74.513 164.9942
0.478358 74.503 164.8904
0.481825 74.492 164.7845
0.485316 74.482 164.6766
0.488833 74.471 164.5665
0.492375 74.460 164.4543
0.495943 74.449 164.3399
0.499537 74.439 164.2233
0.503157 74.428 164.1045
0.506803 74.416 163.9835
0.510475 74.405 163.8602
0.514174 74.394 163.7347
0.517900 74.383 163.6069
0.521653 74.371 163.4767
0.525433 74.360 163.3443
0.529241 74.348 163.2095
0.533076 74.337 163.0723
0.536939 74.325 162.9328
0.540830 74.313 162.7908
0.544749 74.301 162.6465
0.548696 74.289 162.4997
0.552673 74.277 162.3504
0.556677 74.265 162.1987
0.560711 74.253 162.0444
0.564774 74.241 161.8877
0.568867 74.228 161.7284
0.572989 74.216 161.5666
0.577141 74.203 161.4022
0.581324 74.191 161.2353
0.585536 74.178 161.0657
0.589779 74.165 160.8936
0.594053 74.152 160.7188
0.598358 74.139 160.5413
0.602694 74.126 160.3613
0.607061 74.113 160.1785
0.611460 74.099 159.9931
0.615891 74.086 159.8049
0.620354 74.072 159.6141
0.624849 74.059 159.4205
0.629377 74.045 159.2242
0.633938 74.031 159.0251
0.638532 74.017 158.8233
0.643159 74.003 158.6187
0.647819 73.989 158.4113
0.652514 73.975 158.2012
0.657242 73.960 157.9882
0.662005 73.946 157.7724
0.666802 73.931 157.5539
0.671634 73.917 157.3324
0.676501 73.902 157.1082
0.681403 73.887 156.8811
0.686341 73.872 156.6512
0.691314 73.857 156.4184
0.696324 73.842 156.1828
0.701369 73.827 155.9442
0.706452 73.811 155.7029
0.711571 73.796 155.4586
0.716727 73.780 155.2115
0.721921 73.764 154.9613
0.727153 73.747 154.7081
0.732422 73.730 154.4512
0.737729 73.710 154.1898
0.743075 73.689 153.9231
0.748460 73.667 153.6505
0.753883 73.643 153.3718
0.759346 73.620 153.0868
0.764849 73.595 152.7954
0.770391 73.570 152.4976
0.775974 73.544 152.1931
0.781597 73.518 151.8820
0.787261 73.491 151.5641
0.792965 73.463 151.2393
0.798712 73.435 150.9076
0.804499 73.406 150.5688
0.810329 73.377 150.2229
0.816201 73.347 149.8698
0.822116 73.316 149.5093
0.828073 73.285 149.1414
0.834073 73.254 148.7660
0.840118 73.222 148.3829
0.846205 73.189 147.9921
0.852337 73.156 147.5934
0.858514 73.123 147.1868
0.864735 73.089 146.7722
0.871001 73.055 146.3494
0.877313 73.020 145.9184
0.883670 72.986 145.4789
0.890074 72.950 145.0311
0.896523 72.915 144.5746
0.903020 72.879 144.1095
0.909564 72.843 143.6355
0.916155 72.807 143.1527
0.922793 72.771 142.6608
0.929480 72.734 142.1598
0.936216 72.698 141.6495
0.943000 72.661 141.1298
0.949833 72.625 140.6006
0.956716 72.588 140.0617
0.963649 72.552 139.5132
0.970632 72.515 138.9547
0.977666 72.479 138.3862
0.984750 72.443 137.8076
0.991886 72.408 137.2187
0.999074 72.372 136.6193
1.006313 72.338 136.0094
1.013605 72.303 135.3887
1.020950 72.269 134.7571
1.028349 72.236 134.1145
1.035801 72.203 133.4607
1.043306 72.171 132.7955
1.050867 72.139 132.1187
1.058482 72.109 131.4302
1.066152 72.079 130.7297
1.073878 72.051 130.0170
1.081659 72.023 129.2918
1.089498 71.997 128.5538
1.097393 71.971 127.8020
1.105345 71.945 127.0353
1.113355 71.920 126.2521
1.121422 71.893 125.4516
1.129549 71.867 124.6333
1.137734 71.840 123.7965
1.145978 71.812 122.9411
1.154283 71.784 122.0668
1.162647 71.755 121.1732
1.171072 71.727 120.2602
1.179558 71.698 119.3275
1.188106 71.669 118.3747
1.196715 71.641 117.4018
1.205387 71.612 116.4086
1.214122 71.584 115.3948
1.222920 71.557 114.3604
1.231781 71.530 113.3052
1.240708 71.503 112.2291
1.249698 71.478 111.1321
1.258754 71.453 110.0143
1.267875 71.430 108.8755
1.277063 71.408 107.7159
1.286317 71.387 106.5355
1.295638 71.368 105.3346
1.305027 71.351 104.1134
1.314484 71.336 102.8720
1.324009 71.323 101.6109
1.333603 71.312 100.3304
1.343267 71.304 99.0308
1.353001 71.299 97.7126
1.362805 71.297 96.3765
1.372681 71.298 95.0229
1.382628 71.302 93.6525
1.392647 71.310 92.2659
1.402739 71.322 90.8640
1.412904 71.338 89.4475
1.423142 71.358 88.0173
1.433455 71.384 86.5741
1.443842 71.414 85.1190
1.454305 71.450 83.6529
1.464843 71.491 82.1766
1.475458 71.538 80.6913
1.486150 71.591 79.1984
1.496919 71.650 77.6997
1.507766 71.715 76.1971
1.518692 71.786 74.6924
1.529697 71.863 73.1877
1.540782 71.945 71.6846
1.551947 72.032 70.1848
1.563193 72.125 68.6899
1.574521 72.223 67.2014
1.585931 72.326 65.7206
1.597423 72.433 64.2486
1.608998 72.545 62.7866
1.620658 72.661 61.3354
1.632402 72.781 59.8959
1.644231 72.905 58.4687
1.656146 73.032 57.0542
1.668147 73.163 55.6529
1.680235 73.296 54.2650
1.692410 73.433 52.8906
1.704674 73.571 51.5298
1.717027 73.712 50.1824
1.729469 73.854 48.8483
1.742002 73.997 47.5271
1.754625 74.142 46.2185
1.767340 74.287 44.9221
1.780147 74.432 43.6374
1.793046 74.576 42.3638
1.806040 74.721 41.1008
1.819127 74.865 39.8480
1.832309 75.009 38.6052
1.845587 75.154 37.3734
1.858961 75.303 36.1535
1.872431 75.454 34.9466
1.886000 75.610 33.7538
1.899666 75.768 32.5757
1.913432 75.930 31.4128
1.927298 76.095 30.2656
1.941264 76.263 29.1341
1.955331 76.434 28.0186
1.969500 76.607 26.9190
1.983772 76.782 25.8353
1.998147 76.958 24.7671
2.012626 77.137 23.7143
2.027211 77.316 22.6763
2.041901 77.497 21.6528
2.056697 77.678 20.6432
2.071601 77.859 19.6468
2.086613 78.040 18.6632
2.101733 78.221 17.6914
2.116963 78.401 16.7309
2.132303 78.580 15.7808
2.147755 78.757 14.8403
2.163318 78.933 13.9085
2.178995 79.105 12.9844
2.194785 79.276 12.0672
2.210689 79.445 11.1560
2.226709 79.613 10.2503
2.242844 79.781 9.3504
2.259097 79.947 8.4566
2.275467 80.113 7.5694
2.291956 80.279 6.6890
2.308565 80.444 5.8158
2.325294 80.609 4.9500
2.342144 80.773 4.0916
2.359116 80.936 3.2408
2.376211 81.098 2.3974
2.393430 81.260 1.5615
2.410774 81.422 0.7327
2.428243 81.582 -0.0891
2.445839 81.741 -0.9041
2.463562 81.900 -1.7128
2.481415 82.058 -2.5155
2.499396 82.215 -3.3127
2.517508 82.371 -4.1050
2.535750 82.526 -4.8931
2.554126 82.680 -5.6781
2.572634 82.832 -6.4615
2.591276 82.984 -7.2451
2.610054 83.134 -8.0295
2.628967 83.282 -8.8144
2.648018 83.429 -9.5994
2.667206 83.575 -10.3836
2.686534 83.719 -11.1663
2.706002 83.862 -11.9469
2.725610 84.003 -12.7248
2.745361 84.144 -13.4995
2.765255 84.283 -14.2705
2.785294 84.420 -15.0374
2.805477 84.557 -15.8000
2.825807 84.693 -16.5580
2.846284 84.827 -17.3113
2.866909 84.961 -18.0597
2.887684 85.093 -18.8036
2.908609 85.225 -19.5435
2.929686 85.355 -20.2811
2.950916 85.484 -21.0194
2.972299 85.612 -21.7605
2.993838 85.737 -22.5051
3.015532 85.861 -23.2528
3.037384 85.984 -24.0024
3.059394 86.105 -24.7530
3.081564 86.224 -25.5033
3.103894 86.341 -26.2523
3.126386 86.458 -26.9989
3.149041 86.573 -27.7421
3.171861 86.686 -28.4809
3.194845 86.798 -29.2145
3.217996 86.910 -29.9421
3.241315 87.020 -30.6630
3.264803 87.129 -31.3772
3.288461 87.237 -32.0857
3.312291 87.343 -32.7911
3.336293 87.448 -33.4970
3.360469 87.552 -34.2050
3.384820 87.653 -34.9151
3.409348 87.753 -35.6265
3.434054 87.851 -36.3380
3.458938 87.947 -37.0485
3.484003 88.042 -37.7568
3.509250 88.136 -38.4614
3.534679 88.228 -39.1613
3.560293 88.319 -39.8551
3.586092 88.409 -40.5417
3.612079 88.499 -41.2201
3.638253 88.587 -41.8901
3.664618 88.674 -42.5527
3.691173 88.760 -43.2109
3.717921 88.845 -43.8671
3.744862 88.928 -44.5225
3.771999 89.009 -45.1769
3.799332 89.089 -45.8295
3.826864 89.167 -46.4794
3.854595 89.244 -47.1255
3.882527 89.320 -47.7668
3.910661 89.396 -48.4020
3.938999 89.470 -49.0300
3.967543 89.544 -49.6496
3.996294 89.618 -50.2602
4.025252 89.691 -50.8616
4.054421 89.764 -51.4551
4.083801 89.835 -52.0426
4.113394 89.906 -52.6251
4.143201 89.975 -53.2030
4.173225 90.043 -53.7763
4.203466 90.111 -54.3450
4.233926 90.178 -54.9086
4.264606 90.244 -55.4668
4.295509 90.311 -56.0194
4.326636 90.377 -56.5657
4.357989 90.444 -57.1054
4.389569 90.510 -57.6380
4.421378 90.577 -58.1634
4.453417 90.644 -58.6819
4.485688 90.710 -59.1941
4.518193 90.776 -59.7006
4.550934 90.842 -60.2023
4.583912 90.908 -60.6997
4.617129 90.974 -61.1935
4.650587 91.040 -61.6843
4.684287 91.107 -62.1726
4.718231 91.175 -62.6588
4.752421 91.243 -63.1425
4.786859 91.311 -63.6232
4.821547 91.380 -64.0999
4.856485 91.450 -64.5727
4.891677 91.520 -65.0422
4.927125 91.590 -65.5095
4.962829 91.661 -65.9758
4.998791 91.732 -66.4423
5.035015 91.804 -66.9100
5.071500 91.876 -67.3800
5.108251 91.949 -67.8527
5.145267 92.022 -68.3278
5.182552 92.096 -68.8043
5.220107 92.171 -69.2816
5.257934 92.246 -69.7599
5.296035 92.322 -70.2399
5.334412 92.398 -70.7223
5.373067 92.474 -71.2081
5.412003 92.551 -71.6981
5.451221 92.628 -72.1932
5.490722 92.705 -72.6937
5.530510 92.782 -73.1995
5.570587 92.859 -73.7102
5.610953 92.937 -74.2253
5.651613 93.015 -74.7447
5.692567 93.093 -75.2684
5.733818 93.171 -75.7965
5.775367 93.249 -76.3291
5.817218 93.326 -76.8664
5.859372 93.403 -77.4088
5.901831 93.480 -77.9568
5.944598 93.557 -78.5105
5.987675 93.633 -79.0696
6.031065 93.709 -79.6335
6.074768 93.785 -80.2013
6.118788 93.860 -80.7726
6.163127 93.935 -81.3467
6.207788 94.009 -81.9236
6.252772 94.082 -82.5040
6.298082 94.155 -83.0887
6.343721 94.227 -83.6777
6.389690 94.299 -84.2703
6.435992 94.370 -84.8653
6.482630 94.440 -85.4618
6.529606 94.509 -86.0587
6.576922 94.578 -86.6558
6.624581 94.646 -87.2536
6.672585 94.713 -87.8532
6.720938 94.780 -88.4547
6.769640 94.845 -89.0572
6.818696 94.910 -89.6593
6.868107 94.974 -90.2596
6.917876 95.037 -90.8572
6.968006 95.099 -91.4520
7.018499 95.161 -92.0450
7.069358 95.221 -92.6369
7.120586 95.281 -93.2272
7.172184 95.340 -93.8144
7.224157 95.398 -94.3970
7.276506 95.455 -94.9738
7.329235 95.512 -95.5442
7.382345 95.568 -96.1089
7.435841 95.623 -96.6686
7.489724 95.677 -97.2230
7.543997 95.731 -97.7711
7.598664 95.785 -98.3118
7.653728 95.838 -98.8439
7.709189 95.891 -99.3669
7.765053 95.944 -99.8809
7.821322 95.996 -100.3866
7.877998 96.049 -100.8843
7.935086 96.101 -101.3742
7.992587 96.154 -101.8561
8.050504 96.208 -102.3297
8.108841 96.262 -102.7945
8.167601 96.316 -103.2505
8.226787 96.372 -103.6989
8.286402 96.428 -104.1416
8.346449 96.484 -104.5803
8.406931 96.542 -105.0162
8.467851 96.601 -105.4490
8.529212 96.661 -105.8783
8.591018 96.722 -106.3051
8.653272 96.784 -106.7318
8.715977 96.847 -107.1609
8.779137 96.910 -107.5946
8.842754 96.973 -108.0333
8.906833 97.038 -108.4764
8.971375 97.102 -108.9241
9.036386 97.167 -109.3768
9.101867 97.230 -109.8357
9.167823 97.293 -110.3020
9.234257 97.355 -110.7766
9.301172 97.415 -111.2584
9.368572 97.474 -111.7447
9.436460 97.531 -112.2327
9.504841 97.585 -112.7207
9.573717 97.637 -113.2092
9.643092 97.686 -113.6982
9.712970 97.732 -114.1848
9.783354 97.776 -114.6634
9.854248 97.816 -115.1287
9.925656 97.854 -115.5785
9.997581 97.889 -116.0133
10.070028 97.921 -116.4318
10.143000 97.951 -116.8302
10.216500 97.981 -117.2040
10.290533 98.009 -117.5499
10.365103 98.037 -117.8677
10.440212 98.065 -118.1596
10.515866 98.095 -118.4278
10.592069 98.126 -118.6739
10.668823 98.161 -118.8975
10.746134 98.199 -119.0993
10.824005 98.240 -119.2858
10.902440 98.285 -119.4669
10.981443 98.335 -119.6508
11.061020 98.390 -119.8400
11.141172 98.450 -120.0369
11.221906 98.514 -120.2499
11.303225 98.581 -120.4898
11.385133 98.650 -120.7644
11.467634 98.721 -121.0746
11.550734 98.793 -121.4205
11.634435 98.863 -121.8034
11.718742 98.931 -122.2262
11.803661 98.995 -122.6907
11.889195 99.055 -123.1927
11.975349 99.109 -123.7225
12.062128 99.156 -124.2709
12.149535 99.194 -124.8340
12.237576 99.223 -125.4084
12.326254 99.244 -125.9811
12.415575 99.257 -126.5349
12.505544 99.261 -127.0587
12.596164 99.257 -127.5493
12.687441 99.246 -127.9983
12.779379 99.232 -128.3929
12.871984 99.215 -128.7228
12.965260 99.197 -128.9863
13.059211 99.181 -129.1878
13.153843 99.169 -129.3320
13.249161 99.166 -129.4214
13.345170 99.172 -129.4626
13.441875 99.189 -129.4770
13.539280 99.218 -129.4892
13.637391 99.261 -129.5148
13.736214 99.317 -129.5672
13.835752 99.383 -129.6715
13.936011 99.459 -129.8527
14.036998 99.541 -130.1212
14.138716 99.628 -130.4814
14.241171 99.715 -130.9393
14.344368 99.797 -131.5004
14.448313 99.873 -132.1601
14.553011 99.938 -132.9018
14.658468 99.991 -133.7087
14.764689 100.027 -134.5717
14.871680 100.048 -135.4710
14.979446 100.050 -136.3746
15.087994 100.035 -137.2573
15.197328 100.001 -138.1048
15.307454 99.953 -138.8895
15.418378 99.891 -139.5808
15.530106 99.819 -140.1629
15.642643 99.741 -140.6252
15.755996 99.663 -140.9545
15.870171 99.589 -141.1434
15.985172 99.524 -141.2019
16.101007 99.474 -141.1512
16.217682 99.445 -141.0109
16.335201 99.439 -140.8084
16.453573 99.456 -140.5894
16.572803 99.498 -140.3936
16.692898 99.563 -140.2492
16.813862 99.646 -140.1927
16.935701 99.744 -140.2524
17.058424 99.852 -140.4382
17.182035 99.965 -140.7555
17.306543 100.077 -141.2059
17.431953 100.184 -141.7802
17.558273 100.282 -142.4603
17.685509 100.369 -143.2306
17.813665 100.443 -144.0739
17.942751 100.502 -144.9654
18.072771 100.546 -145.8867
18.203733 100.575 -146.8212
18.335646 100.589 -147.7479
18.468513 100.589 -148.6533
18.602345 100.576 -149.5238
18.737144 100.551 -150.3448
18.872921 100.514 -151.1065
19.009682 100.468 -151.7975
19.147434 100.413 -152.4061
19.286184 100.351 -152.9229
19.425940 100.284 -153.3365
19.566708 100.213 -153.6373
19.708496 100.142 -153.8178
19.851313 100.074 -153.8720
19.995163 100.013 -153.7994
20.140057 99.963 -153.6079
20.285999 99.929 -153.3098
20.433001 99.915 -152.9291
20.581066 99.923 -152.4993
20.730206 99.956 -152.0541
20.880424 100.013 -151.6376
21.031733 100.093 -151.2887
21.184137 100.191 -151.0407
21.337646 100.302 -150.9222
21.492268 100.420 -150.9459
21.648010 100.539 -151.1157
21.804880 100.654 -151.4263
21.962887 100.760 -151.8600
22.122040 100.852 -152.3956
22.282345 100.929 -153.0076
22.443811 100.990 -153.6670
22.606449 101.034 -154.3506
22.770266 101.064 -155.0333
22.935268 101.080 -155.6986
23.101467 101.086 -156.3335
23.268869 101.084 -156.9311
23.437485 101.077 -157.4913
23.607323 101.068 -158.0175
23.778391 101.057 -158.5173
23.950699 101.046 -158.9999
24.124256 101.035 -159.4739
24.299070 101.024 -159.9477
24.475151 101.012 -160.4264
24.652508 101.000 -160.9136
24.831150 100.986 -161.4108
25.011087 100.970 -161.9175
25.192327 100.951 -162.4327
25.374882 100.930 -162.9543
25.558758 100.907 -163.4799
25.743967 100.880 -164.0056
25.930519 100.851 -164.5263
26.118422 100.818 -165.0346
26.307686 100.781 -165.5213
26.498322 100.742 -165.9751
26.690340 100.702 -166.3854
26.883749 100.662 -166.7426
27.078560 100.627 -167.0428
27.274782 100.598 -167.2884
27.472427 100.580 -167.4906
27.671503 100.574 -167.6681
27.872023 100.582 -167.8461
28.073996 100.601 -168.0495
28.277431 100.631 -168.3005
28.482342 100.665 -168.6107
28.688736 100.700 -168.9799
28.896626 100.730 -169.3948
29.106022 100.753 -169.8311
29.316936 100.766 -170.2595
29.529379 100.772 -170.6507
29.743361 100.773 -170.9823
29.958893 100.773 -171.2438
30.175987 100.777 -171.4396
30.394655 100.787 -171.5869
30.614908 100.805 -171.7119
30.836756 100.830 -171.8420
31.060211 100.858 -171.9978
31.285286 100.885 -172.1892
31.511992 100.907 -172.4121
31.740341 100.920 -172.6525
31.970345 100.924 -172.8893
32.202015 100.918 -173.1035
32.435364 100.905 -173.2805
32.670403 100.887 -173.4160
32.907146 100.867 -173.5140
33.145607 100.846 -173.5860
33.385796 100.825 -173.6452
33.627724 100.804 -173.7031
33.871403 100.782 -173.7672
34.116848 100.758 -173.8406
34.364071 100.732 -173.9236
34.613087 100.706 -174.0163
34.863907 100.679 -174.1211
35.116547 100.654 -174.2438
35.371017 100.632 -174.3938
35.627331 100.612 -174.5821
35.885502 100.594 -174.8188
36.145542 100.578 -175.1112
36.407467 100.561 -175.4602
36.671291 100.543 -175.8592
36.937027 100.521 -176.2940
37.204689 100.496 -176.7445
37.474289 100.470 -177.1919
37.745842 100.445 -177.6247
38.019363 100.424 -178.0431
38.294868 100.411 -178.4599
38.572369 100.403 -178.8908
38.851879 100.398 -179.3416
39.133415 100.390 -179.7967
39.416992 100.376 179.7859
39.702625 100.357 179.4580
39.990326 100.340 179.2543
40.280113 100.339 179.1652
40.571999 100.362 179.1185
40.866001 100.409 179.0005
41.162132 100.464 178.7168
41.460411 100.503 178.2494
41.760849 100.501 177.6886
42.063465 100.445 177.2278
42.368275 100.347 177.0997
42.675293 100.242 177.4575
42.984535 100.183 178.2645
43.296021 100.212 179.2493
43.609760 100.335 179.9921
43.925774 100.512 -179.8677
44.244080 100.676 179.5570
44.564690 100.767 178.4303
44.887623 100.757 177.0840
45.212898 100.650 175.8801
45.540531 100.485 175.0888
45.870537 100.314 174.7899
46.202934 100.187 174.8377
46.537739 100.122 174.9462
46.874969 100.099 174.8689
47.214645 100.084 174.5402
47.556782 100.051 174.0753
47.901398 100.000 173.6533
48.248512 99.954 173.3805
48.598141 99.938 173.2152
48.950302 99.963 172.9978
49.305016 100.014 172.5682
49.662300 100.058 171.8822
50.022175 100.066 171.0464
50.384655 100.026 170.2624
50.749763 99.951 169.7268
51.117516 99.868 169.5356
51.487934 99.806 169.6404
51.861038 99.780 169.8829
52.236843 99.783 170.0910
52.615372 99.798 170.1679
52.996643 99.806 170.1159
53.380680 99.796 169.9945
53.767498 99.772 169.8621
54.157120 99.736 169.7419
54.549564 99.694 169.6283
54.944855 99.648 169.5117
55.343006 99.598 169.3935
55.744045 99.551 169.2756
56.147991 99.512 169.1401
56.554863 99.484 168.9457
56.964684 99.465 168.6513
57.377472 99.447 168.2494
57.793251 99.424 167.7780
58.212044 99.392 167.3039
58.633873 99.355 166.8899
59.058758 99.320 166.5708
59.486721 99.292 166.3487
59.917786 99.273 166.2064
60.351974 99.262 166.1269
60.789310 99.258 166.1038
61.229816 99.258 166.1318
61.673512 99.266 166.1827
62.120422 99.281 166.1924
62.570572 99.293 166.0869
63.023983 99.287 165.8396
63.480682 99.248 165.5044
63.940689 99.170 165.1884
64.404030 99.062 164.9886
64.870728 98.936 164.9644
65.340805 98.807 165.1709
65.814293 98.699 165.6706
66.291214 98.652 166.4222
66.771591 98.706 167.1265
67.255447 98.854 167.3009
67.742805 99.024 166.6492
68.233696 99.131 165.3546
68.728142 99.139 163.9781
69.226173 99.084 163.0683
69.727814 99.050 162.7458
70.233093 99.083 162.6264
70.742035 99.145 162.2593
71.254662 99.155 161.6514
71.771004 99.064 161.2926
72.291084 98.901 161.7297
72.814934 98.740 163.1327
73.342583 98.640 165.2988
73.874054 98.622 168.0775
74.409378 98.739 171.4035
74.948578 99.066 174.5808
75.491684 99.563 176.1507
76.038727 100.021 175.2462
76.589737 100.210 172.4815
77.144737 100.046 169.3912
77.703758 99.639 167.4083
78.266830 99.232 166.7938
78.833984 98.989 166.4026
79.405251 98.853 165.1968
79.980652 98.700 163.4509
80.560226 98.543 162.0054
81.143997 98.495 161.0414
81.732002 98.578 160.0336
82.324265 98.693 158.7854
82.920822 98.768 157.7595
83.521698 98.814 157.3505
84.126930 98.847 157.4637
84.736549 98.826 157.9245
85.350586 98.715 158.8474
85.969070 98.525 160.3818
86.592041 98.273 162.6562
