* Measurement data measured by REW V5.31.3
* Source: EXCL: Microphone (USB Sound Device        ), no input selected, R, volume: 0.390
* Format: 256k Log Swept Sine, 1 sweep at -12.0 dBFS with no timing reference
* Dated: May 4, 2025 12:14:50 AM
* REW Settings:
*  C-weighting compensation: Off
*  Target level: 75.0 dB
* Note: EarAcoustic STA Pro L
* Measurement: L EarAcoustic STA Pro
* Smoothing: 1/12 octave
* Frequency Step: 96 ppo
* Start Frequency: 0.36621094 Hz
*
* Freq(Hz) SPL(dB) Phase(degrees)
0.366211 94.095 158.5872
0.368865 94.089 158.5648
0.371538 94.081 158.5312
0.374230 94.070 158.4890
0.376942 94.059 158.4404
0.379673 94.046 158.3870
0.382424 94.033 158.3298
0.385196 94.019 158.2695
0.387987 94.006 158.2065
0.390798 93.992 158.1409
0.393630 93.978 158.0729
0.396483 93.963 158.0024
0.399356 93.949 157.9296
0.402250 93.935 157.8542
0.405165 93.920 157.7765
0.408101 93.906 157.6963
0.411058 93.891 157.6136
0.414037 93.876 157.5285
0.417037 93.861 157.4408
0.420059 93.846 157.3505
0.423103 93.831 157.2577
0.426169 93.816 157.1622
0.429257 93.800 157.0642
0.432368 93.785 156.9635
0.435501 93.769 156.8602
0.438656 93.754 156.7541
0.441835 93.738 156.6454
0.445037 93.722 156.5339
0.448262 93.706 156.4197
0.451510 93.690 156.3027
0.454782 93.673 156.1829
0.458077 93.657 156.0603
0.461397 93.640 155.9350
0.464740 93.624 155.8067
0.468108 93.607 155.6756
0.471500 93.590 155.5416
0.474917 93.573 155.4048
0.478358 93.556 155.2650
0.481825 93.539 155.1223
0.485316 93.521 154.9767
0.488833 93.504 154.8282
0.492375 93.486 154.6767
0.495943 93.469 154.5223
0.499537 93.451 154.3649
0.503157 93.433 154.2045
0.506803 93.414 154.0412
0.510475 93.396 153.8749
0.514175 93.378 153.7056
0.517900 93.359 153.5333
0.521653 93.341 153.3581
0.525434 93.322 153.1800
0.529241 93.303 152.9988
0.533076 93.284 152.8148
0.536939 93.265 152.6277
0.540830 93.245 152.4378
0.544749 93.226 152.2450
0.548696 93.206 152.0493
0.552673 93.186 151.8507
0.556677 93.166 151.6493
0.560711 93.146 151.4451
0.564774 93.126 151.2381
0.568867 93.106 151.0283
0.572989 93.085 150.8159
0.577141 93.064 150.6008
0.581324 93.044 150.3831
0.585536 93.023 150.1628
0.589779 93.002 149.9400
0.594053 92.980 149.7147
0.598358 92.959 149.4870
0.602694 92.937 149.2570
0.607061 92.916 149.0248
0.611460 92.894 148.7904
0.615891 92.872 148.5539
0.620354 92.849 148.3154
0.624849 92.827 148.0749
0.629377 92.805 147.8327
0.633938 92.782 147.5887
0.638532 92.759 147.3432
0.643159 92.736 147.0962
0.647819 92.713 146.8478
0.652514 92.689 146.5983
0.657242 92.666 146.3476
0.662005 92.642 146.0961
0.666802 92.618 145.8437
0.671634 92.594 145.5908
0.676501 92.570 145.3375
0.681403 92.546 145.0839
0.686341 92.521 144.8303
0.691314 92.496 144.5768
0.696324 92.471 144.3236
0.701370 92.446 144.0710
0.706452 92.420 143.8189
0.711571 92.394 143.5676
0.716728 92.367 143.3170
0.721921 92.339 143.0669
0.727153 92.310 142.8168
0.732422 92.278 142.5660
0.737729 92.245 142.3136
0.743075 92.210 142.0585
0.748460 92.173 141.8000
0.753883 92.135 141.5373
0.759346 92.096 141.2700
0.764849 92.056 140.9978
0.770391 92.016 140.7204
0.775974 91.974 140.4377
0.781597 91.933 140.1496
0.787261 91.891 139.8560
0.792966 91.848 139.5569
0.798712 91.805 139.2521
0.804500 91.761 138.9417
0.810329 91.716 138.6256
0.816201 91.671 138.3038
0.822116 91.625 137.9762
0.828073 91.579 137.6427
0.834074 91.532 137.3035
0.840118 91.484 136.9584
0.846206 91.435 136.6075
0.852338 91.386 136.2507
0.858514 91.336 135.8880
0.864735 91.285 135.5195
0.871001 91.233 135.1452
0.877313 91.180 134.7652
0.883670 91.126 134.3793
0.890074 91.071 133.9878
0.896524 91.016 133.5907
0.903020 90.959 133.1880
0.909564 90.901 132.7798
0.916155 90.842 132.3663
0.922794 90.782 131.9476
0.929481 90.721 131.5238
0.936216 90.658 131.0952
0.943000 90.594 130.6618
0.949834 90.529 130.2238
0.956717 90.463 129.7816
0.963649 90.395 129.3354
0.970632 90.325 128.8854
0.977666 90.254 128.4320
0.984750 90.182 127.9755
0.991886 90.108 127.5163
0.999074 90.032 127.0548
1.006314 89.954 126.5914
1.013606 89.875 126.1266
1.020951 89.794 125.6610
1.028349 89.711 125.1951
1.035801 89.626 124.7295
1.043307 89.538 124.2649
1.050867 89.449 123.8020
1.058482 89.358 123.3414
1.066152 89.265 122.8838
1.073878 89.169 122.4298
1.081660 89.072 121.9800
1.089498 88.973 121.5346
1.097393 88.873 121.0936
1.105345 88.771 120.6567
1.113355 88.670 120.2234
1.121423 88.568 119.7930
1.129549 88.466 119.3650
1.137734 88.364 118.9388
1.145979 88.262 118.5141
1.154283 88.161 118.0904
1.162647 88.059 117.6673
1.171072 87.957 117.2446
1.179558 87.854 116.8219
1.188106 87.750 116.3988
1.196715 87.645 115.9750
1.205387 87.538 115.5500
1.214122 87.430 115.1237
1.222920 87.319 114.6954
1.231782 87.206 114.2649
1.240708 87.090 113.8317
1.249699 86.971 113.3952
1.258754 86.848 112.9551
1.267876 86.721 112.5108
1.277063 86.590 112.0619
1.286318 86.454 111.6077
1.295639 86.313 111.1476
1.305027 86.166 110.6811
1.314484 86.013 110.2075
1.324009 85.854 109.7262
1.333604 85.687 109.2365
1.343268 85.512 108.7376
1.353002 85.330 108.2289
1.362806 85.138 107.7095
1.372681 84.937 107.1787
1.382628 84.727 106.6358
1.392647 84.505 106.0799
1.402739 84.273 105.5105
1.412904 84.028 104.9269
1.423142 83.770 104.3286
1.433455 83.498 103.7154
1.443843 83.211 103.0874
1.454305 82.905 102.4452
1.464844 82.580 101.7896
1.475459 82.231 101.1218
1.486150 81.856 100.4428
1.496920 81.453 99.7531
1.507767 81.021 99.0527
1.518693 80.559 98.3406
1.529698 80.069 97.6158
1.540783 79.550 96.8765
1.551948 79.006 96.1205
1.563194 78.437 95.3452
1.574521 77.846 94.5476
1.585931 77.236 93.7241
1.597423 76.607 92.8705
1.608999 75.965 91.9819
1.620658 75.310 91.0525
1.632402 74.647 90.0755
1.644232 73.979 89.0425
1.656146 73.309 87.9438
1.668147 72.641 86.7672
1.680235 71.979 85.4982
1.692411 71.328 84.1187
1.704675 70.692 82.6063
1.717028 70.077 80.9329
1.729470 69.487 79.0629
1.742003 68.928 76.9511
1.754626 68.408 74.5393
1.767341 67.932 71.7522
1.780147 67.508 68.4919
1.793047 67.142 64.6309
1.806040 66.842 60.0032
1.819128 66.614 54.3954
1.832310 66.462 47.5413
1.845587 66.390 39.1372
1.858961 66.397 28.9157
1.872432 66.483 16.8345
1.886001 66.644 3.3520
1.899667 66.875 -10.4840
1.913433 67.171 -23.4409
1.927299 67.526 -34.7007
1.941265 67.934 -44.0526
1.955332 68.387 -51.6785
1.969501 68.880 -57.8920
1.983773 69.405 -62.9974
1.998148 69.956 -67.2434
2.012627 70.527 -70.8204
2.027212 71.109 -73.8702
2.041902 71.697 -76.4983
2.056698 72.284 -78.7832
2.071602 72.863 -80.7842
2.086614 73.429 -82.5462
2.101734 73.974 -84.1043
2.116964 74.493 -85.4864
2.132304 74.981 -86.7155
2.147756 75.434 -87.8121
2.163320 75.850 -88.7956
2.178996 76.228 -89.6859
2.194786 76.570 -90.5042
2.210690 76.879 -91.2718
2.226710 77.159 -92.0082
2.242845 77.415 -92.7277
2.259098 77.650 -93.4393
2.275468 77.866 -94.1475
2.291957 78.066 -94.8533
2.308566 78.250 -95.5552
2.325295 78.420 -96.2508
2.342145 78.576 -96.9365
2.359117 78.720 -97.6081
2.376212 78.853 -98.2613
2.393431 78.974 -98.8913
2.410775 79.086 -99.4932
2.428244 79.189 -100.0618
2.445840 79.284 -100.5919
2.463564 79.372 -101.0784
2.481416 79.452 -101.5165
2.499397 79.525 -101.9021
2.517509 79.591 -102.2323
2.535752 79.647 -102.5062
2.554127 79.692 -102.7253
2.572635 79.724 -102.8938
2.591277 79.744 -103.0173
2.610055 79.754 -103.1012
2.628968 79.754 -103.1495
2.648019 79.749 -103.1642
2.667208 79.738 -103.1457
2.686535 79.725 -103.0930
2.706003 79.709 -103.0045
2.725612 79.692 -102.8774
2.745363 79.674 -102.7088
2.765257 79.655 -102.4954
2.785295 79.637 -102.2335
2.805478 79.620 -101.9193
2.825808 79.604 -101.5491
2.846285 79.590 -101.1190
2.866910 79.579 -100.6250
2.887685 79.570 -100.0634
2.908611 79.564 -99.4303
2.929688 79.561 -98.7222
2.950917 79.561 -97.9358
2.972301 79.563 -97.0692
2.993839 79.568 -96.1222
3.015534 79.574 -95.0967
3.037386 79.583 -93.9968
3.059396 79.595 -92.8286
3.081565 79.611 -91.5996
3.103896 79.631 -90.3193
3.126388 79.658 -88.9981
3.149043 79.692 -87.6479
3.171862 79.735 -86.2810
3.194847 79.788 -84.9098
3.217998 79.853 -83.5458
3.241317 79.930 -82.1988
3.264805 80.022 -80.8758
3.288463 80.129 -79.5803
3.312293 80.252 -78.3125
3.336295 80.392 -77.0717
3.360471 80.548 -75.8589
3.384822 80.718 -74.6776
3.409350 80.903 -73.5340
3.434056 81.099 -72.4356
3.458940 81.304 -71.3906
3.484005 81.516 -70.4070
3.509252 81.733 -69.4921
3.534681 81.953 -68.6520
3.560295 82.172 -67.8916
3.586094 82.391 -67.2142
3.612081 82.606 -66.6213
3.638255 82.818 -66.1124
3.664620 83.027 -65.6851
3.691175 83.233 -65.3347
3.717923 83.437 -65.0557
3.744864 83.639 -64.8420
3.772001 83.841 -64.6878
3.799335 84.041 -64.5873
3.826866 84.238 -64.5354
3.854597 84.433 -64.5274
3.882529 84.624 -64.5591
3.910664 84.810 -64.6271
3.939002 84.991 -64.7287
3.967546 85.165 -64.8621
3.996296 85.332 -65.0267
4.025255 85.492 -65.2228
4.054423 85.645 -65.4512
4.083804 85.790 -65.7120
4.113396 85.928 -66.0039
4.143204 86.059 -66.3239
4.173227 86.183 -66.6676
4.203468 86.301 -67.0301
4.233928 86.412 -67.4058
4.264609 86.518 -67.7896
4.295512 86.618 -68.1770
4.326639 86.711 -68.5648
4.357992 86.799 -68.9512
4.389572 86.881 -69.3365
4.421380 86.956 -69.7221
4.453419 87.024 -70.1100
4.485691 87.087 -70.5009
4.518196 87.142 -70.8939
4.550936 87.192 -71.2862
4.583914 87.236 -71.6741
4.617131 87.275 -72.0528
4.650589 87.310 -72.4175
4.684289 87.341 -72.7640
4.718233 87.369 -73.0885
4.752424 87.392 -73.3892
4.786862 87.412 -73.6656
4.821549 87.428 -73.9184
4.856488 87.441 -74.1486
4.891680 87.449 -74.3572
4.927127 87.455 -74.5444
4.962831 87.459 -74.7101
4.998794 87.462 -74.8536
5.035017 87.465 -74.9739
5.071503 87.468 -75.0695
5.108253 87.472 -75.1390
5.145270 87.477 -75.1812
5.182555 87.483 -75.1958
5.220110 87.491 -75.1839
5.257937 87.500 -75.1480
5.296038 87.511 -75.0923
5.334415 87.524 -75.0212
5.373071 87.540 -74.9397
5.412006 87.560 -74.8522
5.451224 87.584 -74.7619
5.490725 87.613 -74.6710
5.530514 87.646 -74.5802
5.570590 87.684 -74.4905
5.610957 87.727 -74.4041
5.651616 87.774 -74.3247
5.692570 87.824 -74.2572
5.733821 87.878 -74.2072
5.775370 87.936 -74.1799
5.817221 87.996 -74.1796
5.859375 88.059 -74.2091
5.901834 88.124 -74.2696
5.944602 88.192 -74.3610
5.987679 88.262 -74.4833
6.031068 88.334 -74.6366
6.074771 88.407 -74.8214
6.118792 88.479 -75.0388
6.163131 88.551 -75.2897
6.207792 88.622 -75.5751
6.252776 88.692 -75.8954
6.298086 88.760 -76.2500
6.343725 88.826 -76.6371
6.389694 88.889 -77.0538
6.435996 88.951 -77.4966
6.482634 89.010 -77.9620
6.529610 89.066 -78.4471
6.576926 89.119 -78.9502
6.624585 89.168 -79.4701
6.672590 89.214 -80.0059
6.720942 89.256 -80.5558
6.769645 89.295 -81.1166
6.818700 89.331 -81.6845
6.868111 89.364 -82.2553
6.917881 89.394 -82.8255
6.968010 89.422 -83.3928
7.018504 89.447 -83.9559
7.069362 89.470 -84.5140
7.120590 89.491 -85.0658
7.172189 89.511 -85.6096
7.224161 89.529 -86.1433
7.276511 89.548 -86.6647
7.329239 89.567 -87.1722
7.382350 89.586 -87.6651
7.435845 89.607 -88.1436
7.489729 89.628 -88.6086
7.544002 89.651 -89.0614
7.598669 89.676 -89.5034
7.653732 89.704 -89.9355
7.709194 89.735 -90.3585
7.765058 89.770 -90.7735
7.821327 89.808 -91.1820
7.878004 89.849 -91.5864
7.935091 89.894 -91.9897
7.992592 89.943 -92.3947
8.050510 89.995 -92.8038
8.108847 90.050 -93.2186
8.167607 90.109 -93.6401
8.226793 90.172 -94.0696
8.286408 90.237 -94.5086
8.346454 90.304 -94.9583
8.406936 90.373 -95.4200
8.467856 90.444 -95.8942
8.529218 90.516 -96.3807
8.591024 90.590 -96.8786
8.653278 90.664 -97.3866
8.715983 90.738 -97.9036
8.779143 90.812 -98.4284
8.842760 90.885 -98.9598
8.906839 90.958 -99.4961
8.971381 91.030 -100.0352
9.036392 91.101 -100.5748
9.101873 91.172 -101.1121
9.167829 91.241 -101.6452
9.234263 91.309 -102.1724
9.301178 91.376 -102.6920
9.368578 91.442 -103.2024
9.436467 91.507 -103.7017
9.504847 91.572 -104.1884
9.573723 91.636 -104.6615
9.643099 91.700 -105.1204
9.712976 91.764 -105.5648
9.783361 91.828 -105.9949
9.854255 91.892 -106.4107
9.925663 91.956 -106.8126
9.997588 92.021 -107.2010
10.070035 92.087 -107.5770
10.143007 92.153 -107.9419
10.216507 92.220 -108.2968
10.290540 92.287 -108.6429
10.365109 92.355 -108.9813
10.440219 92.423 -109.3132
10.515873 92.492 -109.6395
10.592076 92.561 -109.9613
10.668830 92.629 -110.2795
10.746141 92.697 -110.5945
10.824012 92.765 -110.9066
10.902447 92.831 -111.2161
10.981451 92.897 -111.5231
11.061027 92.962 -111.8275
11.141180 93.026 -112.1291
11.221913 93.088 -112.4276
11.303232 93.149 -112.7228
11.385140 93.209 -113.0142
11.467641 93.267 -113.3018
11.550741 93.323 -113.5852
11.634442 93.378 -113.8646
11.718750 93.432 -114.1398
11.803669 93.484 -114.4110
11.889203 93.535 -114.6785
11.975357 93.585 -114.9427
12.062136 93.633 -115.2042
12.149543 93.680 -115.4634
12.237583 93.725 -115.7209
12.326262 93.770 -115.9774
12.415583 93.812 -116.2334
12.505552 93.854 -116.4895
12.596172 93.894 -116.7461
12.687449 93.933 -117.0035
12.779387 93.970 -117.2620
12.871992 94.005 -117.5219
12.965268 94.040 -117.7832
13.059220 94.072 -118.0460
13.153852 94.103 -118.3104
13.249170 94.133 -118.5765
13.345179 94.162 -118.8444
13.441884 94.189 -119.1145
13.539289 94.215 -119.3870
13.637401 94.241 -119.6624
13.736223 94.265 -119.9413
13.835761 94.289 -120.2245
13.936021 94.313 -120.5128
14.037007 94.336 -120.8070
14.138725 94.358 -121.1080
14.241180 94.380 -121.4167
14.344377 94.401 -121.7336
14.448323 94.422 -122.0594
14.553021 94.443 -122.3943
14.658478 94.463 -122.7386
14.764700 94.482 -123.0920
14.871691 94.501 -123.4542
14.979457 94.520 -123.8246
15.088005 94.537 -124.2025
15.197339 94.555 -124.5869
15.307465 94.572 -124.9771
15.418389 94.588 -125.3721
15.530117 94.605 -125.7711
15.642655 94.622 -126.1734
15.756008 94.639 -126.5786
15.870182 94.656 -126.9864
15.985184 94.675 -127.3966
16.101019 94.694 -127.8092
16.217694 94.714 -128.2243
16.335214 94.735 -128.6421
16.453586 94.757 -129.0627
16.572815 94.780 -129.4861
16.692909 94.804 -129.9120
16.813872 94.828 -130.3403
16.935713 94.854 -130.7701
17.058436 94.880 -131.2008
17.182048 94.906 -131.6312
17.306556 94.934 -132.0604
17.431967 94.961 -132.4869
17.558286 94.989 -132.9098
17.685521 95.017 -133.3278
17.813677 95.045 -133.7399
17.942762 95.074 -134.1455
18.072783 95.104 -134.5440
18.203746 95.133 -134.9351
18.335658 95.163 -135.3186
18.468526 95.194 -135.6945
18.602356 95.224 -136.0631
18.737156 95.255 -136.4245
18.872934 95.286 -136.7789
19.009695 95.316 -137.1265
19.147447 95.347 -137.4676
19.286197 95.377 -137.8021
19.425953 95.406 -138.1303
19.566721 95.435 -138.4523
19.708510 95.463 -138.7684
19.851326 95.491 -139.0788
19.995177 95.517 -139.3839
20.140070 95.543 -139.6841
20.286013 95.567 -139.9799
20.433014 95.590 -140.2720
20.581080 95.612 -140.5608
20.730219 95.633 -140.8468
20.880439 95.652 -141.1306
21.031747 95.670 -141.4125
21.184152 95.687 -141.6929
21.337661 95.702 -141.9724
21.492282 95.716 -142.2513
21.648024 95.729 -142.5302
21.804895 95.740 -142.8097
21.962902 95.751 -143.0908
22.122054 95.760 -143.3742
22.282360 95.769 -143.6608
22.443827 95.777 -143.9516
22.606464 95.784 -144.2474
22.770280 95.790 -144.5485
22.935283 95.796 -144.8555
23.101481 95.801 -145.1683
23.268884 95.805 -145.4867
23.437500 95.809 -145.8105
23.607338 95.812 -146.1393
23.778406 95.815 -146.4725
23.950714 95.819 -146.8097
24.124271 95.822 -147.1507
24.299086 95.826 -147.4953
24.475167 95.830 -147.8431
24.652524 95.835 -148.1941
24.831166 95.840 -148.5480
25.011103 95.846 -148.9043
25.192344 95.852 -149.2625
25.374898 95.859 -149.6218
25.558775 95.867 -149.9814
25.743984 95.876 -150.3404
25.930536 95.885 -150.6978
26.118439 95.894 -151.0529
26.307704 95.905 -151.4050
26.498341 95.915 -151.7534
26.690359 95.926 -152.0977
26.883768 95.938 -152.4374
27.078579 95.949 -152.7722
27.274801 95.961 -153.1016
27.472446 95.973 -153.4252
27.671522 95.984 -153.7429
27.872042 95.995 -154.0542
28.074014 96.006 -154.3592
28.277450 96.016 -154.6579
28.482360 96.026 -154.9505
28.688755 96.035 -155.2375
28.896645 96.043 -155.5192
29.106042 96.050 -155.7966
29.316957 96.057 -156.0702
29.529400 96.063 -156.3409
29.743382 96.068 -156.6097
29.958915 96.072 -156.8775
30.176009 96.076 -157.1452
30.394677 96.078 -157.4138
30.614929 96.080 -157.6840
30.836778 96.081 -157.9564
31.060234 96.081 -158.2315
31.285309 96.080 -158.5096
31.512015 96.079 -158.7908
31.740364 96.077 -159.0751
31.970368 96.075 -159.3627
32.202039 96.072 -159.6537
32.435388 96.070 -159.9481
32.670428 96.067 -160.2461
32.907171 96.065 -160.5476
33.145630 96.063 -160.8524
33.385817 96.061 -161.1601
33.627745 96.059 -161.4700
33.871425 96.057 -161.7812
34.116871 96.056 -162.0930
34.364096 96.055 -162.4044
34.613113 96.054 -162.7147
34.863934 96.054 -163.0232
35.116572 96.054 -163.3295
35.371041 96.054 -163.6331
35.627354 96.054 -163.9335
35.885525 96.054 -164.2304
36.145566 96.054 -164.5232
36.407492 96.053 -164.8113
36.671316 96.052 -165.0942
36.937051 96.051 -165.3719
37.204712 96.050 -165.6444
37.474313 96.048 -165.9124
37.745867 96.046 -166.1766
38.019389 96.043 -166.4382
38.294893 96.040 -166.6981
38.572394 96.037 -166.9571
38.851905 96.033 -167.2154
39.133442 96.028 -167.4730
39.417019 96.023 -167.7299
39.702651 96.017 -167.9861
39.990353 96.011 -168.2421
40.280140 96.005 -168.4986
40.572026 95.999 -168.7564
40.866028 95.992 -169.0159
41.162160 95.986 -169.2769
41.460438 95.979 -169.5389
41.760877 95.972 -169.8007
42.063494 95.965 -170.0618
42.368303 95.959 -170.3219
42.675322 95.952 -170.5817
42.984565 95.946 -170.8421
43.296048 95.941 -171.1039
43.609789 95.935 -171.3669
43.925804 95.929 -171.6305
44.244108 95.922 -171.8929
44.564719 95.916 -172.1528
44.887654 95.908 -172.4091
45.212928 95.901 -172.6617
45.540560 95.894 -172.9115
45.870565 95.886 -173.1598
46.202962 95.879 -173.4081
46.537768 95.871 -173.6574
46.875000 95.864 -173.9081
47.214676 95.855 -174.1599
47.556813 95.847 -174.4121
47.901429 95.838 -174.6638
48.248542 95.828 -174.9142
48.598171 95.818 -175.1626
48.950334 95.808 -175.4087
49.305048 95.798 -175.6525
49.662333 95.788 -175.8943
50.022206 95.778 -176.1345
50.384688 95.768 -176.3733
50.749796 95.759 -176.6104
51.117550 95.749 -176.8454
51.487969 95.739 -177.0777
51.861072 95.729 -177.3070
52.236879 95.718 -177.5331
52.615409 95.708 -177.7562
52.996681 95.698 -177.9768
53.380717 95.688 -178.1953
53.767536 95.677 -178.4123
54.157158 95.667 -178.6284
54.549603 95.657 -178.8449
54.944892 95.648 -179.0628
55.343045 95.638 -179.2833
55.744084 95.629 -179.5071
56.148028 95.619 -179.7341
56.554900 95.610 -179.9640
56.964720 95.600 179.8036
57.377510 95.591 179.5688
57.793291 95.581 179.3319
58.212085 95.571 179.0932
58.633914 95.561 178.8540
59.058799 95.550 178.6155
59.486764 95.540 178.3789
59.917829 95.528 178.1443
60.352019 95.517 177.9112
60.789354 95.505 177.6789
61.229859 95.493 177.4472
61.673556 95.480 177.2166
62.120468 95.466 176.9878
62.570618 95.452 176.7610
63.024031 95.438 176.5360
63.480729 95.423 176.3123
63.940736 95.409 176.0894
64.404077 95.394 175.8668
64.870776 95.378 175.6447
65.340856 95.363 175.4233
65.814343 95.348 175.2027
66.291261 95.333 174.9832
66.771635 95.318 174.7647
67.255489 95.303 174.5471
67.742850 95.288 174.3303
68.233743 95.273 174.1147
68.728193 95.258 173.9008
69.226226 95.242 173.6893
69.727867 95.226 173.4805
70.233144 95.210 173.2741
70.742083 95.194 173.0699
71.254709 95.178 172.8675
71.771050 95.162 172.6661
72.291132 95.146 172.4651
72.814984 95.131 172.2638
73.342631 95.115 172.0621
73.874102 95.100 171.8601
74.409424 95.085 171.6581
74.948626 95.070 171.4560
75.491734 95.055 171.2538
76.038779 95.041 171.0516
76.589787 95.026 170.8493
77.144788 95.012 170.6465
77.703811 94.997 170.4426
78.266885 94.983 170.2370
78.834039 94.969 170.0287
79.405303 94.954 169.8172
79.980706 94.940 169.6017
80.560280 94.924 169.3818
81.144053 94.908 169.1574
81.732056 94.891 168.9288
82.324320 94.873 168.6970
82.920876 94.854 168.4632
83.521755 94.833 168.2284
84.126988 94.811 167.9929
84.736607 94.787 167.7577
85.350643 94.763 167.5250
85.969129 94.737 167.2975
