* Measurement data measured by REW V5.31.3
* Source: EXCL: Microphone (USB Sound Device        ), MICROPHONE (Master Volume), R, volume: 0.390
* Format: 256k Log Swept Sine, 1 sweep at -17.0 dBFS with no timing reference
* Dated: Jun 18, 2025 11:28:29 PM
* REW Settings:
*  C-weighting compensation: Off
*  Target level: 75.0 dB
* Note: EarAcoustic VSA Max R
* Measurement: R L EarAcoustic VSA Max
* Smoothing: 1/12 octave
* Frequency Step: 96 ppo
* Start Frequency: 0.36621094 Hz
*
* Freq(Hz) SPL(dB) Phase(degrees)
0.366211 93.674 159.5784
0.368865 93.668 159.5570
0.371538 93.660 159.5248
0.374230 93.649 159.4845
0.376942 93.637 159.4379
0.379673 93.625 159.3868
0.382424 93.612 159.3321
0.385196 93.598 159.2744
0.387987 93.585 159.2141
0.390798 93.571 159.1513
0.393630 93.557 159.0862
0.396483 93.543 159.0188
0.399356 93.528 158.9491
0.402250 93.514 158.8771
0.405165 93.500 158.8027
0.408101 93.485 158.7261
0.411058 93.471 158.6470
0.414037 93.456 158.5656
0.417037 93.441 158.4818
0.420059 93.426 158.3955
0.423103 93.411 158.3067
0.426169 93.396 158.2155
0.429257 93.380 158.1219
0.432368 93.365 158.0256
0.435501 93.349 157.9269
0.438656 93.334 157.8256
0.441835 93.318 157.7217
0.445037 93.302 157.6152
0.448262 93.286 157.5061
0.451510 93.270 157.3943
0.454782 93.254 157.2799
0.458077 93.237 157.1629
0.461397 93.221 157.0431
0.464740 93.204 156.9206
0.468108 93.188 156.7954
0.471500 93.171 156.6675
0.474917 93.154 156.5368
0.478358 93.137 156.4034
0.481825 93.120 156.2672
0.485316 93.103 156.1281
0.488833 93.085 155.9863
0.492375 93.068 155.8417
0.495943 93.050 155.6943
0.499537 93.032 155.5441
0.503157 93.014 155.3910
0.506803 92.996 155.2351
0.510475 92.978 155.0764
0.514175 92.959 154.9148
0.517900 92.941 154.7504
0.521653 92.922 154.5832
0.525434 92.904 154.4132
0.529241 92.885 154.2403
0.533076 92.866 154.0647
0.536939 92.847 153.8862
0.540830 92.827 153.7050
0.544749 92.808 153.5210
0.548696 92.788 153.3342
0.552673 92.769 153.1447
0.556677 92.749 152.9525
0.560711 92.729 152.7576
0.564774 92.709 152.5601
0.568867 92.688 152.3600
0.572989 92.668 152.1572
0.577141 92.647 151.9520
0.581324 92.627 151.7442
0.585536 92.606 151.5339
0.589779 92.585 151.3213
0.594053 92.564 151.1063
0.598358 92.542 150.8890
0.602694 92.521 150.6695
0.607061 92.499 150.4478
0.611460 92.477 150.2241
0.615891 92.455 149.9983
0.620354 92.433 149.7706
0.624849 92.411 149.5410
0.629377 92.389 149.3097
0.633938 92.366 149.0768
0.638532 92.343 148.8423
0.643159 92.320 148.6064
0.647819 92.297 148.3692
0.652514 92.274 148.1308
0.657242 92.251 147.8913
0.662005 92.227 147.6509
0.666802 92.203 147.4098
0.671634 92.179 147.1681
0.676501 92.155 146.9259
0.681403 92.131 146.6835
0.686341 92.106 146.4410
0.691314 92.082 146.1986
0.696324 92.057 145.9564
0.701370 92.031 145.7147
0.706452 92.006 145.4736
0.711571 91.980 145.2331
0.716728 91.953 144.9931
0.721921 91.925 144.7536
0.727153 91.896 144.5141
0.732422 91.865 144.2738
0.737729 91.831 144.0320
0.743075 91.796 143.7876
0.748460 91.759 143.5398
0.753883 91.721 143.2881
0.759346 91.682 143.0318
0.764849 91.643 142.7709
0.770391 91.602 142.5049
0.775974 91.561 142.2338
0.781597 91.520 141.9576
0.787261 91.478 141.6760
0.792966 91.435 141.3891
0.798712 91.392 141.0968
0.804500 91.348 140.7990
0.810329 91.304 140.4958
0.816201 91.259 140.1870
0.822116 91.214 139.8727
0.828073 91.167 139.5528
0.834074 91.120 139.2272
0.840118 91.073 138.8961
0.846206 91.024 138.5593
0.852338 90.975 138.2168
0.858514 90.925 137.8687
0.864735 90.874 137.5150
0.871001 90.822 137.1556
0.877313 90.770 136.7906
0.883670 90.716 136.4201
0.890074 90.662 136.0441
0.896524 90.606 135.6626
0.903020 90.549 135.2757
0.909564 90.492 134.8836
0.916155 90.433 134.4862
0.922794 90.373 134.0837
0.929481 90.312 133.6763
0.936216 90.249 133.2641
0.943000 90.186 132.8472
0.949834 90.120 132.4259
0.956717 90.054 132.0004
0.963649 89.986 131.5708
0.970632 89.917 131.1375
0.977666 89.846 130.7007
0.984750 89.773 130.2608
0.991886 89.699 129.8181
0.999074 89.623 129.3729
1.006314 89.545 128.9258
1.013606 89.466 128.4771
1.020951 89.384 128.0273
1.028349 89.301 127.5770
1.035801 89.216 127.1267
1.043307 89.128 126.6770
1.050867 89.039 126.2285
1.058482 88.947 125.7819
1.066152 88.853 125.3379
1.073878 88.757 124.8969
1.081660 88.659 124.4595
1.089498 88.559 124.0259
1.097393 88.458 123.5961
1.105345 88.355 123.1698
1.113355 88.251 122.7463
1.121423 88.146 122.3252
1.129549 88.041 121.9059
1.137734 87.936 121.4878
1.145979 87.830 121.0705
1.154283 87.723 120.6536
1.162647 87.616 120.2368
1.171072 87.508 119.8197
1.179558 87.398 119.4020
1.188106 87.288 118.9833
1.196715 87.176 118.5632
1.205387 87.062 118.1415
1.214122 86.946 117.7175
1.222920 86.827 117.2910
1.231782 86.706 116.8615
1.240708 86.583 116.4286
1.249699 86.456 115.9916
1.258754 86.325 115.5502
1.267876 86.191 115.1038
1.277063 86.053 114.6517
1.286318 85.910 114.1935
1.295639 85.763 113.7283
1.305027 85.611 113.2556
1.314484 85.453 112.7747
1.324009 85.289 112.2847
1.333604 85.118 111.7849
1.343268 84.942 111.2745
1.353002 84.757 110.7526
1.362806 84.566 110.2182
1.372681 84.366 109.6705
1.382628 84.158 109.1085
1.392647 83.941 108.5312
1.402739 83.714 107.9377
1.412904 83.477 107.3271
1.423142 83.229 106.6985
1.433455 82.969 106.0514
1.443843 82.695 105.3854
1.454305 82.405 104.7004
1.464844 82.098 103.9967
1.475459 81.771 103.2747
1.486150 81.420 102.5345
1.496920 81.044 101.7757
1.507767 80.642 100.9972
1.518693 80.213 100.1973
1.529698 79.759 99.3737
1.540783 79.279 98.5233
1.551948 78.776 97.6426
1.563194 78.252 96.7273
1.574521 77.708 95.7725
1.585931 77.146 94.7723
1.597423 76.570 93.7199
1.608999 75.981 92.6072
1.620658 75.382 91.4248
1.632402 74.777 90.1612
1.644232 74.168 88.8028
1.656146 73.559 87.3331
1.668147 72.953 85.7322
1.680235 72.354 83.9757
1.692411 71.766 82.0337
1.704675 71.194 79.8693
1.717028 70.643 77.4369
1.729470 70.116 74.6799
1.742003 69.621 71.5287
1.754626 69.162 67.8979
1.767341 68.745 63.6857
1.780147 68.378 58.7750
1.793047 68.066 53.0410
1.806040 67.817 46.3694
1.819128 67.634 38.6899
1.832310 67.524 30.0252
1.845587 67.489 20.5415
1.858961 67.528 10.5689
1.872432 67.642 0.5545
1.886001 67.826 -9.0475
1.899667 68.076 -17.8929
1.913433 68.388 -25.8018
1.927299 68.755 -32.7401
1.941265 69.172 -38.7681
1.955332 69.633 -43.9895
1.969501 70.131 -48.5188
1.983773 70.659 -52.4629
1.998148 71.213 -55.9152
2.012627 71.784 -58.9534
2.027212 72.367 -61.6414
2.041902 72.955 -64.0308
2.056698 73.542 -66.1636
2.071602 74.121 -68.0735
2.086614 74.687 -69.7882
2.101734 75.234 -71.3302
2.116964 75.755 -72.7188
2.132304 76.247 -73.9705
2.147756 76.705 -75.1005
2.163320 77.127 -76.1237
2.178996 77.512 -77.0559
2.194786 77.862 -77.9136
2.210690 78.179 -78.7140
2.226710 78.469 -79.4728
2.242845 78.735 -80.2020
2.259098 78.980 -80.9100
2.275468 79.206 -81.6012
2.291957 79.416 -82.2775
2.308566 79.611 -82.9392
2.325295 79.792 -83.5854
2.342145 79.960 -84.2142
2.359117 80.116 -84.8235
2.376212 80.262 -85.4107
2.393431 80.399 -85.9732
2.410775 80.527 -86.5080
2.428244 80.648 -87.0119
2.445840 80.764 -87.4819
2.463564 80.875 -87.9149
2.481416 80.983 -88.3078
2.499397 81.088 -88.6584
2.517509 81.192 -88.9650
2.535752 81.293 -89.2272
2.554127 81.392 -89.4463
2.572635 81.487 -89.6251
2.591277 81.578 -89.7675
2.610055 81.661 -89.8774
2.628968 81.738 -89.9580
2.648019 81.807 -90.0115
2.667208 81.869 -90.0390
2.686535 81.924 -90.0411
2.706003 81.973 -90.0179
2.725612 82.017 -89.9690
2.745363 82.057 -89.8940
2.765257 82.094 -89.7923
2.785295 82.129 -89.6631
2.805478 82.163 -89.5057
2.825808 82.198 -89.3192
2.846285 82.235 -89.1028
2.866910 82.274 -88.8555
2.887685 82.317 -88.5762
2.908611 82.363 -88.2634
2.929688 82.413 -87.9156
2.950917 82.465 -87.5314
2.972301 82.520 -87.1101
2.993839 82.576 -86.6521
3.015534 82.634 -86.1588
3.037386 82.692 -85.6331
3.059396 82.752 -85.0784
3.081565 82.813 -84.4990
3.103896 82.876 -83.8994
3.126388 82.942 -83.2847
3.149043 83.011 -82.6601
3.171862 83.083 -82.0306
3.194847 83.160 -81.4011
3.217998 83.241 -80.7759
3.241317 83.328 -80.1581
3.264805 83.420 -79.5493
3.288463 83.518 -78.9495
3.312293 83.623 -78.3571
3.336295 83.735 -77.7701
3.360471 83.853 -77.1876
3.384822 83.977 -76.6109
3.409350 84.107 -76.0425
3.434056 84.241 -75.4865
3.458940 84.379 -74.9478
3.484005 84.521 -74.4314
3.509252 84.665 -73.9423
3.534681 84.811 -73.4855
3.560295 84.957 -73.0652
3.586094 85.104 -72.6848
3.612081 85.250 -72.3468
3.638255 85.396 -72.0522
3.664620 85.542 -71.8006
3.691175 85.687 -71.5900
3.717923 85.833 -71.4180
3.744864 85.979 -71.2819
3.772001 86.126 -71.1790
3.799335 86.272 -71.1075
3.826866 86.418 -71.0654
3.854597 86.563 -71.0511
3.882529 86.706 -71.0635
3.910664 86.846 -71.1015
3.939002 86.984 -71.1644
3.967546 87.118 -71.2519
3.996296 87.248 -71.3640
4.025255 87.374 -71.5012
4.054423 87.496 -71.6637
4.083804 87.614 -71.8515
4.113396 87.727 -72.0636
4.143204 87.837 -72.2980
4.173227 87.943 -72.5520
4.203468 88.045 -72.8223
4.233928 88.143 -73.1058
4.264609 88.237 -73.3992
4.295512 88.328 -73.6998
4.326639 88.414 -74.0056
4.357992 88.496 -74.3158
4.389572 88.573 -74.6304
4.421380 88.646 -74.9505
4.453419 88.715 -75.2772
4.485691 88.778 -75.6106
4.518196 88.837 -75.9499
4.550936 88.892 -76.2928
4.583914 88.943 -76.6365
4.617131 88.990 -76.9776
4.650589 89.034 -77.3128
4.684289 89.075 -77.6390
4.718233 89.112 -77.9538
4.752424 89.147 -78.2563
4.786862 89.179 -78.5461
4.821549 89.208 -78.8240
4.856488 89.233 -79.0907
4.891680 89.255 -79.3466
4.927127 89.275 -79.5916
4.962831 89.294 -79.8251
4.998794 89.310 -80.0461
5.035017 89.326 -80.2534
5.071503 89.341 -80.4459
5.108253 89.357 -80.6223
5.145270 89.372 -80.7819
5.182555 89.387 -80.9245
5.220110 89.402 -81.0508
5.257937 89.417 -81.1624
5.296038 89.433 -81.2616
5.334415 89.449 -81.3507
5.373071 89.467 -81.4322
5.412006 89.487 -81.5084
5.451224 89.509 -81.5807
5.490725 89.533 -81.6500
5.530514 89.560 -81.7165
5.570590 89.589 -81.7807
5.610957 89.621 -81.8440
5.651616 89.655 -81.9088
5.692570 89.692 -81.9785
5.733821 89.730 -82.0565
5.775370 89.771 -82.1464
5.817221 89.814 -82.2510
5.859375 89.859 -82.3722
5.901834 89.906 -82.5107
5.944602 89.955 -82.6668
5.987679 90.006 -82.8410
6.031068 90.059 -83.0339
6.074771 90.112 -83.2468
6.118792 90.166 -83.4811
6.163131 90.220 -83.7382
6.207792 90.274 -84.0193
6.252776 90.328 -84.3250
6.298086 90.381 -84.6551
6.343725 90.434 -85.0088
6.389694 90.486 -85.3844
6.435996 90.537 -85.7803
6.482634 90.587 -86.1946
6.529610 90.635 -86.6259
6.576926 90.681 -87.0735
6.624585 90.725 -87.5367
6.672590 90.767 -88.0150
6.720942 90.806 -88.5071
6.769645 90.844 -89.0106
6.818700 90.880 -89.5231
6.868111 90.914 -90.0415
6.917881 90.946 -90.5637
6.968010 90.976 -91.0880
7.018504 91.004 -91.6135
7.069362 91.030 -92.1394
7.120590 91.055 -92.6646
7.172189 91.079 -93.1875
7.224161 91.101 -93.7061
7.276511 91.124 -94.2186
7.329239 91.146 -94.7236
7.382350 91.168 -95.2204
7.435845 91.190 -95.7088
7.489729 91.213 -96.1892
7.544002 91.236 -96.6619
7.598669 91.260 -97.1270
7.653732 91.286 -97.5849
7.709194 91.314 -98.0356
7.765058 91.344 -98.4794
7.821327 91.375 -98.9173
7.878004 91.409 -99.3507
7.935091 91.445 -99.7813
7.992592 91.484 -100.2107
8.050510 91.525 -100.6403
8.108847 91.569 -101.0712
8.167607 91.615 -101.5041
8.226793 91.663 -101.9399
8.286408 91.713 -102.3800
8.346454 91.766 -102.8255
8.406936 91.820 -103.2774
8.467856 91.876 -103.7365
8.529218 91.933 -104.2026
8.591024 91.991 -104.6757
8.653278 92.050 -105.1553
8.715983 92.109 -105.6410
8.779143 92.169 -106.1322
8.842760 92.229 -106.6286
8.906839 92.289 -107.1290
8.971381 92.348 -107.6323
9.036392 92.407 -108.1369
9.101873 92.465 -108.6411
9.167829 92.523 -109.1437
9.234263 92.580 -109.6434
9.301178 92.636 -110.1390
9.368578 92.692 -110.6291
9.436467 92.747 -111.1124
9.504847 92.801 -111.5875
9.573723 92.854 -112.0534
9.643099 92.907 -112.5095
9.712976 92.960 -112.9553
9.783361 93.013 -113.3905
9.854255 93.065 -113.8148
9.925663 93.117 -114.2280
9.997588 93.169 -114.6302
10.070035 93.221 -115.0220
10.143007 93.274 -115.4037
10.216507 93.326 -115.7762
10.290540 93.379 -116.1399
10.365109 93.432 -116.4956
10.440219 93.485 -116.8440
10.515873 93.538 -117.1858
10.592076 93.591 -117.5218
10.668830 93.644 -117.8527
10.746141 93.696 -118.1790
10.824012 93.748 -118.5010
10.902447 93.800 -118.8191
10.981451 93.851 -119.1337
11.061027 93.902 -119.4448
11.141180 93.951 -119.7527
11.221913 94.000 -120.0574
11.303232 94.047 -120.3587
11.385140 94.094 -120.6568
11.467641 94.139 -120.9516
11.550741 94.183 -121.2432
11.634442 94.226 -121.5316
11.718750 94.268 -121.8170
11.803669 94.309 -122.0995
11.889203 94.349 -122.3794
11.975357 94.387 -122.6571
12.062136 94.424 -122.9330
12.149543 94.461 -123.2074
12.237583 94.496 -123.4807
12.326262 94.529 -123.7534
12.415583 94.562 -124.0260
12.505552 94.593 -124.2987
12.596172 94.623 -124.5719
12.687449 94.651 -124.8458
12.779387 94.678 -125.1205
12.871992 94.704 -125.3963
12.965268 94.729 -125.6730
13.059220 94.752 -125.9508
13.153852 94.773 -126.2296
13.249170 94.794 -126.5094
13.345179 94.813 -126.7902
13.441884 94.831 -127.0722
13.539289 94.848 -127.3556
13.637401 94.864 -127.6405
13.736223 94.880 -127.9275
13.835761 94.895 -128.2171
13.936021 94.909 -128.5098
14.037007 94.923 -128.8063
14.138725 94.936 -129.1073
14.241180 94.949 -129.4135
14.344377 94.962 -129.7255
14.448323 94.975 -130.0440
14.553021 94.987 -130.3693
14.658478 94.999 -130.7017
14.764700 95.011 -131.0412
14.871691 95.022 -131.3877
14.979457 95.033 -131.7409
15.088005 95.044 -132.1002
15.197339 95.054 -132.4652
15.307465 95.064 -132.8350
15.418389 95.074 -133.2090
15.530117 95.083 -133.5865
15.642655 95.093 -133.9668
15.756008 95.103 -134.3493
15.870182 95.114 -134.7338
15.985184 95.125 -135.1198
16.101019 95.136 -135.5073
16.217694 95.149 -135.8962
16.335214 95.162 -136.2866
16.453586 95.175 -136.6783
16.572815 95.190 -137.0714
16.692909 95.205 -137.4657
16.813872 95.221 -137.8609
16.935713 95.238 -138.2565
17.058436 95.255 -138.6519
17.182048 95.272 -139.0461
17.306556 95.290 -139.4383
17.431967 95.308 -139.8274
17.558286 95.326 -140.2122
17.685521 95.345 -140.5919
17.813677 95.364 -140.9654
17.942762 95.383 -141.3322
18.072783 95.402 -141.6916
18.203746 95.422 -142.0435
18.335658 95.442 -142.3878
18.468526 95.462 -142.7247
18.602356 95.483 -143.0546
18.737156 95.504 -143.3779
18.872934 95.525 -143.6951
19.009695 95.546 -144.0068
19.147447 95.567 -144.3134
19.286197 95.588 -144.6152
19.425953 95.608 -144.9124
19.566721 95.628 -145.2054
19.708510 95.646 -145.4940
19.851326 95.664 -145.7783
19.995177 95.681 -146.0584
20.140070 95.697 -146.3341
20.286013 95.711 -146.6056
20.433014 95.724 -146.8728
20.581080 95.736 -147.1362
20.730219 95.747 -147.3958
20.880439 95.757 -147.6520
21.031747 95.765 -147.9054
21.184152 95.773 -148.1565
21.337661 95.779 -148.4060
21.492282 95.784 -148.6546
21.648024 95.789 -148.9031
21.804895 95.792 -149.1523
21.962902 95.795 -149.4032
22.122054 95.797 -149.6564
22.282360 95.798 -149.9129
22.443827 95.798 -150.1732
22.606464 95.798 -150.4379
22.770280 95.797 -150.7072
22.935283 95.795 -150.9814
23.101481 95.793 -151.2603
23.268884 95.790 -151.5439
23.437500 95.787 -151.8318
23.607338 95.784 -152.1238
23.778406 95.781 -152.4195
23.950714 95.778 -152.7186
24.124271 95.774 -153.0210
24.299086 95.772 -153.3263
24.475167 95.769 -153.6346
24.652524 95.767 -153.9454
24.831166 95.766 -154.2587
25.011103 95.765 -154.5738
25.192344 95.764 -154.8903
25.374898 95.764 -155.2074
25.558775 95.765 -155.5241
25.743984 95.766 -155.8394
25.930536 95.767 -156.1523
26.118439 95.769 -156.4616
26.307704 95.772 -156.7664
26.498341 95.774 -157.0661
26.690359 95.778 -157.3600
26.883768 95.781 -157.6480
27.078579 95.785 -157.9302
27.274801 95.790 -158.2069
27.472446 95.795 -158.4789
27.671522 95.800 -158.7466
27.872042 95.805 -159.0108
28.074014 95.809 -159.2720
28.277450 95.813 -159.5301
28.482360 95.816 -159.7851
28.688755 95.819 -160.0363
28.896645 95.819 -160.2829
29.106042 95.819 -160.5244
29.316957 95.818 -160.7602
29.529400 95.816 -160.9904
29.743382 95.812 -161.2157
29.958915 95.809 -161.4374
30.176009 95.805 -161.6572
30.394677 95.800 -161.8770
30.614929 95.795 -162.0986
30.836778 95.789 -162.3233
31.060234 95.783 -162.5517
31.285309 95.776 -162.7837
31.512015 95.768 -163.0188
31.740364 95.759 -163.2563
31.970368 95.750 -163.4956
32.202039 95.741 -163.7367
32.435388 95.732 -163.9800
32.670428 95.724 -164.2261
32.907171 95.715 -164.4759
33.145630 95.707 -164.7300
33.385817 95.699 -164.9885
33.627745 95.692 -165.2509
33.871425 95.684 -165.5161
34.116871 95.676 -165.7825
34.364096 95.668 -166.0486
34.613113 95.661 -166.3129
34.863934 95.653 -166.5743
35.116572 95.645 -166.8320
35.371041 95.638 -167.0856
35.627354 95.630 -167.3346
35.885525 95.623 -167.5789
36.145566 95.615 -167.8182
36.407492 95.608 -168.0524
36.671316 95.600 -168.2815
36.937051 95.593 -168.5058
37.204712 95.585 -168.7259
37.474313 95.577 -168.9423
37.745867 95.569 -169.1559
38.019389 95.560 -169.3676
38.294893 95.551 -169.5778
38.572394 95.541 -169.7870
38.851905 95.531 -169.9955
39.133442 95.520 -170.2035
39.417019 95.509 -170.4113
39.702651 95.497 -170.6192
39.990353 95.485 -170.8277
40.280140 95.473 -171.0376
40.572026 95.460 -171.2493
40.866028 95.447 -171.4630
41.162160 95.433 -171.6782
41.460438 95.419 -171.8940
41.760877 95.405 -172.1090
42.063494 95.390 -172.3217
42.368303 95.375 -172.5311
42.675322 95.360 -172.7368
42.984565 95.345 -172.9391
43.296048 95.331 -173.1393
43.609789 95.317 -173.3388
43.925804 95.303 -173.5388
44.244108 95.290 -173.7397
44.564719 95.276 -173.9413
44.887654 95.262 -174.1422
45.212928 95.247 -174.3410
45.540560 95.232 -174.5366
45.870565 95.216 -174.7283
46.202962 95.200 -174.9163
46.537768 95.184 -175.1012
46.875000 95.168 -175.2840
47.214676 95.152 -175.4653
47.556813 95.136 -175.6457
47.901429 95.119 -175.8256
48.248542 95.103 -176.0052
48.598171 95.087 -176.1850
48.950334 95.070 -176.3647
49.305048 95.054 -176.5442
49.662333 95.036 -176.7223
50.022206 95.019 -176.8981
50.384688 95.001 -177.0706
50.749796 94.983 -177.2395
51.117550 94.965 -177.4051
51.487969 94.947 -177.5680
51.861072 94.930 -177.7289
52.236879 94.911 -177.8880
52.615409 94.893 -178.0452
52.996681 94.875 -178.2004
53.380717 94.856 -178.3537
53.767536 94.838 -178.5057
54.157158 94.819 -178.6573
54.549603 94.801 -178.8094
54.944892 94.783 -178.9627
55.343045 94.765 -179.1178
55.744084 94.746 -179.2751
56.148028 94.728 -179.4348
56.554900 94.710 -179.5966
56.964720 94.692 -179.7606
57.377510 94.674 -179.9262
57.793291 94.655 179.9070
58.212085 94.636 179.7400
58.633914 94.617 179.5741
59.058799 94.596 179.4108
59.486764 94.575 179.2515
59.917829 94.553 179.0970
60.352019 94.531 178.9473
60.789354 94.508 178.8016
61.229859 94.485 178.6593
61.673556 94.461 178.5201
62.120468 94.437 178.3839
62.570618 94.412 178.2502
63.024031 94.386 178.1177
63.480729 94.361 177.9851
63.940736 94.336 177.8513
64.404077 94.310 177.7167
64.870776 94.283 177.5827
65.340856 94.257 177.4511
65.814343 94.230 177.3235
66.291261 94.204 177.2011
66.771635 94.178 177.0842
67.255489 94.152 176.9725
67.742850 94.127 176.8650
68.233743 94.103 176.7601
68.728193 94.079 176.6568
69.226226 94.055 176.5547
69.727867 94.031 176.4541
70.233144 94.006 176.3557
70.742083 93.980 176.2603
71.254709 93.954 176.1687
71.771050 93.928 176.0817
72.291132 93.902 175.9981
72.814984 93.876 175.9146
73.342631 93.851 175.8271
73.874102 93.827 175.7332
74.409424 93.802 175.6329
74.948626 93.777 175.5276
75.491734 93.752 175.4187
76.038779 93.727 175.3075
76.589787 93.701 175.1953
77.144788 93.676 175.0840
77.703811 93.650 174.9745
78.266885 93.624 174.8669
78.834039 93.597 174.7609
79.405303 93.571 174.6563
79.980706 93.543 174.5527
80.560280 93.515 174.4492
81.144053 93.486 174.3441
81.732056 93.456 174.2365
82.324320 93.423 174.1260
82.920876 93.388 174.0143
83.521755 93.350 173.9041
84.126988 93.310 173.7982
84.736607 93.268 173.6989
85.350643 93.224 173.6082
85.969129 93.178 173.5275
