* Measurement data measured by REW V5.31.3
* Source: EXCL: Microphone (USB Sound Device        ), MICROPHONE (Master Volume), R, volume: 0.390
* Format: 256k Log Swept Sine, 1 sweep at -17.0 dBFS with no timing reference
* Dated: Jul 13, 2025 3:44:34 PM
* REW Settings:
*  C-weighting compensation: Off
*  Target level: 75.0 dB
* Note: EarAcoustic STA-K L
* Measurement: L EarAcoustic STA-K
* Smoothing: 1/12 octave
* Frequency Step: 96 ppo
* Start Frequency: 0.36621094 Hz
*
* Freq(Hz) SPL(dB) Phase(degrees)
0.366211 91.989 156.2203
0.368865 91.983 156.1951
0.371538 91.975 156.1574
0.374230 91.964 156.1100
0.376942 91.952 156.0555
0.379673 91.939 155.9955
0.382424 91.925 155.9312
0.385196 91.912 155.8635
0.387987 91.898 155.7927
0.390798 91.883 155.7190
0.393630 91.869 155.6425
0.396483 91.854 155.5633
0.399356 91.840 155.4813
0.402250 91.825 155.3967
0.405165 91.810 155.3092
0.408101 91.795 155.2190
0.411058 91.780 155.1260
0.414037 91.765 155.0302
0.417037 91.750 154.9315
0.420059 91.734 154.8299
0.423103 91.719 154.7254
0.426169 91.703 154.6179
0.429257 91.687 154.5075
0.432368 91.672 154.3941
0.435501 91.656 154.2777
0.438656 91.639 154.1583
0.441835 91.623 154.0357
0.445037 91.607 153.9101
0.448262 91.590 153.7814
0.451510 91.574 153.6495
0.454782 91.557 153.5145
0.458077 91.540 153.3762
0.461397 91.524 153.2348
0.464740 91.506 153.0901
0.468108 91.489 152.9422
0.471500 91.472 152.7910
0.474917 91.455 152.6365
0.478358 91.437 152.4788
0.481825 91.419 152.3177
0.485316 91.402 152.1533
0.488833 91.384 151.9855
0.492375 91.366 151.8144
0.495943 91.347 151.6399
0.499537 91.329 151.4620
0.503157 91.311 151.2807
0.506803 91.292 151.0961
0.510475 91.273 150.9081
0.514175 91.255 150.7166
0.517900 91.236 150.5218
0.521653 91.216 150.3236
0.525434 91.197 150.1219
0.529241 91.178 149.9169
0.533076 91.158 149.7086
0.536939 91.138 149.4968
0.540830 91.119 149.2818
0.544749 91.099 149.0633
0.548696 91.079 148.8416
0.552673 91.058 148.6166
0.556677 91.038 148.3883
0.560711 91.017 148.1568
0.564774 90.997 147.9221
0.568867 90.976 147.6842
0.572989 90.955 147.4432
0.577141 90.934 147.1991
0.581324 90.912 146.9521
0.585536 90.891 146.7020
0.589779 90.869 146.4490
0.594053 90.847 146.1932
0.598358 90.825 145.9346
0.602694 90.803 145.6732
0.607061 90.781 145.4093
0.611460 90.759 145.1428
0.615891 90.736 144.8738
0.620354 90.713 144.6025
0.624849 90.690 144.3290
0.629377 90.667 144.0533
0.633938 90.644 143.7755
0.638532 90.621 143.4959
0.643159 90.597 143.2145
0.647819 90.573 142.9314
0.652514 90.549 142.6469
0.657242 90.525 142.3610
0.662005 90.501 142.0740
0.666802 90.477 141.7860
0.671634 90.452 141.4971
0.676501 90.427 141.2076
0.681403 90.402 140.9177
0.686341 90.377 140.6276
0.691314 90.352 140.3375
0.696324 90.326 140.0475
0.701370 90.300 139.7580
0.706452 90.274 139.4689
0.711571 90.247 139.1805
0.716728 90.219 138.8926
0.721921 90.191 138.6050
0.727153 90.160 138.3171
0.732422 90.128 138.0282
0.737729 90.094 137.7372
0.743075 90.058 137.4428
0.748460 90.020 137.1442
0.753883 89.981 136.8406
0.759346 89.941 136.5313
0.764849 89.900 136.2161
0.770391 89.858 135.8946
0.775974 89.816 135.5667
0.781597 89.773 135.2323
0.787261 89.730 134.8912
0.792966 89.685 134.5434
0.798712 89.641 134.1887
0.804500 89.596 133.8271
0.810329 89.550 133.4586
0.816201 89.503 133.0831
0.822116 89.456 132.7005
0.828073 89.408 132.3107
0.834074 89.359 131.9139
0.840118 89.310 131.5098
0.846206 89.260 131.0985
0.852338 89.209 130.6799
0.858514 89.157 130.2542
0.864735 89.104 129.8211
0.871001 89.050 129.3808
0.877313 88.996 128.9333
0.883670 88.940 128.4785
0.890074 88.884 128.0167
0.896524 88.826 127.5477
0.903020 88.768 127.0717
0.909564 88.708 126.5888
0.916155 88.647 126.0991
0.922794 88.586 125.6026
0.929481 88.522 125.0997
0.936216 88.458 124.5903
0.943000 88.392 124.0749
0.949834 88.325 123.5534
0.956717 88.257 123.0262
0.963649 88.187 122.4937
0.970632 88.116 121.9559
0.977666 88.043 121.4134
0.984750 87.969 120.8665
0.991886 87.893 120.3156
0.999074 87.815 119.7611
1.006314 87.736 119.2035
1.013606 87.655 118.6434
1.020951 87.572 118.0813
1.028349 87.487 117.5179
1.035801 87.401 116.9537
1.043307 87.312 116.3895
1.050867 87.221 115.8260
1.058482 87.128 115.2640
1.066152 87.033 114.7041
1.073878 86.936 114.1469
1.081660 86.836 113.5929
1.089498 86.734 113.0422
1.097393 86.630 112.4946
1.105345 86.523 111.9493
1.113355 86.414 111.4055
1.121423 86.303 110.8621
1.129549 86.189 110.3181
1.137734 86.072 109.7727
1.145979 85.953 109.2252
1.154283 85.832 108.6748
1.162647 85.708 108.1208
1.171072 85.582 107.5628
1.179558 85.453 106.9999
1.188106 85.322 106.4315
1.196715 85.188 105.8570
1.205387 85.051 105.2756
1.214122 84.912 104.6867
1.222920 84.771 104.0893
1.231782 84.626 103.4828
1.240708 84.479 102.8662
1.249699 84.330 102.2387
1.258754 84.177 101.5993
1.267876 84.022 100.9471
1.277063 83.865 100.2811
1.286318 83.704 99.6001
1.295639 83.541 98.9030
1.305027 83.376 98.1888
1.314484 83.207 97.4562
1.324009 83.036 96.7040
1.333604 82.862 95.9309
1.343268 82.685 95.1358
1.353002 82.505 94.3173
1.362806 82.323 93.4740
1.372681 82.138 92.6049
1.382628 81.950 91.7087
1.392647 81.759 90.7842
1.402739 81.565 89.8305
1.412904 81.369 88.8466
1.423142 81.169 87.8319
1.433455 80.965 86.7858
1.443843 80.757 85.7079
1.454305 80.544 84.5979
1.464844 80.325 83.4552
1.475459 80.098 82.2788
1.486150 79.862 81.0668
1.496920 79.615 79.8165
1.507767 79.357 78.5244
1.518693 79.088 77.1861
1.529698 78.808 75.7967
1.540783 78.518 74.3504
1.551948 78.218 72.8407
1.563194 77.909 71.2605
1.574521 77.593 69.6019
1.585931 77.271 67.8561
1.597423 76.943 66.0133
1.608999 76.611 64.0629
1.620658 76.277 61.9932
1.632402 75.942 59.7916
1.644232 75.608 57.4448
1.656146 75.276 54.9386
1.668147 74.948 52.2586
1.680235 74.626 49.3907
1.692411 74.312 46.3217
1.704675 74.007 43.0406
1.717028 73.715 39.5394
1.729470 73.437 35.8158
1.742003 73.175 31.8739
1.754626 72.933 27.7263
1.767341 72.712 23.3955
1.780147 72.516 18.9135
1.793047 72.347 14.3207
1.806040 72.208 9.6622
1.819128 72.102 4.9829
1.832310 72.029 0.3227
1.845587 71.991 -4.2870
1.858961 71.990 -8.8234
1.872432 72.024 -13.2692
1.886001 72.092 -17.6102
1.899667 72.193 -21.8335
1.913433 72.325 -25.9276
1.927299 72.485 -29.8817
1.941265 72.671 -33.6866
1.955332 72.881 -37.3347
1.969501 73.111 -40.8204
1.983773 73.359 -44.1397
1.998148 73.621 -47.2902
2.012627 73.896 -50.2714
2.027212 74.178 -53.0838
2.041902 74.466 -55.7290
2.056698 74.756 -58.2093
2.071602 75.045 -60.5279
2.086614 75.329 -62.6884
2.101734 75.605 -64.6948
2.116964 75.871 -66.5518
2.132304 76.123 -68.2650
2.147756 76.359 -69.8415
2.163320 76.577 -71.2902
2.178996 76.777 -72.6231
2.194786 76.959 -73.8550
2.210690 77.125 -75.0032
2.226710 77.278 -76.0847
2.242845 77.419 -77.1142
2.259098 77.550 -78.1020
2.275468 77.673 -79.0550
2.291957 77.788 -79.9770
2.308566 77.897 -80.8695
2.325295 77.999 -81.7325
2.342145 78.096 -82.5647
2.359117 78.187 -83.3642
2.376212 78.273 -84.1279
2.393431 78.355 -84.8527
2.410775 78.432 -85.5346
2.428244 78.506 -86.1693
2.445840 78.576 -86.7521
2.463564 78.643 -87.2782
2.481416 78.708 -87.7426
2.499397 78.769 -88.1409
2.517509 78.828 -88.4691
2.535752 78.884 -88.7247
2.554127 78.936 -88.9067
2.572635 78.983 -89.0163
2.591277 79.024 -89.0561
2.610055 79.059 -89.0293
2.628968 79.086 -88.9388
2.648019 79.107 -88.7871
2.667208 79.122 -88.5760
2.686535 79.132 -88.3069
2.706003 79.139 -87.9810
2.725612 79.143 -87.5996
2.745363 79.147 -87.1638
2.765257 79.152 -86.6752
2.785295 79.160 -86.1357
2.805478 79.172 -85.5475
2.825808 79.191 -84.9132
2.846285 79.218 -84.2353
2.866910 79.255 -83.5163
2.887685 79.304 -82.7577
2.908611 79.365 -81.9597
2.929688 79.439 -81.1213
2.950917 79.526 -80.2405
2.972301 79.624 -79.3164
2.993839 79.735 -78.3509
3.015534 79.855 -77.3496
3.037386 79.986 -76.3209
3.059396 80.125 -75.2754
3.081565 80.274 -74.2252
3.103896 80.430 -73.1828
3.126388 80.592 -72.1611
3.149043 80.762 -71.1722
3.171862 80.937 -70.2272
3.194847 81.118 -69.3361
3.217998 81.304 -68.5062
3.241317 81.494 -67.7428
3.264805 81.690 -67.0472
3.288463 81.891 -66.4175
3.312293 82.099 -65.8487
3.336295 82.314 -65.3349
3.360471 82.536 -64.8710
3.384822 82.765 -64.4545
3.409350 83.001 -64.0847
3.434056 83.241 -63.7625
3.458940 83.485 -63.4898
3.484005 83.731 -63.2686
3.509252 83.977 -63.1010
3.534681 84.222 -62.9890
3.560295 84.465 -62.9343
3.586094 84.703 -62.9382
3.612081 84.935 -63.0013
3.638255 85.162 -63.1233
3.664620 85.383 -63.3029
3.691175 85.599 -63.5373
3.717923 85.809 -63.8226
3.744864 86.014 -64.1542
3.772001 86.215 -64.5267
3.799335 86.412 -64.9351
3.826866 86.604 -65.3743
3.854597 86.791 -65.8399
3.882529 86.974 -66.3282
3.910664 87.151 -66.8360
3.939002 87.323 -67.3615
3.967546 87.489 -67.9039
3.996296 87.649 -68.4637
4.025255 87.803 -69.0426
4.054423 87.950 -69.6429
4.083804 88.090 -70.2660
4.113396 88.225 -70.9116
4.143204 88.352 -71.5773
4.173227 88.474 -72.2592
4.203468 88.589 -72.9522
4.233928 88.698 -73.6510
4.264609 88.801 -74.3507
4.295512 88.899 -75.0467
4.326639 88.991 -75.7361
4.357992 89.077 -76.4179
4.389572 89.158 -77.0928
4.421380 89.232 -77.7634
4.453419 89.301 -78.4323
4.485691 89.363 -79.1008
4.518196 89.419 -79.7682
4.550936 89.469 -80.4315
4.583914 89.513 -81.0867
4.617131 89.553 -81.7284
4.650589 89.588 -82.3513
4.684289 89.619 -82.9506
4.718233 89.646 -83.5225
4.752424 89.669 -84.0652
4.786862 89.688 -84.5785
4.821549 89.702 -85.0636
4.856488 89.712 -85.5218
4.891680 89.718 -85.9537
4.927127 89.721 -86.3589
4.962831 89.721 -86.7360
4.998794 89.720 -87.0831
5.035017 89.718 -87.3974
5.071503 89.716 -87.6763
5.108253 89.715 -87.9171
5.145270 89.715 -88.1179
5.182555 89.715 -88.2782
5.220110 89.716 -88.3988
5.257937 89.718 -88.4823
5.296038 89.721 -88.5324
5.334415 89.728 -88.5536
5.373071 89.738 -88.5502
5.412006 89.752 -88.5260
5.451224 89.772 -88.4839
5.490725 89.798 -88.4252
5.530514 89.830 -88.3506
5.570590 89.868 -88.2613
5.610957 89.912 -88.1605
5.651616 89.962 -88.0537
5.692570 90.017 -87.9481
5.733821 90.077 -87.8515
5.775370 90.143 -87.7713
5.817221 90.213 -87.7136
5.859375 90.289 -87.6819
5.901834 90.369 -87.6781
5.944602 90.454 -87.7026
5.987679 90.543 -87.7562
6.031068 90.635 -87.8407
6.074771 90.730 -87.9586
6.118792 90.826 -88.1126
6.163131 90.921 -88.3056
6.207792 91.016 -88.5396
6.252776 91.110 -88.8156
6.298086 91.203 -89.1327
6.343725 91.294 -89.4884
6.389694 91.382 -89.8792
6.435996 91.468 -90.3012
6.482634 91.550 -90.7506
6.529610 91.627 -91.2248
6.576926 91.699 -91.7220
6.624585 91.765 -92.2413
6.672590 91.826 -92.7810
6.720942 91.881 -93.3379
6.769645 91.929 -93.9068
6.818700 91.972 -94.4810
6.868111 92.008 -95.0541
6.917881 92.039 -95.6206
6.968010 92.062 -96.1768
7.018504 92.079 -96.7205
7.069362 92.090 -97.2493
7.120590 92.095 -97.7594
7.172189 92.094 -98.2454
7.224161 92.088 -98.7011
7.276511 92.079 -99.1204
7.329239 92.065 -99.4985
7.382350 92.049 -99.8323
7.435845 92.029 -100.1202
7.489729 92.008 -100.3612
7.544002 91.986 -100.5542
7.598669 91.965 -100.6978
7.653732 91.945 -100.7908
7.709194 91.929 -100.8323
7.765058 91.917 -100.8229
7.821327 91.909 -100.7655
7.878004 91.906 -100.6653
7.935091 91.910 -100.5290
7.992592 91.921 -100.3637
8.050510 91.940 -100.1757
8.108847 91.969 -99.9710
8.167607 92.006 -99.7558
8.226793 92.052 -99.5379
8.286408 92.107 -99.3268
8.346454 92.169 -99.1320
8.406936 92.239 -98.9620
8.467856 92.315 -98.8229
8.529218 92.397 -98.7187
8.591024 92.485 -98.6528
8.653278 92.576 -98.6284
8.715983 92.669 -98.6482
8.779143 92.763 -98.7141
8.842760 92.856 -98.8261
8.906839 92.949 -98.9827
8.971381 93.040 -99.1805
9.036392 93.127 -99.4150
9.101873 93.211 -99.6819
9.167829 93.290 -99.9768
9.234263 93.364 -100.2955
9.301178 93.432 -100.6328
9.368578 93.494 -100.9820
9.436467 93.550 -101.3360
9.504847 93.601 -101.6884
9.573723 93.645 -102.0335
9.643099 93.684 -102.3667
9.712976 93.719 -102.6834
9.783361 93.749 -102.9786
9.854255 93.776 -103.2477
9.925663 93.800 -103.4872
9.997588 93.822 -103.6954
10.070035 93.844 -103.8718
10.143007 93.866 -104.0170
10.216507 93.889 -104.1322
10.290540 93.914 -104.2195
10.365109 93.943 -104.2822
10.440219 93.975 -104.3251
10.515873 94.011 -104.3547
10.592076 94.052 -104.3777
10.668830 94.098 -104.4007
10.746141 94.149 -104.4300
10.824012 94.204 -104.4724
10.902447 94.264 -104.5350
10.981451 94.326 -104.6242
11.061027 94.392 -104.7449
11.141180 94.459 -104.9006
11.221913 94.527 -105.0941
11.303232 94.595 -105.3271
11.385140 94.662 -105.6003
11.467641 94.726 -105.9133
11.550741 94.786 -106.2639
11.634442 94.843 -106.6489
11.718750 94.895 -107.0647
11.803669 94.941 -107.5073
11.889203 94.981 -107.9719
11.975357 95.014 -108.4532
12.062136 95.042 -108.9453
12.149543 95.063 -109.4428
12.237583 95.077 -109.9408
12.326262 95.086 -110.4343
12.415583 95.089 -110.9183
12.505552 95.087 -111.3887
12.596172 95.081 -111.8423
12.687449 95.072 -112.2764
12.779387 95.059 -112.6893
12.871992 95.045 -113.0799
12.965268 95.030 -113.4483
13.059220 95.015 -113.7953
13.153852 95.000 -114.1229
13.249170 94.986 -114.4337
13.345179 94.975 -114.7308
13.441884 94.965 -115.0181
13.539289 94.959 -115.3002
13.637401 94.956 -115.5816
13.736223 94.956 -115.8669
13.835761 94.960 -116.1607
13.936021 94.966 -116.4677
14.037007 94.976 -116.7915
14.138725 94.988 -117.1356
14.241180 95.002 -117.5027
14.344377 95.018 -117.8947
14.448323 95.034 -118.3123
14.553021 95.051 -118.7555
14.658478 95.067 -119.2230
14.764700 95.082 -119.7126
14.871691 95.095 -120.2209
14.979457 95.107 -120.7433
15.088005 95.116 -121.2747
15.197339 95.123 -121.8091
15.307465 95.128 -122.3400
15.418389 95.130 -122.8606
15.530117 95.132 -123.3649
15.642655 95.133 -123.8472
15.756008 95.135 -124.3030
15.870182 95.139 -124.7296
15.985184 95.146 -125.1268
16.101019 95.160 -125.4971
16.217694 95.180 -125.8454
16.335214 95.208 -126.1798
16.453586 95.246 -126.5114
16.572815 95.293 -126.8526
16.692909 95.349 -127.2171
16.813872 95.414 -127.6185
16.935713 95.485 -128.0692
17.058436 95.561 -128.5787
17.182048 95.639 -129.1530
17.306556 95.716 -129.7939
17.431967 95.787 -130.4981
17.558286 95.852 -131.2570
17.685521 95.906 -132.0578
17.813677 95.947 -132.8832
17.942762 95.975 -133.7122
18.072783 95.987 -134.5214
18.203746 95.985 -135.2867
18.335658 95.971 -135.9836
18.468526 95.945 -136.5902
18.602356 95.912 -137.0889
18.737156 95.877 -137.4678
18.872934 95.844 -137.7233
19.009695 95.817 -137.8618
19.147447 95.803 -137.8994
19.286197 95.805 -137.8617
19.425953 95.825 -137.7819
19.566721 95.864 -137.6970
19.708510 95.920 -137.6438
19.851326 95.990 -137.6547
19.995177 96.069 -137.7541
20.140070 96.152 -137.9557
20.286013 96.234 -138.2627
20.433014 96.309 -138.6674
20.581080 96.373 -139.1534
20.730219 96.423 -139.6977
20.880439 96.456 -140.2732
21.031747 96.474 -140.8513
21.184152 96.476 -141.4046
21.337661 96.465 -141.9092
21.492282 96.444 -142.3468
21.648024 96.418 -142.7064
21.804895 96.391 -142.9851
21.962902 96.367 -143.1888
22.122054 96.349 -143.3310
22.282360 96.341 -143.4318
22.443827 96.343 -143.5149
22.606464 96.357 -143.6052
22.770280 96.380 -143.7257
22.935283 96.412 -143.8957
23.101481 96.448 -144.1285
23.268884 96.487 -144.4312
23.437500 96.524 -144.8042
23.607338 96.558 -145.2417
23.778406 96.585 -145.7330
23.950714 96.603 -146.2629
24.124271 96.612 -146.8136
24.299086 96.612 -147.3657
24.475167 96.602 -147.8994
24.652524 96.584 -148.3965
24.831166 96.561 -148.8419
25.011103 96.535 -149.2252
25.192344 96.510 -149.5421
25.374898 96.488 -149.7953
25.558775 96.473 -149.9946
25.743984 96.467 -150.1556
25.930536 96.471 -150.2979
26.118439 96.485 -150.4418
26.307704 96.506 -150.6053
26.498341 96.533 -150.8013
26.690359 96.562 -151.0363
26.883768 96.592 -151.3095
27.078579 96.618 -151.6147
27.274801 96.640 -151.9415
27.472446 96.656 -152.2784
27.671522 96.667 -152.6149
27.872042 96.673 -152.9432
28.074014 96.675 -153.2585
28.277450 96.673 -153.5586
28.482360 96.666 -153.8421
28.688755 96.656 -154.1068
28.896645 96.641 -154.3481
29.106042 96.622 -154.5584
29.316957 96.599 -154.7286
29.529400 96.574 -154.8503
29.743382 96.550 -154.9195
29.958915 96.530 -154.9396
30.176009 96.518 -154.9240
30.394677 96.516 -154.8956
30.614929 96.525 -154.8839
30.836778 96.545 -154.9193
31.060234 96.572 -155.0272
31.285309 96.601 -155.2218
31.512015 96.628 -155.5037
31.740364 96.649 -155.8595
31.970368 96.660 -156.2655
32.202039 96.661 -156.6924
32.435388 96.653 -157.1119
32.670428 96.638 -157.5020
32.907171 96.622 -157.8510
33.145630 96.607 -158.1584
33.385817 96.597 -158.4336
33.627745 96.593 -158.6918
33.871425 96.597 -158.9490
34.116871 96.606 -159.2176
34.364096 96.619 -159.5036
34.613113 96.635 -159.8065
34.863934 96.651 -160.1213
35.116572 96.669 -160.4417
35.371041 96.687 -160.7628
35.627354 96.707 -161.0835
35.885525 96.728 -161.4066
36.145566 96.751 -161.7374
36.407492 96.775 -162.0818
36.671316 96.797 -162.4439
36.937051 96.817 -162.8240
37.204712 96.832 -163.2180
37.474313 96.842 -163.6186
37.745867 96.845 -164.0165
38.019389 96.842 -164.4026
38.294893 96.835 -164.7706
38.572394 96.823 -165.1178
38.851905 96.808 -165.4461
39.133442 96.792 -165.7610
39.417019 96.774 -166.0694
39.702651 96.755 -166.3771
39.990353 96.733 -166.6861
40.280140 96.708 -166.9935
40.572026 96.679 -167.2920
40.866028 96.648 -167.5723
41.162160 96.616 -167.8271
41.460438 96.586 -168.0542
41.760877 96.559 -168.2590
42.063494 96.538 -168.4532
42.368303 96.522 -168.6504
42.675322 96.511 -168.8609
42.984565 96.502 -169.0864
43.296048 96.494 -169.3191
43.609789 96.486 -169.5445
43.925804 96.479 -169.7483
44.244108 96.476 -169.9251
44.564719 96.480 -170.0836
44.887654 96.492 -170.2455
45.212928 96.510 -170.4380
45.540560 96.531 -170.6811
45.870565 96.548 -170.9772
46.202962 96.557 -171.3074
46.537768 96.554 -171.6379
46.875000 96.542 -171.9334
47.214676 96.524 -172.1739
47.556813 96.507 -172.3643
47.901429 96.494 -172.5327
48.248542 96.484 -172.7155
48.598171 96.475 -172.9384
48.950334 96.459 -173.2031
49.305048 96.435 -173.4875
49.662333 96.400 -173.7584
50.022206 96.359 -173.9890
50.384688 96.317 -174.1705
50.749796 96.277 -174.3120
51.117550 96.243 -174.4304
51.487969 96.214 -174.5387
51.861072 96.191 -174.6408
52.236879 96.174 -174.7363
52.615409 96.165 -174.8291
52.996681 96.165 -174.9321
53.380717 96.174 -175.0633
53.767536 96.189 -175.2368
54.157158 96.207 -175.4558
54.549603 96.225 -175.7127
54.944892 96.241 -175.9934
55.343045 96.254 -176.2832
55.744084 96.263 -176.5687
56.148028 96.269 -176.8388
56.554900 96.273 -177.0861
56.964720 96.276 -177.3110
57.377510 96.282 -177.5245
57.793291 96.289 -177.7455
58.212085 96.296 -177.9936
58.633914 96.301 -178.2799
59.058799 96.301 -178.6035
59.486764 96.293 -178.9529
59.917829 96.278 -179.3121
60.352019 96.256 -179.6657
60.789354 96.230 179.9977
61.229859 96.201 179.6837
61.673556 96.174 179.3910
62.120468 96.150 179.1117
62.570618 96.130 178.8345
63.024031 96.115 178.5493
63.480729 96.102 178.2513
63.940736 96.090 177.9447
64.404077 96.078 177.6422
64.870776 96.063 177.3625
65.340856 96.046 177.1244
65.814343 96.030 176.9389
66.291261 96.016 176.8054
66.771635 96.005 176.7142
67.255489 95.995 176.6536
67.742850 95.987 176.6168
68.233743 95.978 176.6007
68.728193 95.969 176.6003
69.226226 95.961 176.6014
69.727867 95.954 176.5830
70.233144 95.944 176.5251
70.742083 95.931 176.4188
71.254709 95.912 176.2694
71.771050 95.887 176.0891
72.291132 95.858 175.8868
72.814984 95.829 175.6624
73.342631 95.800 175.4095
73.874102 95.774 175.1221
74.409424 95.750 174.8005
74.948626 95.729 174.4507
75.491734 95.711 174.0817
76.038779 95.695 173.7043
76.589787 95.682 173.3312
77.144788 95.671 172.9759
77.703811 95.663 172.6482
78.266885 95.658 172.3511
78.834039 95.655 172.0812
79.405303 95.653 171.8347
79.980706 95.650 171.6111
80.560280 95.645 171.4096
81.144053 95.639 171.2256
81.732056 95.631 171.0507
82.324320 95.619 170.8770
82.920876 95.604 170.6992
83.521755 95.584 170.5163
84.126988 95.561 170.3337
84.736607 95.534 170.1617
85.350643 95.506 170.0082
85.969129 95.479 169.8714
86.592097 95.455 169.7416
