* Measurement data measured by REW V5.31.3
* Source: EXCL: Microphone (USB Sound Device        ), MICROPHONE (Master Volume), R, volume: 0.390
* Format: 256k Log Swept Sine, 1 sweep at -17.0 dBFS with no timing reference
* Dated: Jun 18, 2025 11:27:44 PM
* REW Settings:
*  C-weighting compensation: Off
*  Target level: 75.0 dB
* Note: EarAcoustic VSA Max L
* Measurement: L EarAcoustic VSA Max
* Smoothing: 1/12 octave
* Frequency Step: 96 ppo
* Start Frequency: 0.36621094 Hz
*
* Freq(Hz) SPL(dB) Phase(degrees)
0.366211 93.899 158.8134
0.368865 93.893 158.7912
0.371538 93.885 158.7579
0.374230 93.874 158.7161
0.376942 93.862 158.6679
0.379673 93.850 158.6150
0.382424 93.836 158.5583
0.385196 93.823 158.4986
0.387987 93.809 158.4361
0.390798 93.795 158.3711
0.393630 93.781 158.3036
0.396483 93.766 158.2338
0.399356 93.752 158.1616
0.402250 93.737 158.0869
0.405165 93.723 158.0099
0.408101 93.708 157.9304
0.411058 93.693 157.8484
0.414037 93.678 157.7640
0.417037 93.663 157.6771
0.420059 93.648 157.5876
0.423103 93.633 157.4956
0.426169 93.617 157.4010
0.429257 93.602 157.3038
0.432368 93.586 157.2040
0.435501 93.570 157.1015
0.438656 93.555 156.9964
0.441835 93.539 156.8886
0.445037 93.523 156.7781
0.448262 93.506 156.6649
0.451510 93.490 156.5489
0.454782 93.474 156.4302
0.458077 93.457 156.3087
0.461397 93.440 156.1844
0.464740 93.424 156.0572
0.468108 93.407 155.9272
0.471500 93.390 155.7944
0.474917 93.373 155.6587
0.478358 93.355 155.5202
0.481825 93.338 155.3787
0.485316 93.320 155.2343
0.488833 93.303 155.0871
0.492375 93.285 154.9369
0.495943 93.267 154.7838
0.499537 93.249 154.6277
0.503157 93.231 154.4687
0.506803 93.213 154.3067
0.510475 93.194 154.1418
0.514175 93.176 153.9740
0.517900 93.157 153.8031
0.521653 93.138 153.6294
0.525434 93.119 153.4527
0.529241 93.100 153.2731
0.533076 93.081 153.0905
0.536939 93.061 152.9051
0.540830 93.042 152.7167
0.544749 93.022 152.5254
0.548696 93.002 152.3313
0.552673 92.982 152.1343
0.556677 92.962 151.9346
0.560711 92.942 151.7320
0.564774 92.922 151.5266
0.568867 92.901 151.3186
0.572989 92.880 151.1078
0.577141 92.859 150.8944
0.581324 92.838 150.6783
0.585536 92.817 150.4598
0.589779 92.796 150.2387
0.594053 92.775 150.0151
0.598358 92.753 149.7892
0.602694 92.731 149.5610
0.607061 92.709 149.3305
0.611460 92.687 149.0978
0.615891 92.665 148.8630
0.620354 92.643 148.6263
0.624849 92.620 148.3876
0.629377 92.597 148.1471
0.633938 92.574 147.9049
0.638532 92.551 147.6610
0.643159 92.528 147.4158
0.647819 92.505 147.1691
0.652514 92.481 146.9212
0.657242 92.457 146.6723
0.662005 92.433 146.4224
0.666802 92.409 146.1717
0.671634 92.385 145.9204
0.676501 92.361 145.6686
0.681403 92.336 145.4166
0.686341 92.311 145.1646
0.691314 92.286 144.9126
0.696324 92.261 144.6609
0.701370 92.235 144.4097
0.706452 92.209 144.1591
0.711571 92.183 143.9091
0.716728 92.156 143.6599
0.721921 92.128 143.4110
0.727153 92.098 143.1621
0.732422 92.066 142.9125
0.737729 92.033 142.6613
0.743075 91.997 142.4074
0.748460 91.960 142.1500
0.753883 91.921 141.8884
0.759346 91.882 141.6222
0.764849 91.842 141.3510
0.770391 91.801 141.0746
0.775974 91.759 140.7929
0.781597 91.717 140.5057
0.787261 91.675 140.2130
0.792966 91.631 139.9148
0.798712 91.588 139.6109
0.804500 91.543 139.3013
0.810329 91.498 138.9859
0.816201 91.453 138.6648
0.822116 91.407 138.3378
0.828073 91.360 138.0050
0.834074 91.312 137.6664
0.840118 91.264 137.3218
0.846206 91.215 136.9713
0.852338 91.165 136.6149
0.858514 91.114 136.2525
0.864735 91.063 135.8843
0.871001 91.010 135.5101
0.877313 90.957 135.1301
0.883670 90.903 134.7443
0.890074 90.848 134.3526
0.896524 90.791 133.9553
0.903020 90.734 133.5523
0.909564 90.675 133.1437
0.916155 90.616 132.7296
0.922794 90.555 132.3103
0.929481 90.493 131.8857
0.936216 90.430 131.4561
0.943000 90.365 131.0216
0.949834 90.299 130.5824
0.956717 90.232 130.1388
0.963649 90.163 129.6909
0.970632 90.092 129.2392
0.977666 90.020 128.7838
0.984750 89.947 128.3252
0.991886 89.872 127.8636
0.999074 89.795 127.3995
1.006314 89.716 126.9333
1.013606 89.635 126.4654
1.020951 89.553 125.9965
1.028349 89.468 125.5270
1.035801 89.382 125.0576
1.043307 89.293 124.5889
1.050867 89.202 124.1215
1.058482 89.109 123.6561
1.066152 89.014 123.1934
1.073878 88.917 122.7340
1.081660 88.817 122.2784
1.089498 88.715 121.8269
1.097393 88.612 121.3793
1.105345 88.508 120.9354
1.113355 88.402 120.4946
1.121423 88.296 120.0562
1.129549 88.189 119.6197
1.137734 88.082 119.1844
1.145979 87.974 118.7499
1.154283 87.865 118.3158
1.162647 87.755 117.8816
1.171072 87.645 117.4471
1.179558 87.533 117.0118
1.188106 87.420 116.5754
1.196715 87.306 116.1374
1.205387 87.189 115.6974
1.214122 87.071 115.2551
1.222920 86.950 114.8098
1.231782 86.826 114.3613
1.240708 86.700 113.9089
1.249699 86.571 113.4522
1.258754 86.437 112.9906
1.267876 86.301 112.5234
1.277063 86.160 112.0502
1.286318 86.014 111.5701
1.295639 85.864 111.0827
1.305027 85.709 110.5871
1.314484 85.548 110.0825
1.324009 85.381 109.5683
1.333604 85.208 109.0435
1.343268 85.028 108.5073
1.353002 84.842 107.9588
1.362806 84.647 107.3971
1.372681 84.445 106.8213
1.382628 84.234 106.2302
1.392647 84.014 105.6231
1.402739 83.784 104.9990
1.412904 83.545 104.3569
1.423142 83.294 103.6963
1.433455 83.031 103.0164
1.443843 82.755 102.3171
1.454305 82.463 101.5985
1.464844 82.154 100.8608
1.475459 81.824 100.1046
1.486150 81.471 99.3301
1.496920 81.093 98.5368
1.507767 80.689 97.7237
1.518693 80.258 96.8889
1.529698 79.802 96.0300
1.540783 79.320 95.1438
1.551948 78.816 94.2265
1.563194 78.289 93.2737
1.574521 77.743 92.2800
1.585931 77.180 91.2395
1.597423 76.601 90.1448
1.608999 76.011 88.9874
1.620658 75.410 87.7572
1.632402 74.803 86.4420
1.644232 74.192 85.0273
1.656146 73.582 83.4956
1.668147 72.974 81.8254
1.680235 72.374 79.9906
1.692411 71.784 77.9590
1.704675 71.211 75.6910
1.717028 70.657 73.1373
1.729470 70.129 70.2372
1.742003 69.632 66.9157
1.754626 69.171 63.0819
1.767341 68.753 58.6284
1.780147 68.384 53.4344
1.793047 68.071 47.3767
1.806040 67.820 40.3533
1.819128 67.637 32.3225
1.832310 67.525 23.3546
1.845587 67.489 13.6726
1.858961 67.528 3.6495
1.872432 67.642 -6.2628
1.886001 67.826 -15.6485
1.899667 68.077 -24.2229
1.913433 68.390 -31.8592
1.927299 68.758 -38.5562
1.941265 69.177 -44.3875
1.955332 69.639 -49.4577
1.969501 70.138 -53.8760
1.983773 70.668 -57.7423
1.998148 71.222 -61.1428
2.012627 71.794 -64.1494
2.027212 72.377 -66.8209
2.041902 72.965 -69.2051
2.056698 73.551 -71.3408
2.071602 74.129 -73.2593
2.086614 74.693 -74.9864
2.101734 75.237 -76.5434
2.116964 75.755 -77.9483
2.132304 76.243 -79.2169
2.147756 76.696 -80.3640
2.163320 77.111 -81.4045
2.178996 77.489 -82.3541
2.194786 77.831 -83.2305
2.210690 78.139 -84.0514
2.226710 78.419 -84.8336
2.242845 78.673 -85.5900
2.259098 78.905 -86.3289
2.275468 79.118 -87.0551
2.291957 79.314 -87.7701
2.308566 79.493 -88.4738
2.325295 79.658 -89.1648
2.342145 79.809 -89.8406
2.359117 79.947 -90.4984
2.376212 80.074 -91.1351
2.393431 80.191 -91.7471
2.410775 80.300 -92.3308
2.428244 80.400 -92.8821
2.445840 80.494 -93.3972
2.463564 80.584 -93.8721
2.481416 80.669 -94.3030
2.499397 80.751 -94.6869
2.517509 80.831 -95.0214
2.535752 80.908 -95.3059
2.554127 80.983 -95.5415
2.572635 81.053 -95.7316
2.591277 81.117 -95.8804
2.610055 81.173 -95.9925
2.628968 81.222 -96.0714
2.648019 81.262 -96.1190
2.667208 81.294 -96.1366
2.686535 81.318 -96.1241
2.706003 81.336 -96.0810
2.725612 81.348 -96.0063
2.745363 81.356 -95.8988
2.765257 81.361 -95.7569
2.785295 81.364 -95.5790
2.805478 81.367 -95.3636
2.825808 81.371 -95.1088
2.846285 81.377 -94.8128
2.866910 81.387 -94.4739
2.887685 81.401 -94.0901
2.908611 81.420 -93.6591
2.929688 81.443 -93.1787
2.950917 81.470 -92.6468
2.972301 81.501 -92.0624
2.993839 81.533 -91.4255
3.015534 81.568 -90.7382
3.037386 81.604 -90.0037
3.059396 81.643 -89.2266
3.081565 81.684 -88.4125
3.103896 81.728 -87.5679
3.126388 81.777 -86.6996
3.149043 81.830 -85.8152
3.171862 81.889 -84.9221
3.194847 81.953 -84.0277
3.217998 82.026 -83.1386
3.241317 82.106 -82.2599
3.264805 82.195 -81.3949
3.288463 82.293 -80.5442
3.312293 82.401 -79.7067
3.336295 82.520 -78.8805
3.360471 82.648 -78.0651
3.384822 82.786 -77.2623
3.409350 82.932 -76.4762
3.434056 83.085 -75.7121
3.458940 83.245 -74.9765
3.484005 83.409 -74.2758
3.509252 83.577 -73.6164
3.534681 83.747 -73.0040
3.560295 83.918 -72.4437
3.586094 84.088 -71.9394
3.612081 84.258 -71.4937
3.638255 84.427 -71.1072
3.664620 84.595 -70.7792
3.691175 84.762 -70.5067
3.717923 84.929 -70.2863
3.744864 85.096 -70.1140
3.772001 85.263 -69.9861
3.799335 85.430 -69.8993
3.826866 85.595 -69.8506
3.854597 85.760 -69.8373
3.882529 85.921 -69.8570
3.910664 86.080 -69.9080
3.939002 86.234 -69.9886
3.967546 86.384 -70.0983
3.996296 86.529 -70.2367
4.025255 86.668 -70.4043
4.054423 86.802 -70.6015
4.083804 86.930 -70.8285
4.113396 87.053 -71.0839
4.143204 87.171 -71.3653
4.173227 87.283 -71.6692
4.203468 87.391 -71.9915
4.233928 87.494 -72.3278
4.264609 87.592 -72.6741
4.295512 87.686 -73.0268
4.326639 87.774 -73.3834
4.357992 87.857 -73.7426
4.389572 87.935 -74.1047
4.421380 88.008 -74.4709
4.453419 88.075 -74.8426
4.485691 88.136 -75.2205
4.518196 88.192 -75.6033
4.550936 88.243 -75.9886
4.583914 88.289 -76.3730
4.617131 88.330 -76.7525
4.650589 88.368 -77.1227
4.684289 88.402 -77.4801
4.718233 88.433 -77.8217
4.752424 88.460 -78.1459
4.786862 88.483 -78.4525
4.821549 88.503 -78.7422
4.856488 88.520 -79.0161
4.891680 88.533 -79.2745
4.927127 88.543 -79.5175
4.962831 88.551 -79.7445
4.998794 88.558 -79.9545
5.035017 88.564 -80.1460
5.071503 88.569 -80.3176
5.108253 88.575 -80.4678
5.145270 88.581 -80.5956
5.182555 88.588 -80.7007
5.220110 88.594 -80.7839
5.257937 88.602 -80.8472
5.296038 88.610 -80.8935
5.334415 88.619 -80.9261
5.373071 88.631 -80.9484
5.412006 88.645 -80.9635
5.451224 88.662 -80.9735
5.490725 88.683 -80.9796
5.530514 88.707 -80.9823
5.570590 88.735 -80.9822
5.610957 88.766 -80.9813
5.651616 88.801 -80.9825
5.692570 88.838 -80.9901
5.733821 88.879 -81.0087
5.775370 88.922 -81.0429
5.817221 88.968 -81.0963
5.859375 89.017 -81.1713
5.901834 89.068 -81.2690
5.944602 89.122 -81.3896
5.987679 89.178 -81.5334
6.031068 89.236 -81.7013
6.074771 89.295 -81.8944
6.118792 89.355 -82.1141
6.163131 89.414 -82.3620
6.207792 89.474 -82.6394
6.252776 89.532 -82.9469
6.298086 89.590 -83.2842
6.343725 89.647 -83.6500
6.389694 89.703 -84.0423
6.435996 89.757 -84.4584
6.482634 89.809 -84.8960
6.529610 89.860 -85.3530
6.576926 89.907 -85.8283
6.624585 89.952 -86.3210
6.672590 89.994 -86.8305
6.720942 90.034 -87.3549
6.769645 90.070 -87.8918
6.818700 90.105 -88.4376
6.868111 90.136 -88.9889
6.917881 90.166 -89.5428
6.968010 90.193 -90.0971
7.018504 90.217 -90.6508
7.069362 90.240 -91.2031
7.120590 90.261 -91.7526
7.172189 90.280 -92.2975
7.224161 90.298 -92.8356
7.276511 90.316 -93.3647
7.329239 90.334 -93.8831
7.382350 90.351 -94.3902
7.435845 90.369 -94.8858
7.489729 90.387 -95.3704
7.544002 90.407 -95.8447
7.598669 90.428 -96.3093
7.653732 90.451 -96.7646
7.709194 90.476 -97.2109
7.765058 90.504 -97.6488
7.821327 90.534 -98.0795
7.878004 90.567 -98.5050
7.935091 90.603 -98.9274
7.992592 90.642 -99.3491
8.050510 90.684 -99.7719
8.108847 90.729 -100.1970
8.167607 90.777 -100.6256
8.226793 90.828 -101.0588
8.286408 90.881 -101.4981
8.346454 90.937 -101.9448
8.406936 90.994 -102.4002
8.467856 91.053 -102.8650
8.529218 91.114 -103.3392
8.591024 91.176 -103.8223
8.653278 91.238 -104.3137
8.715983 91.301 -104.8126
8.779143 91.364 -105.3183
8.842760 91.427 -105.8300
8.906839 91.490 -106.3465
8.971381 91.552 -106.8661
9.036392 91.614 -107.3868
9.101873 91.674 -107.9065
9.167829 91.734 -108.4235
9.234263 91.793 -108.9364
9.301178 91.851 -109.4438
9.368578 91.908 -109.9440
9.436467 91.964 -110.4353
9.504847 92.020 -110.9165
9.573723 92.075 -111.3863
9.643099 92.130 -111.8441
9.712976 92.184 -112.2896
9.783361 92.238 -112.7225
9.854255 92.293 -113.1427
9.925663 92.347 -113.5503
9.997588 92.402 -113.9457
10.070035 92.457 -114.3294
10.143007 92.512 -114.7025
10.216507 92.568 -115.0658
10.290540 92.624 -115.4202
10.365109 92.681 -115.7668
10.440219 92.737 -116.1062
10.515873 92.794 -116.4395
10.592076 92.851 -116.7677
10.668830 92.908 -117.0913
10.746141 92.964 -117.4110
10.824012 93.020 -117.7270
10.902447 93.075 -118.0397
10.981451 93.130 -118.3491
11.061027 93.183 -118.6554
11.141180 93.236 -118.9584
11.221913 93.287 -119.2579
11.303232 93.338 -119.5538
11.385140 93.387 -119.8457
11.467641 93.434 -120.1337
11.550741 93.481 -120.4177
11.634442 93.526 -120.6975
11.718750 93.570 -120.9734
11.803669 93.613 -121.2454
11.889203 93.654 -121.5140
11.975357 93.695 -121.7796
12.062136 93.734 -122.0426
12.149543 93.772 -122.3038
12.237583 93.809 -122.5636
12.326262 93.845 -122.8227
12.415583 93.879 -123.0818
12.505552 93.913 -123.3414
12.596172 93.945 -123.6019
12.687449 93.975 -123.8637
12.779387 94.005 -124.1271
12.871992 94.033 -124.3922
12.965268 94.059 -124.6591
13.059220 94.084 -124.9278
13.153852 94.107 -125.1983
13.249170 94.129 -125.4705
13.345179 94.150 -125.7443
13.441884 94.170 -126.0198
13.539289 94.188 -126.2971
13.637401 94.205 -126.5763
13.736223 94.222 -126.8579
13.835761 94.237 -127.1423
13.936021 94.253 -127.4300
14.037007 94.267 -127.7218
14.138725 94.281 -128.0182
14.241180 94.295 -128.3201
14.344377 94.308 -128.6281
14.448323 94.321 -128.9428
14.553021 94.334 -129.2647
14.658478 94.347 -129.5939
14.764700 94.359 -129.9308
14.871691 94.371 -130.2751
14.979457 94.382 -130.6266
15.088005 94.393 -130.9848
15.197339 94.404 -131.3492
15.307465 94.415 -131.7191
15.418389 94.425 -132.0939
15.530117 94.436 -132.4727
15.642655 94.446 -132.8551
15.756008 94.457 -133.2405
15.870182 94.468 -133.6283
15.985184 94.479 -134.0184
16.101019 94.491 -134.4103
16.217694 94.504 -134.8038
16.335214 94.518 -135.1988
16.453586 94.532 -135.5949
16.572815 94.546 -135.9918
16.692909 94.562 -136.3890
16.813872 94.578 -136.7859
16.935713 94.595 -137.1817
17.058436 94.612 -137.5756
17.182048 94.630 -137.9666
17.306556 94.649 -138.3538
17.431967 94.668 -138.7363
17.558286 94.687 -139.1133
17.685521 94.708 -139.4844
17.813677 94.729 -139.8490
17.942762 94.750 -140.2070
18.072783 94.773 -140.5586
18.203746 94.796 -140.9040
18.335658 94.820 -141.2435
18.468526 94.844 -141.5775
18.602356 94.868 -141.9065
18.737156 94.893 -142.2307
18.872934 94.918 -142.5503
19.009695 94.942 -142.8652
19.147447 94.966 -143.1752
19.286197 94.989 -143.4801
19.425953 95.012 -143.7796
19.566721 95.033 -144.0732
19.708510 95.054 -144.3607
19.851326 95.074 -144.6421
19.995177 95.092 -144.9174
20.140070 95.110 -145.1871
20.286013 95.127 -145.4516
20.433014 95.142 -145.7115
20.581080 95.157 -145.9677
20.730219 95.171 -146.2209
20.880439 95.183 -146.4718
21.031747 95.194 -146.7211
21.184152 95.204 -146.9692
21.337661 95.212 -147.2166
21.492282 95.220 -147.4635
21.648024 95.226 -147.7105
21.804895 95.231 -147.9579
21.962902 95.235 -148.2062
22.122054 95.238 -148.4561
22.282360 95.240 -148.7083
22.443827 95.241 -148.9636
22.606464 95.242 -149.2227
22.770280 95.242 -149.4865
22.935283 95.242 -149.7554
23.101481 95.241 -150.0297
23.268884 95.240 -150.3094
23.437500 95.238 -150.5943
23.607338 95.237 -150.8840
23.778406 95.234 -151.1780
23.950714 95.232 -151.4758
24.124271 95.230 -151.7768
24.299086 95.228 -152.0806
24.475167 95.227 -152.3870
24.652524 95.226 -152.6958
24.831166 95.226 -153.0067
25.011103 95.227 -153.3195
25.192344 95.228 -153.6340
25.374898 95.230 -153.9497
25.558775 95.232 -154.2659
25.743984 95.235 -154.5818
25.930536 95.239 -154.8965
26.118439 95.243 -155.2088
26.307704 95.247 -155.5177
26.498341 95.252 -155.8221
26.690359 95.256 -156.1211
26.883768 95.261 -156.4139
27.078579 95.266 -156.6999
27.274801 95.272 -156.9790
27.472446 95.277 -157.2510
27.671522 95.283 -157.5162
27.872042 95.288 -157.7751
28.074014 95.293 -158.0282
28.277450 95.298 -158.2761
28.482360 95.303 -158.5194
28.688755 95.307 -158.7584
28.896645 95.310 -158.9936
29.106042 95.312 -159.2250
29.316957 95.314 -159.4530
29.529400 95.314 -159.6778
29.743382 95.314 -159.9001
29.958915 95.312 -160.1205
30.176009 95.310 -160.3403
30.394677 95.308 -160.5605
30.614929 95.304 -160.7822
30.836778 95.300 -161.0066
31.060234 95.295 -161.2342
31.285309 95.289 -161.4654
31.512015 95.283 -161.7001
31.740364 95.276 -161.9380
31.970368 95.268 -162.1788
32.202039 95.260 -162.4222
32.435388 95.252 -162.6681
32.670428 95.244 -162.9165
32.907171 95.236 -163.1673
33.145630 95.228 -163.4207
33.385817 95.220 -163.6762
33.627745 95.213 -163.9333
33.871425 95.205 -164.1911
34.116871 95.198 -164.4485
34.364096 95.191 -164.7043
34.613113 95.185 -164.9577
34.863934 95.179 -165.2082
35.116572 95.174 -165.4554
35.371041 95.169 -165.6996
35.627354 95.164 -165.9412
35.885525 95.160 -166.1808
36.145566 95.156 -166.4185
36.407492 95.152 -166.6544
36.671316 95.147 -166.8881
36.937051 95.142 -167.1190
37.204712 95.136 -167.3463
37.474313 95.129 -167.5696
37.745867 95.122 -167.7886
38.019389 95.114 -168.0034
38.294893 95.106 -168.2147
38.572394 95.097 -168.4233
38.851905 95.087 -168.6302
39.133442 95.077 -168.8359
39.417019 95.067 -169.0410
39.702651 95.056 -169.2459
39.990353 95.044 -169.4506
40.280140 95.032 -169.6552
40.572026 95.020 -169.8598
40.866028 95.008 -170.0645
41.162160 94.995 -170.2692
41.460438 94.983 -170.4738
41.760877 94.970 -170.6781
42.063494 94.958 -170.8820
42.368303 94.946 -171.0855
42.675322 94.933 -171.2888
42.984565 94.921 -171.4921
43.296048 94.910 -171.6955
43.609789 94.898 -171.8988
43.925804 94.885 -172.1015
44.244108 94.873 -172.3030
44.564719 94.860 -172.5027
44.887654 94.847 -172.7001
45.212928 94.834 -172.8953
45.540560 94.821 -173.0883
45.870565 94.807 -173.2794
46.202962 94.792 -173.4688
46.537768 94.778 -173.6564
46.875000 94.763 -173.8423
47.214676 94.748 -174.0264
47.556813 94.732 -174.2087
47.901429 94.717 -174.3895
48.248542 94.701 -174.5692
48.598171 94.686 -174.7479
48.950334 94.670 -174.9256
49.305048 94.654 -175.1020
49.662333 94.638 -175.2768
50.022206 94.622 -175.4499
50.384688 94.606 -175.6211
50.749796 94.590 -175.7906
51.117550 94.574 -175.9583
51.487969 94.557 -176.1240
51.861072 94.540 -176.2873
52.236879 94.523 -176.4480
52.615409 94.506 -176.6058
52.996681 94.488 -176.7607
53.380717 94.470 -176.9131
53.767536 94.452 -177.0634
54.157158 94.434 -177.2121
54.549603 94.416 -177.3597
54.944892 94.398 -177.5071
55.343045 94.380 -177.6551
55.744084 94.362 -177.8047
56.148028 94.345 -177.9570
56.554900 94.328 -178.1128
56.964720 94.311 -178.2724
57.377510 94.295 -178.4357
57.793291 94.277 -178.6022
58.212085 94.259 -178.7701
58.633914 94.241 -178.9373
59.058799 94.222 -179.1015
59.486764 94.201 -179.2607
59.917829 94.181 -179.4140
60.352019 94.160 -179.5612
60.789354 94.138 -179.7034
61.229859 94.116 -179.8412
61.673556 94.094 -179.9753
62.120468 94.071 179.8940
62.570618 94.048 179.7665
63.024031 94.024 179.6413
63.480729 94.001 179.5176
63.940736 93.977 179.3945
64.404077 93.953 179.2718
64.870776 93.929 179.1497
65.340856 93.904 179.0294
65.814343 93.880 178.9116
66.291261 93.857 178.7968
66.771635 93.833 178.6851
67.255489 93.810 178.5768
67.742850 93.788 178.4724
68.233743 93.766 178.3722
68.728193 93.745 178.2761
69.226226 93.724 178.1833
69.727867 93.703 178.0931
70.233144 93.683 178.0044
70.742083 93.663 177.9160
71.254709 93.643 177.8267
71.771050 93.623 177.7350
72.291132 93.602 177.6403
72.814984 93.581 177.5423
73.342631 93.558 177.4412
73.874102 93.535 177.3378
74.409424 93.510 177.2348
74.948626 93.484 177.1358
75.491734 93.458 177.0429
76.038779 93.432 176.9552
76.589787 93.407 176.8689
77.144788 93.383 176.7803
77.703811 93.359 176.6876
78.266885 93.335 176.5905
78.834039 93.312 176.4887
79.405303 93.289 176.3820
79.980706 93.266 176.2703
80.560280 93.242 176.1539
81.144053 93.218 176.0324
81.732056 93.193 175.9062
82.324320 93.166 175.7767
82.920876 93.138 175.6464
83.521755 93.108 175.5182
84.126988 93.076 175.3945
84.736607 93.042 175.2779
85.350643 93.007 175.1703
85.969129 92.970 175.0735
