* Measurement data measured by REW V5.30 beta 5
* Source: EXCL: Microphone (Realtek(R) Audio), MICROPHONE (Master Volume), L, volume: 1.000
* Format: 256k Log Swept Sine, 1 sweep at -32.0 dBFS with no timing reference
* Dated: Dec 20, 2023 11:51:23 AM
* REW Settings:
*  C-weighting compensation: Off
*  Target level: 75.0 dB
* Note: 
* Measurement: R Edifier X3
* Smoothing: 1/24 octave
* Frequency Step: 96 ppo
* Start Frequency: 0.36621094 Hz
*
* Freq(Hz) SPL(dB) Phase(degrees)
0.366211 79.829 -54.0999
0.368865 79.877 -54.0877
0.371538 79.945 -54.0690
0.374230 80.022 -54.0460
0.376942 80.102 -54.0199
0.379673 80.183 -53.9911
0.382424 80.266 -53.9596
0.385196 80.349 -53.9258
0.387987 80.432 -53.8896
0.390798 80.516 -53.8512
0.393630 80.601 -53.8106
0.396483 80.687 -53.7679
0.399356 80.773 -53.7232
0.402250 80.859 -53.6766
0.405165 80.947 -53.6282
0.408101 81.035 -53.5781
0.411058 81.123 -53.5263
0.414037 81.213 -53.4731
0.417037 81.302 -53.4184
0.420059 81.393 -53.3624
0.423103 81.484 -53.3052
0.426169 81.576 -53.2468
0.429257 81.669 -53.1875
0.432367 81.762 -53.1272
0.435501 81.856 -53.0662
0.438656 81.950 -53.0044
0.441835 82.045 -52.9420
0.445037 82.141 -52.8792
0.448262 82.238 -52.8159
0.451510 82.335 -52.7523
0.454782 82.433 -52.6886
0.458077 82.532 -52.6248
0.461397 82.631 -52.5610
0.464740 82.732 -52.4973
0.468108 82.833 -52.4338
0.471500 82.934 -52.3707
0.474917 83.037 -52.3080
0.478358 83.140 -52.2458
0.481825 83.244 -52.1842
0.485316 83.348 -52.1234
0.488833 83.454 -52.0633
0.492375 83.560 -52.0042
0.495943 83.667 -51.9461
0.499537 83.774 -51.8891
0.503157 83.883 -51.8332
0.506803 83.992 -51.7787
0.510475 84.102 -51.7255
0.514174 84.213 -51.6738
0.517900 84.324 -51.6236
0.521653 84.437 -51.5751
0.525433 84.550 -51.5283
0.529241 84.664 -51.4833
0.533076 84.779 -51.4401
0.536939 84.895 -51.3990
0.540830 85.011 -51.3598
0.544749 85.129 -51.3228
0.548696 85.247 -51.2881
0.552673 85.366 -51.2555
0.556677 85.486 -51.2254
0.560711 85.607 -51.1977
0.564774 85.729 -51.1725
0.568867 85.852 -51.1499
0.572989 85.975 -51.1299
0.577141 86.099 -51.1126
0.581324 86.225 -51.0982
0.585536 86.351 -51.0866
0.589779 86.478 -51.0780
0.594053 86.606 -51.0724
0.598358 86.735 -51.0698
0.602694 86.865 -51.0704
0.607061 86.996 -51.0742
0.611460 87.128 -51.0813
0.615891 87.261 -51.0917
0.620354 87.394 -51.1056
0.624849 87.529 -51.1229
0.629377 87.665 -51.1438
0.633938 87.801 -51.1683
0.638532 87.939 -51.1965
0.643159 88.078 -51.2285
0.647819 88.217 -51.2642
0.652514 88.358 -51.3039
0.657242 88.500 -51.3475
0.662005 88.642 -51.3952
0.666802 88.786 -51.4470
0.671634 88.931 -51.5029
0.676501 89.077 -51.5631
0.681403 89.224 -51.6276
0.686341 89.372 -51.6965
0.691314 89.521 -51.7698
0.696324 89.671 -51.8477
0.701369 89.822 -51.9303
0.706452 89.974 -52.0175
0.711571 90.127 -52.1095
0.716727 90.281 -52.2063
0.721921 90.435 -52.3079
0.727153 90.586 -52.4140
0.732422 90.731 -52.5239
0.737729 90.865 -52.6362
0.743075 90.991 -52.7495
0.748460 91.114 -52.8632
0.753883 91.235 -52.9769
0.759346 91.355 -53.0906
0.764849 91.475 -53.2043
0.770391 91.593 -53.3180
0.775974 91.711 -53.4317
0.781597 91.829 -53.5457
0.787261 91.946 -53.6598
0.792965 92.062 -53.7741
0.798712 92.177 -53.8888
0.804499 92.292 -54.0038
0.810329 92.406 -54.1193
0.816201 92.519 -54.2353
0.822116 92.632 -54.3519
0.828073 92.744 -54.4691
0.834073 92.856 -54.5870
0.840118 92.966 -54.7057
0.846205 93.077 -54.8253
0.852337 93.186 -54.9458
0.858514 93.295 -55.0673
0.864735 93.404 -55.1899
0.871001 93.512 -55.3137
0.877313 93.619 -55.4387
0.883670 93.726 -55.5651
0.890074 93.832 -55.6929
0.896523 93.938 -55.8222
0.903020 94.043 -55.9531
0.909564 94.148 -56.0857
0.916155 94.252 -56.2201
0.922793 94.356 -56.3564
0.929480 94.459 -56.4947
0.936216 94.563 -56.6350
0.943000 94.665 -56.7776
0.949833 94.768 -56.9224
0.956716 94.870 -57.0696
0.963649 94.972 -57.2193
0.970632 95.074 -57.3717
0.977666 95.176 -57.5268
0.984750 95.277 -57.6848
0.991886 95.379 -57.8457
0.999074 95.480 -58.0098
1.006313 95.582 -58.1771
1.013605 95.684 -58.3478
1.020950 95.785 -58.5220
1.028349 95.887 -58.6999
1.035801 95.989 -58.8816
1.043306 96.092 -59.0673
1.050867 96.194 -59.2571
1.058482 96.298 -59.4512
1.066152 96.401 -59.6498
1.073878 96.505 -59.8530
1.081659 96.610 -60.0611
1.089498 96.715 -60.2741
1.097393 96.821 -60.4921
1.105345 96.927 -60.7151
1.113355 97.033 -60.9427
1.121422 97.138 -61.1748
1.129549 97.242 -61.4111
1.137734 97.345 -61.6515
1.145978 97.448 -61.8956
1.154283 97.550 -62.1434
1.162647 97.652 -62.3946
1.171072 97.752 -62.6491
1.179558 97.852 -62.9067
1.188106 97.952 -63.1671
1.196715 98.050 -63.4304
1.205387 98.148 -63.6962
1.214122 98.245 -63.9645
1.222920 98.342 -64.2350
1.231781 98.438 -64.5077
1.240708 98.533 -64.7823
1.249698 98.628 -65.0588
1.258754 98.722 -65.3371
1.267875 98.815 -65.6169
1.277063 98.908 -65.8982
1.286317 99.001 -66.1809
1.295638 99.093 -66.4648
1.305027 99.184 -66.7498
1.314484 99.275 -67.0359
1.324009 99.366 -67.3230
1.333603 99.456 -67.6109
1.343267 99.545 -67.8996
1.353001 99.635 -68.1890
1.362805 99.724 -68.4790
1.372681 99.813 -68.7696
1.382628 99.901 -69.0607
1.392647 99.989 -69.3523
1.402739 100.077 -69.6442
1.412904 100.166 -69.9366
1.423142 100.253 -70.2292
1.433455 100.341 -70.5222
1.443842 100.429 -70.8156
1.454305 100.517 -71.1097
1.464843 100.605 -71.4050
1.475458 100.692 -71.7029
1.486150 100.779 -72.0042
1.496919 100.865 -72.3096
1.507766 100.950 -72.6189
1.518692 101.034 -72.9321
1.529697 101.117 -73.2490
1.540782 101.199 -73.5692
1.551947 101.280 -73.8925
1.563193 101.361 -74.2188
1.574521 101.441 -74.5476
1.585931 101.519 -74.8789
1.597423 101.597 -75.2123
1.608998 101.675 -75.5477
1.620658 101.751 -75.8848
1.632402 101.827 -76.2234
1.644231 101.901 -76.5632
1.656146 101.975 -76.9041
1.668147 102.049 -77.2459
1.680235 102.121 -77.5883
1.692410 102.193 -77.9311
1.704674 102.265 -78.2741
1.717027 102.335 -78.6172
1.729469 102.405 -78.9602
1.742002 102.475 -79.3028
1.754625 102.544 -79.6449
1.767340 102.613 -79.9863
1.780147 102.681 -80.3269
1.793046 102.748 -80.6666
1.806040 102.815 -81.0053
1.819127 102.882 -81.3435
1.832309 102.948 -81.6824
1.845587 103.014 -82.0239
1.858961 103.078 -82.3699
1.872431 103.142 -82.7210
1.886000 103.204 -83.0772
1.899666 103.265 -83.4383
1.913432 103.325 -83.8036
1.927298 103.384 -84.1728
1.941264 103.441 -84.5452
1.955331 103.498 -84.9204
1.969500 103.554 -85.2979
1.983772 103.608 -85.6770
1.998147 103.662 -86.0572
2.012626 103.714 -86.4380
2.027211 103.766 -86.8187
2.041901 103.817 -87.1988
2.056697 103.866 -87.5776
2.071601 103.915 -87.9546
2.086613 103.963 -88.3291
2.101733 104.011 -88.7006
2.116963 104.057 -89.0683
2.132303 104.103 -89.4315
2.147755 104.148 -89.7898
2.163318 104.193 -90.1426
2.178995 104.237 -90.4899
2.194785 104.280 -90.8323
2.210689 104.322 -91.1720
2.226709 104.364 -91.5116
2.242844 104.403 -91.8525
2.259097 104.442 -92.1950
2.275467 104.479 -92.5388
2.291956 104.514 -92.8836
2.308565 104.549 -93.2290
2.325294 104.582 -93.5743
2.342144 104.614 -93.9191
2.359116 104.645 -94.2626
2.376211 104.674 -94.6044
2.393430 104.703 -94.9437
2.410774 104.731 -95.2799
2.428243 104.758 -95.6123
2.445839 104.784 -95.9401
2.463562 104.809 -96.2625
2.481415 104.833 -96.5786
2.499396 104.857 -96.8878
2.517508 104.881 -97.1891
2.535750 104.904 -97.4819
2.554126 104.926 -97.7661
2.572634 104.948 -98.0424
2.591276 104.969 -98.3124
2.610054 104.988 -98.5774
2.628967 105.006 -98.8379
2.648018 105.023 -99.0939
2.667206 105.038 -99.3455
2.686534 105.052 -99.5923
2.706002 105.065 -99.8343
2.725610 105.078 -100.0711
2.745361 105.089 -100.3025
2.765255 105.100 -100.5281
2.785294 105.110 -100.7477
2.805477 105.120 -100.9608
2.825807 105.129 -101.1671
2.846284 105.138 -101.3662
2.866909 105.147 -101.5576
2.887684 105.157 -101.7407
2.908609 105.166 -101.9151
2.929686 105.175 -102.0804
2.950916 105.184 -102.2360
2.972299 105.193 -102.3818
2.993838 105.201 -102.5180
3.015532 105.208 -102.6448
3.037384 105.214 -102.7626
3.059394 105.220 -102.8717
3.081564 105.226 -102.9725
3.103894 105.232 -103.0654
3.126386 105.237 -103.1507
3.149041 105.242 -103.2290
3.171861 105.248 -103.3005
3.194845 105.254 -103.3657
3.217996 105.260 -103.4247
3.241315 105.268 -103.4772
3.264803 105.276 -103.5213
3.288461 105.284 -103.5527
3.312291 105.294 -103.5664
3.336293 105.304 -103.5664
3.360469 105.315 -103.5600
3.384820 105.326 -103.5514
3.409348 105.337 -103.5421
3.434054 105.349 -103.5326
3.458938 105.362 -103.5228
3.484003 105.375 -103.5123
3.509250 105.388 -103.5007
3.534679 105.402 -103.4876
3.560293 105.417 -103.4728
3.586092 105.432 -103.4557
3.612079 105.448 -103.4359
3.638253 105.465 -103.4133
3.664618 105.483 -103.3874
3.691173 105.501 -103.3582
3.717921 105.521 -103.3255
3.744862 105.541 -103.2895
3.771999 105.563 -103.2508
3.799332 105.585 -103.2099
3.826864 105.608 -103.1675
3.854595 105.632 -103.1246
3.882527 105.655 -103.0817
3.910661 105.680 -103.0398
3.938999 105.704 -102.9997
3.967543 105.728 -102.9622
3.996294 105.753 -102.9280
4.025252 105.777 -102.8974
4.054421 105.801 -102.8704
4.083801 105.826 -102.8464
4.113394 105.851 -102.8250
4.143201 105.876 -102.8059
4.173225 105.902 -102.7887
4.203466 105.927 -102.7732
4.233926 105.953 -102.7590
4.264606 105.978 -102.7459
4.295509 106.003 -102.7336
4.326636 106.027 -102.7217
4.357989 106.050 -102.7104
4.389569 106.073 -102.6997
4.421378 106.095 -102.6904
4.453417 106.116 -102.6833
4.485688 106.137 -102.6781
4.518193 106.157 -102.6745
4.550934 106.177 -102.6714
4.583912 106.196 -102.6680
4.617129 106.214 -102.6630
4.650587 106.232 -102.6555
4.684287 106.249 -102.6444
4.718231 106.266 -102.6288
4.752421 106.282 -102.6083
4.786859 106.298 -102.5831
4.821547 106.312 -102.5541
4.856485 106.326 -102.5217
4.891677 106.339 -102.4857
4.927125 106.352 -102.4457
4.962829 106.364 -102.4013
4.998791 106.375 -102.3519
5.035015 106.387 -102.2968
5.071500 106.399 -102.2356
5.108251 106.411 -102.1677
5.145267 106.424 -102.0924
5.182552 106.436 -102.0096
5.220107 106.448 -101.9194
5.257934 106.460 -101.8224
5.296035 106.472 -101.7193
5.334412 106.485 -101.6110
5.373067 106.498 -101.4983
5.412003 106.511 -101.3820
5.451221 106.526 -101.2627
5.490722 106.541 -101.1404
5.530510 106.557 -101.0141
5.570587 106.575 -100.8831
5.610953 106.593 -100.7476
5.651613 106.611 -100.6087
5.692567 106.631 -100.4679
5.733818 106.651 -100.3267
5.775367 106.672 -100.1867
5.817218 106.693 -100.0494
5.859372 106.716 -99.9152
5.901831 106.739 -99.7837
5.944598 106.763 -99.6541
5.987675 106.787 -99.5265
6.031065 106.813 -99.4010
6.074768 106.838 -99.2785
6.118788 106.864 -99.1597
6.163127 106.890 -99.0453
6.207788 106.916 -98.9361
6.252772 106.941 -98.8326
6.298082 106.966 -98.7349
6.343721 106.991 -98.6424
6.389690 107.016 -98.5544
6.435992 107.041 -98.4698
6.482630 107.065 -98.3877
6.529606 107.088 -98.3071
6.576922 107.111 -98.2277
6.624581 107.132 -98.1500
6.672585 107.152 -98.0746
6.720938 107.171 -98.0013
6.769640 107.190 -97.9286
6.818696 107.207 -97.8550
6.868107 107.224 -97.7785
6.917876 107.240 -97.6976
6.968006 107.255 -97.6116
7.018499 107.269 -97.5209
7.069358 107.281 -97.4259
7.120586 107.294 -97.3263
7.172184 107.305 -97.2213
7.224157 107.316 -97.1100
7.276506 107.327 -96.9912
7.329235 107.338 -96.8643
7.382345 107.349 -96.7287
7.435841 107.360 -96.5849
7.489724 107.371 -96.4333
7.543997 107.382 -96.2749
7.598664 107.393 -96.1105
7.653728 107.405 -95.9407
7.709189 107.418 -95.7654
7.765053 107.432 -95.5840
7.821322 107.447 -95.3969
7.877998 107.462 -95.2052
7.935086 107.479 -95.0108
7.992587 107.496 -94.8154
8.050504 107.514 -94.6204
8.108841 107.533 -94.4257
8.167601 107.553 -94.2311
8.226787 107.574 -94.0369
8.286402 107.595 -93.8440
8.346449 107.617 -93.6535
8.406931 107.639 -93.4665
8.467851 107.661 -93.2836
8.529212 107.683 -93.1044
8.591018 107.706 -92.9285
8.653272 107.728 -92.7553
8.715977 107.750 -92.5843
8.779137 107.772 -92.4151
8.842754 107.793 -92.2480
8.906833 107.813 -92.0829
8.971375 107.833 -91.9188
9.036386 107.852 -91.7542
9.101867 107.870 -91.5875
9.167823 107.887 -91.4178
9.234257 107.904 -91.2449
9.301172 107.920 -91.0688
9.368572 107.935 -90.8886
9.436460 107.949 -90.7029
9.504841 107.964 -90.5106
9.573717 107.978 -90.3111
9.643092 107.991 -90.1045
9.712970 108.004 -89.8908
9.783354 108.018 -89.6701
9.854248 108.031 -89.4423
9.925656 108.045 -89.2071
9.997581 108.059 -88.9645
10.070028 108.074 -88.7151
10.143000 108.089 -88.4599
10.216500 108.105 -88.1999
10.290533 108.122 -87.9355
10.365103 108.139 -87.6668
10.440212 108.157 -87.3944
10.515866 108.176 -87.1196
10.592069 108.195 -86.8435
10.668823 108.215 -86.5668
10.746134 108.235 -86.2895
10.824005 108.257 -86.0122
10.902440 108.278 -85.7356
10.981443 108.300 -85.4603
11.061020 108.322 -85.1866
11.141172 108.344 -84.9147
11.221906 108.366 -84.6442
11.303225 108.388 -84.3754
11.385133 108.410 -84.1081
11.467634 108.431 -83.8423
11.550734 108.452 -83.5776
11.634435 108.472 -83.3131
11.718742 108.491 -83.0483
11.803661 108.510 -82.7828
11.889195 108.528 -82.5161
11.975349 108.545 -82.2471
12.062128 108.561 -81.9746
12.149535 108.576 -81.6979
12.237576 108.590 -81.4164
12.326254 108.604 -81.1294
12.415575 108.617 -80.8356
12.505544 108.629 -80.5342
12.596164 108.641 -80.2249
12.687441 108.652 -79.9076
12.779379 108.663 -79.5819
12.871984 108.674 -79.2476
12.965260 108.685 -78.9049
13.059211 108.697 -78.5545
13.153843 108.708 -78.1974
13.249161 108.721 -77.8345
13.345170 108.734 -77.4662
13.441875 108.748 -77.0940
13.539280 108.762 -76.7197
13.637391 108.777 -76.3444
13.736214 108.792 -75.9685
13.835752 108.808 -75.5932
13.936011 108.823 -75.2194
14.036998 108.839 -74.8475
14.138716 108.855 -74.4772
14.241171 108.870 -74.1078
14.344368 108.884 -73.7389
14.448313 108.897 -73.3698
14.553011 108.910 -72.9990
14.658468 108.922 -72.6248
14.764689 108.933 -72.2462
14.871680 108.943 -71.8622
14.979446 108.952 -71.4717
15.087994 108.962 -71.0738
15.197328 108.971 -70.6684
15.307454 108.980 -70.2561
15.418378 108.990 -69.8376
15.530106 109.001 -69.4137
15.642643 109.012 -68.9862
15.755996 109.024 -68.5573
15.870171 109.036 -68.1285
15.985172 109.049 -67.7013
16.101007 109.063 -67.2774
16.217682 109.077 -66.8582
16.335201 109.090 -66.4436
16.453573 109.103 -66.0335
16.572803 109.115 -65.6272
16.692898 109.126 -65.2235
16.813862 109.136 -64.8203
16.935701 109.144 -64.4152
17.058424 109.150 -64.0067
17.182035 109.156 -63.5922
17.306543 109.160 -63.1696
17.431953 109.163 -62.7380
17.558273 109.166 -62.2965
17.685509 109.168 -61.8449
17.813665 109.171 -61.3834
17.942751 109.174 -60.9132
18.072771 109.177 -60.4355
18.203733 109.181 -59.9512
18.335646 109.185 -59.4620
18.468513 109.190 -58.9687
18.602345 109.195 -58.4717
18.737144 109.199 -57.9711
18.872921 109.204 -57.4668
19.009682 109.209 -56.9579
19.147434 109.214 -56.4435
19.286184 109.218 -55.9232
19.425940 109.223 -55.3964
19.566708 109.228 -54.8630
19.708496 109.234 -54.3239
19.851313 109.240 -53.7802
19.995163 109.247 -53.2333
20.140057 109.255 -52.6848
20.285999 109.263 -52.1366
20.433001 109.271 -51.5894
20.581066 109.279 -51.0438
20.730206 109.286 -50.4990
20.880424 109.292 -49.9533
21.031733 109.297 -49.4044
21.184137 109.301 -48.8493
21.337646 109.304 -48.2844
21.492268 109.305 -47.7075
21.648010 109.307 -47.1167
21.804880 109.308 -46.5115
21.962887 109.311 -45.8934
22.122040 109.315 -45.2651
22.282345 109.321 -44.6308
22.443811 109.328 -43.9957
22.606449 109.337 -43.3641
22.770266 109.347 -42.7402
22.935268 109.356 -42.1262
23.101467 109.365 -41.5222
23.268869 109.373 -40.9262
23.437485 109.378 -40.3338
23.607323 109.380 -39.7395
23.778391 109.379 -39.1370
23.950699 109.377 -38.5204
24.124256 109.372 -37.8862
24.299070 109.368 -37.2322
24.475151 109.364 -36.5597
24.652508 109.361 -35.8725
24.831150 109.360 -35.1761
25.011087 109.362 -34.4774
25.192327 109.365 -33.7821
25.374882 109.368 -33.0952
25.558758 109.372 -32.4182
25.743967 109.374 -31.7499
25.930519 109.375 -31.0866
26.118422 109.372 -30.4223
26.307686 109.368 -29.7507
26.498322 109.361 -29.0657
26.690340 109.354 -28.3637
26.883749 109.346 -27.6433
27.078560 109.339 -26.9060
27.274782 109.333 -26.1557
27.472427 109.329 -25.3973
27.671503 109.327 -24.6358
27.872023 109.326 -23.8748
28.073996 109.325 -23.1160
28.277431 109.324 -22.3590
28.482342 109.322 -21.6017
28.688736 109.320 -20.8412
28.896626 109.317 -20.0750
29.106022 109.314 -19.3013
29.316936 109.311 -18.5200
29.529379 109.308 -17.7321
29.743361 109.306 -16.9390
29.958893 109.303 -16.1424
30.175987 109.301 -15.3429
30.394655 109.298 -14.5404
30.614908 109.295 -13.7339
30.836756 109.291 -12.9219
31.060211 109.286 -12.1032
31.285286 109.281 -11.2773
31.511992 109.275 -10.4440
31.740341 109.269 -9.6033
31.970345 109.262 -8.7552
32.202015 109.254 -7.8987
32.435364 109.246 -7.0324
32.670403 109.237 -6.1546
32.907146 109.227 -5.2641
33.145607 109.218 -4.3609
33.385796 109.208 -3.4461
33.627724 109.200 -2.5222
33.871403 109.191 -1.5916
34.116848 109.184 -0.6562
34.364071 109.176 0.2832
34.613087 109.168 1.2264
34.863907 109.160 2.1733
35.116547 109.152 3.1231
35.371017 109.144 4.0737
35.627331 109.136 5.0228
35.885502 109.127 5.9697
36.145542 109.116 6.9164
36.407467 109.103 7.8690
36.671291 109.088 8.8356
36.937027 109.072 9.8237
37.204689 109.056 10.8355
37.474289 109.043 11.8651
37.745842 109.034 12.8991
38.019363 109.028 13.9200
38.294868 109.023 14.9138
38.572369 109.016 15.8783
38.851879 109.004 16.8249
39.133415 108.984 17.7772
39.416992 108.959 18.7635
39.702625 108.930 19.8032
39.990326 108.904 20.8989
40.280113 108.883 22.0343
40.571999 108.870 23.1788
40.866001 108.862 24.3020
41.162132 108.856 25.3885
41.460411 108.847 26.4435
41.760849 108.831 27.4905
42.063465 108.809 28.5606
42.368275 108.784 29.6770
42.675293 108.760 30.8440
42.984535 108.741 32.0476
43.296021 108.728 33.2634
43.609760 108.720 34.4685
43.925774 108.714 35.6515
44.244080 108.707 36.8141
44.564690 108.698 37.9647
44.887623 108.687 39.1101
45.212898 108.675 40.2520
45.540531 108.660 41.3899
45.870537 108.641 42.5274
46.202934 108.617 43.6763
46.537739 108.589 44.8547
46.874969 108.557 46.0790
47.214645 108.527 47.3539
47.556782 108.500 48.6678
47.901398 108.480 49.9977
48.248512 108.464 51.3203
48.598141 108.451 52.6219
48.950302 108.436 53.9028
49.305016 108.419 55.1735
49.662300 108.399 56.4478
50.022175 108.377 57.7365
50.384655 108.353 59.0447
50.749763 108.328 60.3721
51.117516 108.304 61.7142
51.487934 108.281 63.0649
51.861038 108.257 64.4180
52.236843 108.232 65.7715
52.615372 108.205 67.1299
52.996643 108.175 68.5037
53.380680 108.143 69.9042
53.767498 108.111 71.3355
54.157120 108.081 72.7897
54.549564 108.053 74.2504
54.944855 108.026 75.7028
55.343006 107.998 77.1447
55.744045 107.966 78.5888
56.147991 107.931 80.0532
56.554863 107.895 81.5491
56.964684 107.860 83.0733
57.377472 107.827 84.6133
57.793251 107.795 86.1592
58.212044 107.765 87.7101
58.633873 107.735 89.2691
59.058758 107.707 90.8339
59.486721 107.680 92.3949
59.917786 107.654 93.9455
60.351974 107.626 95.4935
60.789310 107.595 97.0577
61.229816 107.566 98.6486
61.673512 107.540 100.2512
62.120422 107.518 101.8321
62.570572 107.495 103.3699
63.023983 107.465 104.8823
63.480682 107.425 106.4181
63.940689 107.381 108.0196
64.404030 107.339 109.6863
64.870728 107.302 111.3776
65.340805 107.268 113.0548
65.814293 107.231 114.7199
66.291214 107.188 116.4139
66.771591 107.143 118.1733
67.255447 107.104 119.9903
67.742805 107.073 121.8111
68.233696 107.047 123.5781
68.728142 107.018 125.2739
69.226173 106.976 126.9331
69.727814 106.922 128.6172
70.233093 106.860 130.3766
70.742035 106.797 132.2232
71.254662 106.740 134.1252
71.771004 106.692 136.0259
72.291084 106.648 137.8806
72.814934 106.602 139.6893
73.342583 106.550 141.4969
73.874054 106.493 143.3515
74.409378 106.440 145.2575
74.948578 106.392 147.1756
75.491684 106.345 149.0757
76.038727 106.294 150.9819
76.589737 106.238 152.9527
77.144737 106.185 155.0112
77.703758 106.141 157.1025
78.266830 106.101 159.1368
78.833984 106.052 161.0902
79.405251 105.981 163.0614
