* Measurement data measured by REW V5.30 beta 5
* Source: EXCL: Microphone (Realtek(R) Audio), MICROPHONE (Master Volume), L, volume: 1.000
* Format: 256k Log Swept Sine, 1 sweep at -32.0 dBFS with no timing reference
* Dated: Dec 20, 2023 11:50:15 AM
* REW Settings:
*  C-weighting compensation: Off
*  Target level: 75.0 dB
* Note: 
* Measurement: L Edifier X3
* Smoothing: 1/24 octave
* Frequency Step: 96 ppo
* Start Frequency: 0.36621094 Hz
*
* Freq(Hz) SPL(dB) Phase(degrees)
0.366211 92.539 158.6519
0.368865 92.484 158.6409
0.371538 92.404 158.6239
0.374230 92.313 158.6032
0.376942 92.219 158.5795
0.379673 92.122 158.5532
0.382424 92.024 158.5244
0.385196 91.926 158.4930
0.387987 91.827 158.4591
0.390798 91.727 158.4227
0.393630 91.626 158.3836
0.396483 91.525 158.3419
0.399356 91.422 158.2976
0.402250 91.320 158.2505
0.405165 91.216 158.2007
0.408101 91.112 158.1480
0.411058 91.006 158.0926
0.414037 90.901 158.0343
0.417037 90.794 157.9730
0.420059 90.686 157.9088
0.423103 90.578 157.8417
0.426169 90.469 157.7714
0.429257 90.359 157.6981
0.432367 90.249 157.6217
0.435501 90.138 157.5421
0.438656 90.025 157.4593
0.441835 89.912 157.3732
0.445037 89.799 157.2838
0.448262 89.684 157.1910
0.451510 89.568 157.0948
0.454782 89.452 156.9951
0.458077 89.335 156.8918
0.461397 89.217 156.7850
0.464740 89.098 156.6746
0.468108 88.978 156.5605
0.471500 88.858 156.4426
0.474917 88.736 156.3209
0.478358 88.614 156.1953
0.481825 88.491 156.0658
0.485316 88.367 155.9323
0.488833 88.242 155.7948
0.492375 88.116 155.6531
0.495943 87.989 155.5072
0.499537 87.861 155.3571
0.503157 87.733 155.2027
0.506803 87.603 155.0438
0.510475 87.472 154.8805
0.514174 87.341 154.7127
0.517900 87.208 154.5403
0.521653 87.075 154.3631
0.525433 86.941 154.1813
0.529241 86.805 153.9946
0.533076 86.669 153.8030
0.536939 86.532 153.6064
0.540830 86.393 153.4048
0.544749 86.254 153.1980
0.548696 86.114 152.9861
0.552673 85.973 152.7688
0.556677 85.830 152.5462
0.560711 85.687 152.3182
0.564774 85.542 152.0847
0.568867 85.397 151.8456
0.572989 85.250 151.6008
0.577141 85.103 151.3503
0.581324 84.954 151.0940
0.585536 84.804 150.8319
0.589779 84.654 150.5638
0.594053 84.502 150.2897
0.598358 84.349 150.0096
0.602694 84.195 149.7234
0.607061 84.039 149.4311
0.611460 83.883 149.1326
0.615891 83.726 148.8279
0.620354 83.567 148.5170
0.624849 83.407 148.1999
0.629377 83.246 147.8766
0.633938 83.084 147.5471
0.638532 82.921 147.2114
0.643159 82.756 146.8697
0.647819 82.591 146.5220
0.652514 82.424 146.1684
0.657242 82.256 145.8091
0.662005 82.087 145.4444
0.666802 81.916 145.0743
0.671634 81.744 144.6992
0.676501 81.571 144.3196
0.681403 81.397 143.9359
0.686341 81.222 143.5485
0.691314 81.045 143.1583
0.696324 80.867 142.7659
0.701369 80.688 142.3725
0.706452 80.507 141.9792
0.711571 80.326 141.5874
0.716727 80.145 141.1987
0.721921 79.968 140.8143
0.727153 79.806 140.4338
0.732422 79.682 140.0519
0.737729 79.622 139.6552
0.743075 79.607 139.2254
0.748460 79.620 138.7453
0.753883 79.649 138.1975
0.759346 79.691 137.5603
0.764849 79.745 136.8036
0.770391 79.810 135.8822
0.775974 79.886 134.7254
0.781597 79.973 133.2143
0.787261 80.071 131.1346
0.792965 80.180 128.0587
0.798712 80.299 123.0049
0.804499 80.429 113.2345
0.810329 80.569 89.2765
0.816201 80.720 35.6878
0.822116 80.880 -1.6053
0.828073 81.050 -15.7878
0.834073 81.230 -22.4353
0.840118 81.419 -26.2432
0.846205 81.618 -28.7254
0.852337 81.825 -30.4912
0.858514 82.041 -31.8288
0.864735 82.266 -32.8914
0.871001 82.498 -33.7677
0.877313 82.739 -34.5126
0.883670 82.987 -35.1619
0.890074 83.242 -35.7397
0.896523 83.504 -36.2632
0.903020 83.773 -36.7448
0.909564 84.047 -37.1935
0.916155 84.328 -37.6165
0.922793 84.613 -38.0192
0.929480 84.903 -38.4058
0.936216 85.198 -38.7798
0.943000 85.496 -39.1439
0.949833 85.798 -39.5006
0.956716 86.102 -39.8518
0.963649 86.408 -40.1990
0.970632 86.716 -40.5438
0.977666 87.025 -40.8874
0.984750 87.333 -41.2309
0.991886 87.642 -41.5753
0.999074 87.949 -41.9214
1.006313 88.255 -42.2701
1.013605 88.558 -42.6221
1.020950 88.857 -42.9782
1.028349 89.152 -43.3390
1.035801 89.442 -43.7052
1.043306 89.726 -44.0774
1.050867 90.002 -44.4561
1.058482 90.271 -44.8421
1.066152 90.531 -45.2358
1.073878 90.781 -45.6379
1.081659 91.021 -46.0490
1.089498 91.250 -46.4697
1.097393 91.468 -46.9007
1.105345 91.679 -47.3423
1.113355 91.886 -47.7946
1.121422 92.091 -48.2568
1.129549 92.294 -48.7277
1.137734 92.495 -49.2063
1.145978 92.696 -49.6915
1.154283 92.895 -50.1821
1.162647 93.093 -50.6773
1.171072 93.290 -51.1762
1.179558 93.485 -51.6778
1.188106 93.679 -52.1815
1.196715 93.872 -52.6864
1.205387 94.063 -53.1921
1.214122 94.253 -53.6978
1.222920 94.442 -54.2030
1.231781 94.629 -54.7072
1.240708 94.815 -55.2100
1.249698 95.000 -55.7109
1.258754 95.183 -56.2094
1.267875 95.364 -56.7054
1.277063 95.544 -57.1984
1.286317 95.723 -57.6882
1.295638 95.900 -58.1745
1.305027 96.076 -58.6571
1.314484 96.250 -59.1358
1.324009 96.423 -59.6104
1.333603 96.594 -60.0807
1.343267 96.764 -60.5467
1.353001 96.933 -61.0081
1.362805 97.099 -61.4650
1.372681 97.265 -61.9172
1.382628 97.429 -62.3647
1.392647 97.591 -62.8074
1.402739 97.752 -63.2454
1.412904 97.911 -63.6785
1.423142 98.069 -64.1068
1.433455 98.226 -64.5305
1.443842 98.380 -64.9498
1.454305 98.534 -65.3656
1.464843 98.685 -65.7797
1.475458 98.833 -66.1955
1.486150 98.978 -66.6161
1.496919 99.120 -67.0427
1.507766 99.258 -67.4756
1.518692 99.392 -67.9144
1.529697 99.523 -68.3585
1.540782 99.650 -68.8074
1.551947 99.774 -69.2606
1.563193 99.895 -69.7174
1.574521 100.012 -70.1774
1.585931 100.127 -70.6400
1.597423 100.238 -71.1046
1.608998 100.346 -71.5709
1.620658 100.452 -72.0384
1.632402 100.555 -72.5065
1.644231 100.656 -72.9747
1.656146 100.755 -73.4428
1.668147 100.851 -73.9102
1.680235 100.945 -74.3765
1.692410 101.038 -74.8413
1.704674 101.129 -75.3042
1.717027 101.219 -75.7648
1.729469 101.307 -76.2228
1.742002 101.395 -76.6777
1.754625 101.481 -77.1293
1.767340 101.568 -77.5772
1.780147 101.654 -78.0211
1.793046 101.739 -78.4608
1.806040 101.826 -78.8963
1.819127 101.912 -79.3284
1.832309 101.998 -79.7594
1.845587 102.083 -80.1934
1.858961 102.166 -80.6339
1.872431 102.247 -81.0823
1.886000 102.326 -81.5386
1.899666 102.402 -82.0023
1.913432 102.476 -82.4726
1.927298 102.548 -82.9485
1.941264 102.617 -83.4291
1.955331 102.685 -83.9135
1.969500 102.750 -84.4007
1.983772 102.813 -84.8898
1.998147 102.874 -85.3797
2.012626 102.934 -85.8693
2.027211 102.991 -86.3578
2.041901 103.047 -86.8440
2.056697 103.102 -87.3268
2.071601 103.154 -87.8051
2.086613 103.206 -88.2779
2.101733 103.256 -88.7439
2.116963 103.305 -89.2021
2.132303 103.353 -89.6512
2.147755 103.400 -90.0901
2.163318 103.447 -90.5180
2.178995 103.492 -90.9345
2.194785 103.537 -91.3409
2.210689 103.580 -91.7408
2.226709 103.621 -92.1387
2.242844 103.660 -92.5369
2.259097 103.697 -92.9361
2.275467 103.731 -93.3361
2.291956 103.763 -93.7365
2.308565 103.793 -94.1366
2.325294 103.821 -94.5355
2.342144 103.847 -94.9325
2.359116 103.872 -95.3268
2.376211 103.894 -95.7172
2.393430 103.915 -96.1030
2.410774 103.935 -96.4829
2.428243 103.953 -96.8558
2.445839 103.971 -97.2206
2.463562 103.987 -97.5759
2.481415 104.002 -97.9204
2.499396 104.017 -98.2527
2.517508 104.031 -98.5715
2.535750 104.045 -98.8754
2.554126 104.059 -99.1639
2.572634 104.071 -99.4375
2.591276 104.082 -99.6982
2.610054 104.091 -99.9475
2.628967 104.099 -100.1863
2.648018 104.104 -100.4149
2.667206 104.107 -100.6336
2.686534 104.109 -100.8423
2.706002 104.110 -101.0412
2.725610 104.109 -101.2301
2.745361 104.108 -101.4090
2.765255 104.105 -101.5780
2.785294 104.103 -101.7367
2.805477 104.100 -101.8851
2.825807 104.098 -102.0231
2.846284 104.096 -102.1504
2.866909 104.094 -102.2667
2.887684 104.094 -102.3718
2.908609 104.095 -102.4648
2.929686 104.096 -102.5443
2.950916 104.099 -102.6083
2.972299 104.101 -102.6550
2.993838 104.103 -102.6839
3.015532 104.106 -102.6957
3.037384 104.108 -102.6916
3.059394 104.110 -102.6728
3.081564 104.112 -102.6408
3.103894 104.116 -102.5972
3.126386 104.119 -102.5435
3.149041 104.124 -102.4814
3.171861 104.130 -102.4127
3.194845 104.137 -102.3392
3.217996 104.146 -102.2628
3.241315 104.156 -102.1852
3.264803 104.169 -102.1075
3.288461 104.183 -102.0294
3.312291 104.200 -101.9480
3.336293 104.220 -101.8590
3.360469 104.241 -101.7606
3.384820 104.265 -101.6531
3.409348 104.290 -101.5380
3.434054 104.318 -101.4175
3.458938 104.347 -101.2938
3.484003 104.377 -101.1693
3.509250 104.409 -101.0465
3.534679 104.441 -100.9280
3.560293 104.475 -100.8163
3.586092 104.509 -100.7140
3.612079 104.543 -100.6234
3.638253 104.578 -100.5463
3.664618 104.613 -100.4832
3.691173 104.650 -100.4322
3.717921 104.688 -100.3913
3.744862 104.728 -100.3591
3.771999 104.769 -100.3352
3.799332 104.812 -100.3196
3.826864 104.855 -100.3121
3.854595 104.898 -100.3127
3.882527 104.941 -100.3217
3.910661 104.983 -100.3389
3.938999 105.025 -100.3645
3.967543 105.064 -100.3988
3.996294 105.102 -100.4422
4.025252 105.138 -100.4961
4.054421 105.172 -100.5622
4.083801 105.205 -100.6422
4.113394 105.237 -100.7357
4.143201 105.268 -100.8411
4.173225 105.297 -100.9561
4.203466 105.325 -101.0783
4.233926 105.351 -101.2050
4.264606 105.376 -101.3335
4.295509 105.398 -101.4612
4.326636 105.418 -101.5856
4.357989 105.435 -101.7050
4.389569 105.450 -101.8196
4.421378 105.461 -101.9321
4.453417 105.469 -102.0462
4.485688 105.474 -102.1629
4.518193 105.477 -102.2806
4.550934 105.476 -102.3968
4.583912 105.474 -102.5082
4.617129 105.469 -102.6114
4.650587 105.463 -102.7027
4.684287 105.455 -102.7785
4.718231 105.446 -102.8356
4.752421 105.435 -102.8717
4.786859 105.422 -102.8873
4.821547 105.407 -102.8841
4.856485 105.390 -102.8635
4.891677 105.370 -102.8256
4.927125 105.348 -102.7700
4.962829 105.326 -102.6961
4.998791 105.304 -102.6033
5.035015 105.282 -102.4906
5.071500 105.263 -102.3570
5.108251 105.245 -102.2011
5.145267 105.229 -102.0202
5.182552 105.215 -101.8119
5.220107 105.201 -101.5761
5.257934 105.189 -101.3150
5.296035 105.177 -101.0325
5.334412 105.169 -100.7329
5.373067 105.162 -100.4211
5.412003 105.160 -100.1018
5.451221 105.161 -99.7786
5.490722 105.167 -99.4526
5.530510 105.178 -99.1206
5.570587 105.194 -98.7791
5.610953 105.214 -98.4291
5.651613 105.239 -98.0750
5.692567 105.266 -97.7227
5.733818 105.297 -97.3787
5.775367 105.331 -97.0495
5.817218 105.367 -96.7404
5.859372 105.405 -96.4543
5.901831 105.447 -96.1900
5.944598 105.493 -95.9450
5.987675 105.542 -95.7184
6.031065 105.593 -95.5110
6.074768 105.646 -95.3239
6.118788 105.699 -95.1587
6.163127 105.751 -95.0172
6.207788 105.801 -94.9011
6.252772 105.850 -94.8123
6.298082 105.899 -94.7517
6.343721 105.946 -94.7175
6.389690 105.993 -94.7060
6.435992 106.038 -94.7127
6.482630 106.081 -94.7330
6.529606 106.120 -94.7628
6.576922 106.156 -94.8005
6.624581 106.188 -94.8475
6.672585 106.217 -94.9071
6.720938 106.241 -94.9784
6.769640 106.263 -95.0570
6.818696 106.281 -95.1367
6.868107 106.296 -95.2109
6.917876 106.309 -95.2740
6.968006 106.318 -95.3237
7.018499 106.323 -95.3615
7.069358 106.326 -95.3893
7.120586 106.325 -95.4062
7.172184 106.321 -95.4096
7.224157 106.317 -95.3960
7.276506 106.312 -95.3617
7.329235 106.307 -95.3040
7.382345 106.301 -95.2216
7.435841 106.295 -95.1152
7.489724 106.288 -94.9871
7.543997 106.282 -94.8395
7.598664 106.277 -94.6750
7.653728 106.274 -94.4953
7.709189 106.274 -94.3002
7.765053 106.277 -94.0878
7.821322 106.282 -93.8590
7.877998 106.290 -93.6177
7.935086 106.299 -93.3694
7.992587 106.312 -93.1199
8.050504 106.327 -92.8730
8.108841 106.346 -92.6292
8.167601 106.368 -92.3874
8.226787 106.392 -92.1486
8.286402 106.418 -91.9156
8.346449 106.446 -91.6917
8.406931 106.474 -91.4799
8.467851 106.503 -91.2817
8.529212 106.533 -91.0966
8.591018 106.563 -90.9231
8.653272 106.594 -90.7594
8.715977 106.624 -90.6037
8.779137 106.653 -90.4553
8.842754 106.680 -90.3145
8.906833 106.706 -90.1813
8.971375 106.731 -90.0534
9.036386 106.755 -89.9269
9.101867 106.777 -89.7978
9.167823 106.798 -89.6637
9.234257 106.817 -89.5244
9.301172 106.834 -89.3800
9.368572 106.851 -89.2290
9.436460 106.866 -89.0692
9.504841 106.882 -88.8985
9.573717 106.898 -88.7158
9.643092 106.913 -88.5212
9.712970 106.928 -88.3159
9.783354 106.944 -88.1011
9.854248 106.961 -87.8780
9.925656 106.978 -87.6469
9.997581 106.997 -87.4076
10.070028 107.017 -87.1617
10.143000 107.038 -86.9115
10.216500 107.060 -86.6600
10.290533 107.083 -86.4084
10.365103 107.108 -86.1571
10.440212 107.132 -85.9063
10.515866 107.158 -85.6570
10.592069 107.183 -85.4103
10.668823 107.209 -85.1670
10.746134 107.234 -84.9270
10.824005 107.258 -84.6893
10.902440 107.283 -84.4525
10.981443 107.306 -84.2157
11.061020 107.328 -83.9785
11.141172 107.349 -83.7402
11.221906 107.369 -83.4994
11.303225 107.389 -83.2543
11.385133 107.407 -83.0034
11.467634 107.424 -82.7463
11.550734 107.440 -82.4827
11.634435 107.456 -82.2122
11.718742 107.471 -81.9341
11.803661 107.485 -81.6479
11.889195 107.500 -81.3540
11.975349 107.513 -81.0527
12.062128 107.527 -80.7447
12.149535 107.540 -80.4303
12.237576 107.553 -80.1094
12.326254 107.566 -79.7822
12.415575 107.578 -79.4491
12.505544 107.590 -79.1100
12.596164 107.602 -78.7649
12.687441 107.612 -78.4130
12.779379 107.623 -78.0535
12.871984 107.633 -77.6858
12.965260 107.642 -77.3097
13.059211 107.651 -76.9244
13.153843 107.660 -76.5295
13.249161 107.669 -76.1244
13.345170 107.679 -75.7094
13.441875 107.688 -75.2856
13.539280 107.699 -74.8546
13.637391 107.711 -74.4172
13.736214 107.725 -73.9751
13.835752 107.739 -73.5314
13.936011 107.755 -73.0895
14.036998 107.772 -72.6512
14.138716 107.790 -72.2183
14.241171 107.809 -71.7940
14.344368 107.827 -71.3803
14.448313 107.846 -70.9777
14.553011 107.864 -70.5857
14.658468 107.880 -70.2036
14.764689 107.895 -69.8305
14.871680 107.907 -69.4636
14.979446 107.917 -69.0983
15.087994 107.923 -68.7310
15.197328 107.928 -68.3585
15.307454 107.929 -67.9763
15.418378 107.929 -67.5794
15.530106 107.927 -67.1655
15.642643 107.925 -66.7330
15.755996 107.923 -66.2809
15.870171 107.921 -65.8090
15.985172 107.922 -65.3204
16.101007 107.925 -64.8199
16.217682 107.932 -64.3119
16.335201 107.942 -63.8018
16.453573 107.956 -63.2979
16.572803 107.973 -62.8069
16.692898 107.993 -62.3335
16.813862 108.014 -61.8826
16.935701 108.036 -61.4583
17.058424 108.057 -61.0606
17.182035 108.077 -60.6872
17.306543 108.093 -60.3352
17.431953 108.106 -59.9995
17.558273 108.115 -59.6711
17.685509 108.118 -59.3418
17.813665 108.117 -59.0042
17.942751 108.112 -58.6485
18.072771 108.104 -58.2674
18.203733 108.094 -57.8567
18.335646 108.083 -57.4133
18.468513 108.074 -56.9365
18.602345 108.066 -56.4302
18.737144 108.063 -55.9005
18.872921 108.063 -55.3538
19.009682 108.068 -54.7998
19.147434 108.077 -54.2478
19.286184 108.090 -53.7040
19.425940 108.104 -53.1742
19.566708 108.120 -52.6612
19.708496 108.136 -52.1635
19.851313 108.150 -51.6771
19.995163 108.162 -51.1968
20.140057 108.171 -50.7140
20.285999 108.178 -50.2211
20.433001 108.183 -49.7124
20.581066 108.187 -49.1831
20.730206 108.192 -48.6324
20.880424 108.198 -48.0636
21.031733 108.207 -47.4818
21.184137 108.219 -46.8955
21.337646 108.233 -46.3144
21.492268 108.249 -45.7455
21.648010 108.266 -45.1944
21.804880 108.280 -44.6630
21.962887 108.292 -44.1469
22.122040 108.298 -43.6389
22.282345 108.299 -43.1273
22.443811 108.293 -42.5978
22.606449 108.283 -42.0384
22.770266 108.268 -41.4373
22.935268 108.252 -40.7886
23.101467 108.237 -40.0923
23.268869 108.225 -39.3536
23.437485 108.217 -38.5849
23.607323 108.216 -37.8011
23.778391 108.220 -37.0180
23.950699 108.228 -36.2501
24.124256 108.239 -35.5053
24.299070 108.249 -34.7868
24.475151 108.257 -34.0907
24.652508 108.261 -33.4075
24.831150 108.261 -32.7260
25.011087 108.257 -32.0332
25.192327 108.250 -31.3206
25.374882 108.243 -30.5833
25.558758 108.236 -29.8224
25.743967 108.233 -29.0453
25.930519 108.232 -28.2618
26.118422 108.235 -27.4845
26.307686 108.240 -26.7226
26.498322 108.246 -25.9828
26.690340 108.251 -25.2657
26.883749 108.253 -24.5670
27.078560 108.253 -23.8786
27.274782 108.248 -23.1901
27.472427 108.240 -22.4922
27.671503 108.229 -21.7769
27.872023 108.217 -21.0399
28.073996 108.206 -20.2800
28.277431 108.195 -19.4992
28.482342 108.187 -18.7010
28.688736 108.180 -17.8903
28.896626 108.177 -17.0718
29.106022 108.176 -16.2506
29.316936 108.178 -15.4320
29.529379 108.182 -14.6211
29.743361 108.187 -13.8230
29.958893 108.193 -13.0413
30.175987 108.199 -12.2770
30.394655 108.201 -11.5267
30.614908 108.200 -10.7828
30.836756 108.194 -10.0329
31.060211 108.182 -9.2629
31.285286 108.167 -8.4587
31.511992 108.149 -7.6108
31.740341 108.132 -6.7159
31.970345 108.117 -5.7792
32.202015 108.107 -4.8121
32.435364 108.101 -3.8302
32.670403 108.100 -2.8479
32.907146 108.101 -1.8750
33.145607 108.102 -0.9141
33.385796 108.102 0.0389
33.627724 108.100 0.9914
33.871403 108.097 1.9519
34.116848 108.092 2.9243
34.364071 108.088 3.9079
34.613087 108.084 4.8968
34.863907 108.082 5.8841
35.116547 108.079 6.8652
35.371017 108.075 7.8396
35.627331 108.069 8.8116
35.885502 108.062 9.7865
36.145542 108.054 10.7669
36.407467 108.047 11.7490
36.671291 108.041 12.7231
36.937027 108.037 13.6766
37.204689 108.031 14.6003
37.474289 108.021 15.4950
37.745842 108.006 16.3716
38.019363 107.983 17.2488
38.294868 107.954 18.1444
38.572369 107.921 19.0665
38.851879 107.886 20.0117
39.133415 107.849 20.9700
39.416992 107.808 21.9379
39.702625 107.759 22.9344
39.990326 107.699 24.0053
40.280113 107.632 25.2145
40.571999 107.568 26.6175
40.866001 107.525 28.2189
41.162132 107.521 29.9414
41.460411 107.565 31.6329
41.760849 107.651 33.1101
42.063465 107.759 34.2306
42.368275 107.854 34.9604
42.675293 107.907 35.3899
42.984535 107.899 35.7003
43.296021 107.829 36.1119
43.609760 107.711 36.8256
43.925774 107.575 37.9591
44.244080 107.457 39.4975
44.564690 107.380 41.2977
44.887623 107.353 43.1580
45.212898 107.362 44.9084
45.540531 107.390 46.4701
45.870537 107.417 47.8570
46.202934 107.433 49.1334
46.537739 107.439 50.3627
46.874969 107.436 51.5783
47.214645 107.426 52.7864
47.556782 107.409 53.9888
47.901398 107.383 55.2021
48.248512 107.349 56.4532
48.598141 107.312 57.7600
48.950302 107.278 59.1141
49.305016 107.249 60.4824
49.662300 107.225 61.8306
50.022175 107.199 63.1484
50.384655 107.169 64.4561
50.749763 107.134 65.7875
51.117516 107.099 67.1621
51.487934 107.070 68.5694
51.861038 107.049 69.9773
52.236843 107.032 71.3575
52.615372 107.016 72.7046
52.996643 106.997 74.0346
53.380680 106.976 75.3690
53.767498 106.954 76.7187
54.157120 106.933 78.0823
54.549564 106.911 79.4550
54.944855 106.889 80.8375
55.343006 106.866 82.2358
55.744045 106.841 83.6556
56.147991 106.815 85.0984
56.554863 106.788 86.5646
56.964684 106.759 88.0583
57.377472 106.728 89.5873
57.793251 106.698 91.1568
58.212044 106.668 92.7614
58.633873 106.642 94.3839
59.058758 106.617 96.0032
59.486721 106.591 97.6059
59.917786 106.561 99.1937
60.351974 106.524 100.7817
60.789310 106.480 102.3889
61.229816 106.430 104.0307
61.673512 106.376 105.7195
62.120422 106.319 107.4689
62.570572 106.266 109.2857
63.023983 106.221 111.1519
63.480682 106.190 113.0141
63.940689 106.171 114.8036
64.404030 106.154 116.4785
64.870728 106.130 118.0490
65.340805 106.092 119.5646
65.814293 106.041 121.0850
66.291214 105.977 122.6646
66.771591 105.907 124.3495
67.255447 105.840 126.1603
67.742805 105.786 128.0654
68.233696 105.748 129.9898
68.728142 105.723 131.8728
69.226173 105.700 133.7102
69.727814 105.678 135.5250
70.233093 105.656 137.3120
70.742035 105.629 139.0483
71.254662 105.588 140.7617
71.771004 105.530 142.5434
72.291084 105.464 144.4615
72.814934 105.404 146.4834
73.342583 105.351 148.5185
73.874054 105.297 150.5279
74.409378 105.237 152.5506
74.948578 105.176 154.6296
75.491684 105.121 156.7497
76.038727 105.074 158.8534
76.589737 105.030 160.8980
77.144737 104.983 162.8956
77.703758 104.931 164.9057
78.266830 104.878 166.9694
78.833984 104.832 169.0562
79.405251 104.788 171.1221
79.980652 104.739 173.2113
