* Measurement data measured by REW V5.31
* Source: EXCL: Microphone (USB Sound Device        ), MICROPHONE (Master Volume), L, volume: 0.390
* Format: 256k Log Swept Sine, 1 sweep at -4.0 dBFS with no timing reference
* Dated: Jul 24, 2024 12:56:39 AM
* REW Settings:
*  C-weighting compensation: Off
*  Target level: 75.0 dB
* Note: Effect Audio Pilgrim Noir R
* Measurement: R Pilgrim Noir
* Smoothing: 1/12 octave
* Frequency Step: 96 ppo
* Start Frequency: 0.36621094 Hz
*
* Freq(Hz) SPL(dB) Phase(degrees)
0.366211 83.475 160.0139
0.368865 83.470 159.9922
0.371538 83.462 159.9596
0.374230 83.452 159.9188
0.376942 83.441 159.8717
0.379673 83.429 159.8201
0.382424 83.417 159.7648
0.385196 83.404 159.7066
0.387987 83.391 159.6458
0.390798 83.378 159.5826
0.393630 83.365 159.5170
0.396483 83.351 159.4492
0.399356 83.338 159.3791
0.402250 83.324 159.3067
0.405165 83.311 159.2320
0.408101 83.297 159.1550
0.411058 83.283 159.0757
0.414037 83.269 158.9940
0.417037 83.255 158.9099
0.420059 83.241 158.8234
0.423103 83.226 158.7345
0.426169 83.212 158.6431
0.429257 83.198 158.5493
0.432368 83.183 158.4530
0.435501 83.168 158.3542
0.438656 83.153 158.2528
0.441835 83.139 158.1489
0.445037 83.124 158.0424
0.448262 83.108 157.9333
0.451510 83.093 157.8216
0.454782 83.078 157.7073
0.458077 83.062 157.5903
0.461397 83.047 157.4707
0.464740 83.031 157.3484
0.468108 83.015 157.2233
0.471500 82.999 157.0956
0.474917 82.983 156.9651
0.478358 82.967 156.8319
0.481825 82.951 156.6960
0.485316 82.935 156.5572
0.488833 82.918 156.4157
0.492375 82.902 156.2714
0.495943 82.885 156.1243
0.499537 82.868 155.9744
0.503157 82.851 155.8217
0.506803 82.834 155.6662
0.510475 82.817 155.5078
0.514175 82.799 155.3467
0.517900 82.782 155.1827
0.521653 82.764 155.0159
0.525434 82.747 154.8462
0.529241 82.729 154.6738
0.533076 82.711 154.4985
0.536939 82.693 154.3204
0.540830 82.674 154.1396
0.544749 82.656 153.9560
0.548696 82.638 153.7696
0.552673 82.619 153.5804
0.556677 82.600 153.3886
0.560711 82.581 153.1940
0.564774 82.562 152.9967
0.568867 82.543 152.7968
0.572989 82.524 152.5943
0.577141 82.504 152.3892
0.581324 82.485 152.1815
0.585536 82.465 151.9713
0.589779 82.445 151.7587
0.594053 82.425 151.5436
0.598358 82.405 151.3262
0.602694 82.384 151.1064
0.607061 82.364 150.8844
0.611460 82.343 150.6602
0.615891 82.322 150.4339
0.620354 82.302 150.2056
0.624849 82.280 149.9753
0.629377 82.259 149.7431
0.633938 82.238 149.5091
0.638532 82.216 149.2734
0.643159 82.195 149.0361
0.647819 82.173 148.7973
0.652514 82.151 148.5572
0.657242 82.129 148.3158
0.662005 82.106 148.0732
0.666802 82.084 147.8297
0.671634 82.061 147.5852
0.676501 82.038 147.3401
0.681403 82.015 147.0944
0.686341 81.992 146.8483
0.691314 81.969 146.6020
0.696324 81.945 146.3555
0.701370 81.921 146.1092
0.706452 81.897 145.8629
0.711571 81.872 145.6170
0.716728 81.847 145.3711
0.721921 81.821 145.1253
0.727153 81.793 144.8790
0.732422 81.764 144.6315
0.737729 81.733 144.3820
0.743075 81.700 144.1297
0.748460 81.665 143.8736
0.753883 81.629 143.6131
0.759346 81.592 143.3479
0.764849 81.555 143.0777
0.770391 81.517 142.8021
0.775974 81.478 142.5212
0.781597 81.439 142.2347
0.787261 81.399 141.9426
0.792966 81.358 141.6448
0.798712 81.317 141.3414
0.804500 81.276 141.0321
0.810329 81.234 140.7170
0.816201 81.191 140.3960
0.822116 81.147 140.0691
0.828073 81.103 139.7363
0.834074 81.059 139.3975
0.840118 81.013 139.0527
0.846206 80.967 138.7018
0.852338 80.920 138.3449
0.858514 80.873 137.9820
0.864735 80.824 137.6130
0.871001 80.775 137.2379
0.877313 80.725 136.8569
0.883670 80.674 136.4697
0.890074 80.622 136.0766
0.896524 80.570 135.6776
0.903020 80.516 135.2727
0.909564 80.462 134.8619
0.916155 80.406 134.4454
0.922794 80.350 134.0232
0.929481 80.292 133.5955
0.936216 80.234 133.1623
0.943000 80.174 132.7239
0.949834 80.113 132.2803
0.956717 80.051 131.8317
0.963649 79.988 131.3783
0.970632 79.924 130.9204
0.977666 79.858 130.4582
0.984750 79.791 129.9919
0.991886 79.723 129.5218
0.999074 79.653 129.0482
1.006314 79.582 128.5716
1.013606 79.510 128.0922
1.020951 79.436 127.6105
1.028349 79.360 127.1269
1.035801 79.283 126.6418
1.043307 79.204 126.1558
1.050867 79.124 125.6694
1.058482 79.042 125.1830
1.066152 78.958 124.6973
1.073878 78.872 124.2125
1.081660 78.784 123.7290
1.089498 78.695 123.2469
1.097393 78.603 122.7659
1.105345 78.510 122.2854
1.113355 78.414 121.8048
1.121423 78.316 121.3233
1.129549 78.216 120.8402
1.137734 78.114 120.3547
1.145979 78.010 119.8663
1.154283 77.904 119.3744
1.162647 77.795 118.8786
1.171072 77.685 118.3784
1.179558 77.572 117.8732
1.188106 77.456 117.3625
1.196715 77.339 116.8459
1.205387 77.220 116.3226
1.214122 77.098 115.7923
1.222920 76.974 115.2541
1.231782 76.848 114.7076
1.240708 76.720 114.1520
1.249699 76.590 113.5865
1.258754 76.457 113.0106
1.267876 76.323 112.4233
1.277063 76.186 111.8238
1.286318 76.047 111.2114
1.295639 75.906 110.5851
1.305027 75.763 109.9440
1.314484 75.618 109.2871
1.324009 75.471 108.6133
1.333604 75.322 107.9218
1.343268 75.171 107.2113
1.353002 75.018 106.4808
1.362806 74.863 105.7291
1.372681 74.706 104.9552
1.382628 74.548 104.1579
1.392647 74.387 103.3360
1.402739 74.224 102.4885
1.412904 74.060 101.6143
1.423142 73.893 100.7124
1.433455 73.724 99.7819
1.443843 73.552 98.8219
1.454305 73.377 97.8315
1.464844 73.197 96.8099
1.475459 73.012 95.7559
1.486150 72.820 94.6679
1.496920 72.620 93.5438
1.507767 72.413 92.3811
1.518693 72.197 91.1770
1.529698 71.973 89.9282
1.540783 71.742 88.6309
1.551948 71.504 87.2813
1.563194 71.260 85.8751
1.574521 71.011 84.4078
1.585931 70.757 82.8745
1.597423 70.499 81.2700
1.608999 70.239 79.5888
1.620658 69.978 77.8254
1.632402 69.717 75.9737
1.644232 69.456 74.0279
1.656146 69.198 71.9820
1.668147 68.943 69.8301
1.680235 68.693 67.5668
1.692411 68.449 65.1873
1.704675 68.213 62.6877
1.717028 67.986 60.0654
1.729470 67.770 57.3195
1.742003 67.567 54.4513
1.754626 67.379 51.4645
1.767341 67.207 48.3656
1.780147 67.054 45.1643
1.793047 66.921 41.8728
1.806040 66.810 38.5057
1.819128 66.722 35.0788
1.832310 66.659 31.6078
1.845587 66.622 28.1076
1.858961 66.610 24.5919
1.872432 66.622 21.0740
1.886001 66.659 17.5670
1.899667 66.720 14.0843
1.913433 66.802 10.6394
1.927299 66.906 7.2460
1.941265 67.028 3.9171
1.955332 67.168 0.6652
1.969501 67.325 -2.4987
1.983773 67.495 -5.5646
1.998148 67.678 -8.5241
2.012627 67.872 -11.3704
2.027212 68.074 -14.0981
2.041902 68.283 -16.7034
2.056698 68.497 -19.1838
2.071602 68.714 -21.5380
2.086614 68.931 -23.7658
2.101734 69.147 -25.8678
2.116964 69.359 -27.8460
2.132304 69.566 -29.7028
2.147756 69.766 -31.4422
2.163320 69.960 -33.0692
2.178996 70.145 -34.5908
2.194786 70.324 -36.0155
2.210690 70.498 -37.3533
2.226710 70.668 -38.6146
2.242845 70.837 -39.8086
2.259098 71.005 -40.9429
2.275468 71.173 -42.0236
2.291957 71.342 -43.0550
2.308566 71.511 -44.0405
2.325295 71.681 -44.9827
2.342145 71.850 -45.8832
2.359117 72.020 -46.7434
2.376212 72.190 -47.5643
2.393431 72.359 -48.3464
2.410775 72.527 -49.0899
2.428244 72.694 -49.7950
2.445840 72.859 -50.4616
2.463564 73.022 -51.0893
2.481416 73.182 -51.6779
2.499397 73.340 -52.2270
2.517509 73.495 -52.7365
2.535752 73.646 -53.2064
2.554127 73.793 -53.6374
2.572635 73.936 -54.0306
2.591277 74.075 -54.3877
2.610055 74.210 -54.7108
2.628968 74.341 -55.0024
2.648019 74.468 -55.2647
2.667208 74.593 -55.5002
2.686535 74.714 -55.7110
2.706003 74.833 -55.8992
2.725612 74.949 -56.0669
2.745363 75.064 -56.2159
2.765257 75.178 -56.3481
2.785295 75.292 -56.4651
2.805478 75.405 -56.5685
2.825808 75.518 -56.6597
2.846285 75.633 -56.7399
2.866910 75.748 -56.8098
2.887685 75.865 -56.8698
2.908611 75.984 -56.9195
2.929688 76.104 -56.9581
2.950917 76.226 -56.9843
2.972301 76.349 -56.9972
2.993839 76.472 -56.9966
3.015534 76.596 -56.9831
3.037386 76.721 -56.9582
3.059396 76.846 -56.9240
3.081565 76.972 -56.8826
3.103896 77.098 -56.8367
3.126388 77.225 -56.7887
3.149043 77.352 -56.7412
3.171862 77.480 -56.6966
3.194847 77.609 -56.6569
3.217998 77.739 -56.6238
3.241317 77.869 -56.5986
3.264805 78.001 -56.5814
3.288463 78.133 -56.5718
3.312293 78.267 -56.5685
3.336295 78.402 -56.5699
3.360471 78.538 -56.5751
3.384822 78.675 -56.5840
3.409350 78.814 -56.5971
3.434056 78.952 -56.6158
3.458940 79.092 -56.6416
3.484005 79.231 -56.6765
3.509252 79.370 -56.7224
3.534681 79.509 -56.7812
3.560295 79.648 -56.8546
3.586094 79.786 -56.9443
3.612081 79.922 -57.0513
3.638255 80.058 -57.1762
3.664620 80.193 -57.3190
3.691175 80.327 -57.4790
3.717923 80.460 -57.6551
3.744864 80.592 -57.8462
3.772001 80.723 -58.0510
3.799335 80.853 -58.2686
3.826866 80.982 -58.4980
3.854597 81.110 -58.7385
3.882529 81.236 -58.9894
3.910664 81.360 -59.2503
3.939002 81.483 -59.5209
3.967546 81.603 -59.8012
3.996296 81.722 -60.0914
4.025255 81.838 -60.3917
4.054423 81.952 -60.7027
4.083804 82.064 -61.0245
4.113396 82.173 -61.3568
4.143204 82.280 -61.6988
4.173227 82.385 -62.0494
4.203468 82.487 -62.4073
4.233928 82.588 -62.7710
4.264609 82.686 -63.1390
4.295512 82.782 -63.5102
4.326639 82.876 -63.8837
4.357992 82.967 -64.2593
4.389572 83.056 -64.6371
4.421380 83.143 -65.0176
4.453419 83.228 -65.4015
4.485691 83.310 -65.7888
4.518196 83.389 -66.1793
4.550936 83.466 -66.5720
4.583914 83.541 -66.9656
4.617131 83.614 -67.3586
4.650589 83.686 -67.7496
4.684289 83.755 -68.1372
4.718233 83.824 -68.5205
4.752424 83.890 -68.8992
4.786862 83.955 -69.2734
4.821549 84.019 -69.6435
4.856488 84.081 -70.0099
4.891680 84.141 -70.3731
4.927127 84.200 -70.7330
4.962831 84.258 -71.0896
4.998794 84.315 -71.4424
5.035017 84.371 -71.7911
5.071503 84.427 -72.1353
5.108253 84.482 -72.4745
5.145270 84.538 -72.8087
5.182555 84.593 -73.1379
5.220110 84.648 -73.4626
5.257937 84.702 -73.7835
5.296038 84.756 -74.1016
5.334415 84.811 -74.4178
5.373071 84.865 -74.7332
5.412006 84.920 -75.0486
5.451224 84.976 -75.3645
5.490725 85.032 -75.6811
5.530514 85.089 -75.9987
5.570590 85.146 -76.3173
5.610957 85.204 -76.6375
5.651616 85.262 -76.9601
5.692570 85.321 -77.2863
5.733821 85.381 -77.6174
5.775370 85.441 -77.9547
5.817221 85.502 -78.2991
5.859375 85.563 -78.6512
5.901834 85.625 -79.0113
5.944602 85.687 -79.3795
5.987679 85.750 -79.7559
6.031068 85.812 -80.1408
6.074771 85.876 -80.5346
6.118792 85.939 -80.9380
6.163131 86.002 -81.3515
6.207792 86.065 -81.7756
6.252776 86.127 -82.2105
6.298086 86.189 -82.6563
6.343725 86.251 -83.1126
6.389694 86.313 -83.5789
6.435996 86.374 -84.0544
6.482634 86.434 -84.5386
6.529610 86.494 -85.0310
6.576926 86.552 -85.5312
6.624585 86.610 -86.0392
6.672590 86.667 -86.5547
6.720942 86.723 -87.0773
6.769645 86.778 -87.6060
6.818700 86.832 -88.1397
6.868111 86.885 -88.6773
6.917881 86.938 -89.2180
6.968010 86.989 -89.7611
7.018504 87.040 -90.3064
7.069362 87.089 -90.8534
7.120590 87.138 -91.4017
7.172189 87.187 -91.9506
7.224161 87.235 -92.4991
7.276511 87.282 -93.0464
7.329239 87.330 -93.5921
7.382350 87.377 -94.1358
7.435845 87.423 -94.6774
7.489729 87.470 -95.2170
7.544002 87.517 -95.7544
7.598669 87.564 -96.2897
7.653732 87.611 -96.8228
7.709194 87.659 -97.3535
7.765058 87.708 -97.8819
7.821327 87.757 -98.4084
7.878004 87.806 -98.9333
7.935091 87.856 -99.4571
7.992592 87.907 -99.9802
8.050510 87.959 -100.5031
8.108847 88.011 -101.0260
8.167607 88.064 -101.5492
8.226793 88.118 -102.0730
8.286408 88.173 -102.5979
8.346454 88.228 -103.1241
8.406936 88.284 -103.6521
8.467856 88.340 -104.1821
8.529218 88.397 -104.7142
8.591024 88.454 -105.2483
8.653278 88.511 -105.7843
8.715983 88.569 -106.3222
8.779143 88.626 -106.8618
8.842760 88.684 -107.4029
8.906839 88.741 -107.9454
8.971381 88.798 -108.4887
9.036392 88.855 -109.0324
9.101873 88.912 -109.5759
9.167829 88.968 -110.1188
9.234263 89.024 -110.6606
9.301178 89.080 -111.2010
9.368578 89.135 -111.7394
9.436467 89.190 -112.2753
9.504847 89.244 -112.8081
9.573723 89.297 -113.3376
9.643099 89.350 -113.8634
9.712976 89.401 -114.3854
9.783361 89.450 -114.9034
9.854255 89.497 -115.4171
9.925663 89.542 -115.9265
9.997588 89.584 -116.4316
10.070035 89.623 -116.9326
10.143007 89.661 -117.4295
10.216507 89.697 -117.9226
10.290540 89.730 -118.4120
10.365109 89.763 -118.8981
10.440219 89.794 -119.3810
10.515873 89.825 -119.8611
10.592076 89.855 -120.3385
10.668830 89.884 -120.8136
10.746141 89.912 -121.2866
10.824012 89.940 -121.7575
10.902447 89.968 -122.2266
10.981451 89.995 -122.6940
11.061027 90.021 -123.1597
11.141180 90.046 -123.6238
11.221913 90.071 -124.0863
11.303232 90.095 -124.5472
11.385140 90.118 -125.0064
11.467641 90.140 -125.4639
11.550741 90.161 -125.9197
11.634442 90.182 -126.3737
11.718750 90.202 -126.8260
11.803669 90.222 -127.2767
11.889203 90.242 -127.7257
11.975357 90.261 -128.1731
12.062136 90.279 -128.6192
12.149543 90.298 -129.0641
12.237583 90.315 -129.5080
12.326262 90.332 -129.9512
12.415583 90.349 -130.3938
12.505552 90.365 -130.8362
12.596172 90.380 -131.2786
12.687449 90.395 -131.7213
12.779387 90.408 -132.1645
12.871992 90.422 -132.6085
12.965268 90.434 -133.0535
13.059220 90.446 -133.4996
13.153852 90.458 -133.9472
13.249170 90.469 -134.3962
13.345179 90.480 -134.8469
13.441884 90.490 -135.2995
13.539289 90.501 -135.7540
13.637401 90.511 -136.2105
13.736223 90.521 -136.6694
13.835761 90.530 -137.1306
13.936021 90.540 -137.5944
14.037007 90.549 -138.0609
14.138725 90.557 -138.5303
14.241180 90.565 -139.0027
14.344377 90.573 -139.4783
14.448323 90.580 -139.9572
14.553021 90.588 -140.4395
14.658478 90.595 -140.9251
14.764700 90.601 -141.4140
14.871691 90.608 -141.9063
14.979457 90.615 -142.4016
15.088005 90.621 -142.8999
15.197339 90.628 -143.4010
15.307465 90.634 -143.9045
15.418389 90.641 -144.4104
15.530117 90.647 -144.9182
15.642655 90.654 -145.4278
15.756008 90.660 -145.9391
15.870182 90.667 -146.4517
15.985184 90.673 -146.9656
16.101019 90.680 -147.4806
16.217694 90.686 -147.9966
16.335214 90.693 -148.5134
16.453586 90.700 -149.0309
16.572815 90.707 -149.5486
16.692909 90.714 -150.0663
16.813872 90.721 -150.5834
16.935713 90.729 -151.0994
17.058436 90.736 -151.6136
17.182048 90.743 -152.1250
17.306556 90.751 -152.6330
17.431967 90.758 -153.1366
17.558286 90.765 -153.6350
17.685521 90.772 -154.1274
17.813677 90.779 -154.6134
17.942762 90.785 -155.0925
18.072783 90.792 -155.5648
18.203746 90.799 -156.0304
18.335658 90.807 -156.4899
18.468526 90.815 -156.9441
18.602356 90.823 -157.3939
18.737156 90.833 -157.8405
18.872934 90.842 -158.2850
19.009695 90.853 -158.7286
19.147447 90.863 -159.1722
19.286197 90.874 -159.6166
19.425953 90.884 -160.0621
19.566721 90.894 -160.5088
19.708510 90.903 -160.9564
19.851326 90.911 -161.4044
19.995177 90.917 -161.8520
20.140070 90.923 -162.2981
20.286013 90.927 -162.7420
20.433014 90.930 -163.1826
20.581080 90.931 -163.6194
20.730219 90.932 -164.0522
20.880439 90.933 -164.4810
21.031747 90.933 -164.9064
21.184152 90.933 -165.3294
21.337661 90.933 -165.7511
21.492282 90.933 -166.1730
21.648024 90.934 -166.5968
21.804895 90.934 -167.0238
21.962902 90.934 -167.4553
22.122054 90.934 -167.8923
22.282360 90.934 -168.3351
22.443827 90.932 -168.7838
22.606464 90.930 -169.2378
22.770280 90.927 -169.6964
22.935283 90.923 -170.1584
23.101481 90.918 -170.6225
23.268884 90.912 -171.0874
23.437500 90.905 -171.5521
23.607338 90.897 -172.0156
23.778406 90.889 -172.4775
23.950714 90.881 -172.9377
24.124271 90.872 -173.3964
24.299086 90.864 -173.8540
24.475167 90.856 -174.3111
24.652524 90.849 -174.7685
24.831166 90.842 -175.2266
25.011103 90.835 -175.6858
25.192344 90.828 -176.1462
25.374898 90.822 -176.6074
25.558775 90.815 -177.0692
25.743984 90.809 -177.5306
25.930536 90.802 -177.9909
26.118439 90.795 -178.4492
26.307704 90.788 -178.9045
26.498341 90.780 -179.3563
26.690359 90.773 -179.8041
26.883768 90.765 179.7525
27.078579 90.757 179.3134
27.274801 90.749 178.8782
27.472446 90.742 178.4464
27.671522 90.734 178.0173
27.872042 90.726 177.5900
28.074014 90.717 177.1639
28.277450 90.709 176.7384
28.482360 90.700 176.3129
28.688755 90.690 175.8875
28.896645 90.679 175.4622
29.106042 90.667 175.0375
29.316957 90.655 174.6140
29.529400 90.642 174.1922
29.743382 90.628 173.7725
29.958915 90.613 173.3552
30.176009 90.598 172.9398
30.394677 90.583 172.5259
30.614929 90.568 172.1124
30.836778 90.553 171.6981
31.060234 90.538 171.2817
31.285309 90.523 170.8622
31.512015 90.508 170.4388
31.740364 90.492 170.0114
31.970368 90.476 169.5800
32.202039 90.459 169.1457
32.435388 90.441 168.7100
32.670428 90.423 168.2744
32.907171 90.404 167.8409
33.145630 90.384 167.4109
33.385817 90.364 166.9854
33.627745 90.345 166.5648
33.871425 90.326 166.1483
34.116871 90.307 165.7348
34.364096 90.289 165.3229
34.613113 90.271 164.9112
34.863934 90.254 164.4989
35.116572 90.237 164.0864
35.371041 90.219 163.6748
35.627354 90.200 163.2658
35.885525 90.182 162.8613
36.145566 90.163 162.4624
36.407492 90.144 162.0694
36.671316 90.126 161.6815
36.937051 90.108 161.2970
37.204712 90.091 160.9138
37.474313 90.074 160.5303
37.745867 90.058 160.1449
38.019389 90.042 159.7566
38.294893 90.026 159.3644
38.572394 90.011 158.9673
38.851905 89.995 158.5641
39.133442 89.978 158.1544
39.417019 89.961 157.7393
39.702651 89.941 157.3224
39.990353 89.919 156.9091
40.280140 89.896 156.5058
40.572026 89.872 156.1172
40.866028 89.849 155.7444
41.162160 89.827 155.3828
41.460438 89.809 155.0229
41.760877 89.794 154.6528
42.063494 89.780 154.2620
42.368303 89.766 153.8450
42.675322 89.749 153.4043
42.984565 89.728 152.9486
43.296048 89.702 152.4906
43.609789 89.671 152.0428
43.925804 89.637 151.6136
44.244108 89.602 151.2057
44.564719 89.567 150.8165
44.887654 89.533 150.4398
45.212928 89.500 150.0692
45.540560 89.468 149.6993
45.870565 89.437 149.3268
46.202962 89.406 148.9504
46.537768 89.375 148.5701
46.875000 89.344 148.1868
47.214676 89.312 147.8019
47.556813 89.281 147.4172
47.901429 89.249 147.0347
48.248542 89.218 146.6551
48.598171 89.187 146.2785
48.950334 89.157 145.9036
49.305048 89.128 145.5287
49.662333 89.099 145.1523
50.022206 89.071 144.7738
50.384688 89.043 144.3932
50.749796 89.015 144.0109
51.117550 88.986 143.6281
51.487969 88.957 143.2457
51.861072 88.927 142.8651
52.236879 88.897 142.4871
52.615409 88.867 142.1121
52.996681 88.837 141.7396
53.380717 88.807 141.3683
53.767536 88.777 140.9965
54.157158 88.747 140.6230
54.549603 88.716 140.2478
54.944892 88.685 139.8713
55.343045 88.654 139.4949
55.744084 88.622 139.1194
56.148028 88.590 138.7456
56.554900 88.558 138.3736
56.964720 88.525 138.0032
57.377510 88.493 137.6345
57.793291 88.460 137.2679
58.212085 88.426 136.9044
58.633914 88.392 136.5445
59.058799 88.358 136.1884
59.486764 88.324 135.8345
59.917829 88.291 135.4812
60.352019 88.256 135.1268
60.789354 88.222 134.7711
61.229859 88.187 134.4154
61.673556 88.151 134.0610
62.120468 88.115 133.7084
62.570618 88.080 133.3565
63.024031 88.045 133.0037
63.480729 88.009 132.6489
63.940736 87.974 132.2929
64.404077 87.938 131.9375
64.870776 87.901 131.5848
65.340856 87.864 131.2359
65.814343 87.828 130.8912
66.291261 87.790 130.5504
66.771635 87.753 130.2125
67.255489 87.716 129.8768
67.742850 87.678 129.5417
68.233743 87.640 129.2053
68.728193 87.602 128.8655
69.226226 87.562 128.5217
69.727867 87.522 128.1753
70.233144 87.481 127.8291
70.742083 87.441 127.4848
71.254709 87.401 127.1412
71.771050 87.363 126.7941
72.291132 87.327 126.4380
72.814984 87.292 126.0683
73.342631 87.258 125.6843
73.874102 87.221 125.2917
74.409424 87.182 124.9044
74.948626 87.140 124.5416
75.491734 87.096 124.2180
76.038779 87.054 123.9357
76.589787 87.015 123.6835
77.144788 86.980 123.4446
77.703811 86.946 123.2050
78.266885 86.914 122.9562
78.834039 86.881 122.6939
79.405303 86.845 122.4158
79.980706 86.807 122.1216
80.560280 86.766 121.8129
81.144053 86.721 121.4936
81.732056 86.674 121.1701
82.324320 86.625 120.8481
82.920876 86.576 120.5293
83.521755 86.530 120.2093
84.126988 86.488 119.8818
84.736607 86.447 119.5443
85.350643 86.409 119.2000
85.969129 86.373 118.8560
86.592097 86.337 118.5193
87.219579 86.302 118.1938
87.851608 86.268 117.8797
88.488217 86.233 117.5762
89.129439 86.198 117.2821
