* Measurement data measured by REW V5.31.3
* Source: EXCL: Microphone (USB Sound Device        ), MICROPHONE (Master Volume), R, volume: 0.390
* Format: 256k Log Swept Sine, 1 sweep at -12.0 dBFS with no timing reference
* Dated: Jul 11, 2025 1:03:51 AM
* REW Settings:
*  C-weighting compensation: Off
*  Target level: 75.0 dB
* Note: Elysian Apostle L
* Measurement: L Elysian Apostle
* Smoothing: 1/12 octave
* Frequency Step: 96 ppo
* Start Frequency: 0.36621094 Hz
*
* Freq(Hz) SPL(dB) Phase(degrees)
0.366211 80.390 -79.1508
0.368865 80.401 -79.2280
0.371538 80.418 -79.3435
0.374230 80.438 -79.4878
0.376942 80.461 -79.6531
0.379673 80.485 -79.8336
0.382424 80.511 -80.0255
0.385196 80.537 -80.2263
0.387987 80.564 -80.4348
0.390798 80.591 -80.6500
0.393630 80.618 -80.8717
0.396483 80.646 -81.0996
0.399356 80.674 -81.3336
0.402250 80.701 -81.5736
0.405165 80.730 -81.8196
0.408101 80.758 -82.0715
0.411058 80.787 -82.3293
0.414037 80.815 -82.5931
0.417037 80.844 -82.8627
0.420059 80.874 -83.1381
0.423103 80.903 -83.4193
0.426169 80.933 -83.7063
0.429257 80.962 -83.9990
0.432368 80.992 -84.2974
0.435501 81.023 -84.6014
0.438656 81.053 -84.9109
0.441835 81.084 -85.2260
0.445037 81.115 -85.5465
0.448262 81.146 -85.8723
0.451510 81.177 -86.2034
0.454782 81.209 -86.5398
0.458077 81.241 -86.8813
0.461397 81.273 -87.2278
0.464740 81.305 -87.5793
0.468108 81.338 -87.9356
0.471500 81.371 -88.2968
0.474917 81.404 -88.6625
0.478358 81.437 -89.0329
0.481825 81.470 -89.4076
0.485316 81.504 -89.7867
0.488833 81.538 -90.1701
0.492375 81.572 -90.5575
0.495943 81.607 -90.9489
0.499537 81.641 -91.3442
0.503157 81.676 -91.7432
0.506803 81.712 -92.1458
0.510475 81.747 -92.5518
0.514175 81.783 -92.9613
0.517900 81.819 -93.3739
0.521653 81.855 -93.7895
0.525434 81.892 -94.2081
0.529241 81.928 -94.6295
0.533076 81.966 -95.0536
0.536939 82.003 -95.4802
0.540830 82.040 -95.9091
0.544749 82.078 -96.3403
0.548696 82.116 -96.7736
0.552673 82.155 -97.2088
0.556677 82.194 -97.6459
0.560711 82.233 -98.0847
0.564774 82.272 -98.5250
0.568867 82.311 -98.9667
0.572989 82.351 -99.4098
0.577141 82.391 -99.8540
0.581324 82.432 -100.2993
0.585536 82.472 -100.7455
0.589779 82.513 -101.1925
0.594053 82.555 -101.6402
0.598358 82.596 -102.0885
0.602694 82.638 -102.5373
0.607061 82.680 -102.9864
0.611460 82.723 -103.4359
0.615891 82.766 -103.8855
0.620354 82.809 -104.3352
0.624849 82.852 -104.7849
0.629377 82.896 -105.2346
0.633938 82.940 -105.6842
0.638532 82.985 -106.1336
0.643159 83.029 -106.5827
0.647819 83.074 -107.0315
0.652514 83.120 -107.4799
0.657242 83.165 -107.9280
0.662005 83.211 -108.3757
0.666802 83.258 -108.8229
0.671634 83.304 -109.2696
0.676501 83.351 -109.7159
0.681403 83.399 -110.1618
0.686341 83.447 -110.6072
0.691314 83.494 -111.0521
0.696324 83.543 -111.4968
0.701370 83.591 -111.9411
0.706452 83.640 -112.3853
0.711571 83.688 -112.8296
0.716728 83.736 -113.2743
0.721921 83.784 -113.7199
0.727153 83.830 -114.1672
0.732422 83.875 -114.6171
0.737729 83.917 -115.0705
0.743075 83.958 -115.5285
0.748460 83.998 -115.9919
0.753883 84.036 -116.4612
0.759346 84.073 -116.9366
0.764849 84.110 -117.4182
0.770391 84.147 -117.9060
0.775974 84.183 -118.3998
0.781597 84.219 -118.8996
0.787261 84.254 -119.4050
0.792966 84.290 -119.9159
0.798712 84.325 -120.4320
0.804500 84.360 -120.9532
0.810329 84.394 -121.4792
0.816201 84.428 -122.0097
0.822116 84.462 -122.5445
0.828073 84.496 -123.0835
0.834074 84.530 -123.6262
0.840118 84.563 -124.1725
0.846206 84.596 -124.7221
0.852338 84.628 -125.2748
0.858514 84.661 -125.8303
0.864735 84.693 -126.3883
0.871001 84.725 -126.9487
0.877313 84.756 -127.5111
0.883670 84.787 -128.0753
0.890074 84.818 -128.6410
0.896524 84.849 -129.2081
0.903020 84.879 -129.7762
0.909564 84.909 -130.3451
0.916155 84.939 -130.9146
0.922794 84.968 -131.4845
0.929481 84.997 -132.0545
0.936216 85.026 -132.6245
0.943000 85.054 -133.1941
0.949834 85.082 -133.7631
0.956717 85.110 -134.3315
0.963649 85.138 -134.8990
0.970632 85.165 -135.4653
0.977666 85.192 -136.0303
0.984750 85.219 -136.5939
0.991886 85.245 -137.1559
0.999074 85.271 -137.7161
1.006314 85.297 -138.2744
1.013606 85.323 -138.8306
1.020951 85.348 -139.3846
1.028349 85.373 -139.9363
1.035801 85.397 -140.4857
1.043307 85.422 -141.0326
1.050867 85.446 -141.5771
1.058482 85.470 -142.1192
1.066152 85.493 -142.6591
1.073878 85.517 -143.1972
1.081660 85.540 -143.7342
1.089498 85.562 -144.2711
1.097393 85.584 -144.8094
1.105345 85.606 -145.3508
1.113355 85.628 -145.8970
1.121423 85.648 -146.4497
1.129549 85.668 -147.0100
1.137734 85.688 -147.5787
1.145979 85.707 -148.1562
1.154283 85.725 -148.7428
1.162647 85.743 -149.3385
1.171072 85.760 -149.9434
1.179558 85.776 -150.5573
1.188106 85.791 -151.1801
1.196715 85.806 -151.8118
1.205387 85.820 -152.4519
1.214122 85.834 -153.1004
1.222920 85.847 -153.7569
1.231782 85.859 -154.4212
1.240708 85.870 -155.0928
1.249699 85.881 -155.7714
1.258754 85.891 -156.4566
1.267876 85.901 -157.1479
1.277063 85.910 -157.8447
1.286318 85.918 -158.5465
1.295639 85.925 -159.2527
1.305027 85.932 -159.9626
1.314484 85.938 -160.6754
1.324009 85.944 -161.3906
1.333604 85.949 -162.1072
1.343268 85.953 -162.8243
1.353002 85.957 -163.5410
1.362806 85.960 -164.2564
1.372681 85.962 -164.9695
1.382628 85.964 -165.6791
1.392647 85.966 -166.3843
1.402739 85.966 -167.0839
1.412904 85.967 -167.7770
1.423142 85.966 -168.4626
1.433455 85.965 -169.1403
1.443843 85.964 -169.8100
1.454305 85.961 -170.4720
1.464844 85.958 -171.1278
1.475459 85.954 -171.7793
1.486150 85.950 -172.4286
1.496920 85.944 -173.0776
1.507767 85.937 -173.7278
1.518693 85.929 -174.3803
1.529698 85.920 -175.0358
1.540783 85.910 -175.6946
1.551948 85.899 -176.3569
1.563194 85.886 -177.0229
1.574521 85.873 -177.6924
1.585931 85.858 -178.3653
1.597423 85.843 -179.0417
1.608999 85.827 -179.7211
1.620658 85.809 179.5966
1.632402 85.791 178.9117
1.644232 85.772 178.2245
1.656146 85.752 177.5356
1.668147 85.731 176.8453
1.680235 85.709 176.1541
1.692411 85.687 175.4628
1.704675 85.664 174.7719
1.717028 85.640 174.0822
1.729470 85.615 173.3943
1.742003 85.590 172.7092
1.754626 85.565 172.0278
1.767341 85.539 171.3509
1.780147 85.512 170.6794
1.793047 85.485 170.0139
1.806040 85.458 169.3549
1.819128 85.430 168.7026
1.832310 85.401 168.0565
1.845587 85.371 167.4158
1.858961 85.339 166.7794
1.872432 85.307 166.1461
1.886001 85.273 165.5151
1.899667 85.237 164.8857
1.913433 85.201 164.2572
1.927299 85.163 163.6293
1.941265 85.124 163.0018
1.955332 85.084 162.3746
1.969501 85.043 161.7476
1.983773 85.001 161.1210
1.998148 84.959 160.4949
2.012627 84.916 159.8698
2.027212 84.873 159.2459
2.041902 84.830 158.6240
2.056698 84.788 158.0045
2.071602 84.745 157.3885
2.086614 84.704 156.7768
2.101734 84.663 156.1706
2.116964 84.623 155.5712
2.132304 84.584 154.9801
2.147756 84.546 154.3990
2.163320 84.510 153.8297
2.178996 84.475 153.2742
2.194786 84.441 152.7346
2.210690 84.408 152.2127
2.226710 84.376 151.7097
2.242845 84.344 151.2262
2.259098 84.312 150.7622
2.275468 84.280 150.3172
2.291957 84.249 149.8901
2.308566 84.219 149.4797
2.325295 84.190 149.0846
2.342145 84.161 148.7031
2.359117 84.134 148.3336
2.376212 84.109 147.9743
2.393431 84.086 147.6235
2.410775 84.065 147.2794
2.428244 84.047 146.9401
2.445840 84.032 146.6039
2.463564 84.021 146.2692
2.481416 84.013 145.9346
2.499397 84.010 145.5993
2.517509 84.011 145.2635
2.535752 84.017 144.9285
2.554127 84.029 144.5966
2.572635 84.045 144.2719
2.591277 84.067 143.9584
2.610055 84.093 143.6593
2.628968 84.125 143.3760
2.648019 84.162 143.1081
2.667208 84.204 142.8536
2.686535 84.250 142.6094
2.706003 84.301 142.3719
2.725612 84.356 142.1365
2.745363 84.416 141.8989
2.765257 84.479 141.6541
2.785295 84.547 141.3973
2.805478 84.618 141.1238
2.825808 84.692 140.8291
2.846285 84.770 140.5093
2.866910 84.852 140.1612
2.887685 84.937 139.7831
2.908611 85.026 139.3747
2.929688 85.119 138.9380
2.950917 85.217 138.4765
2.972301 85.319 137.9943
2.993839 85.426 137.4947
3.015534 85.538 136.9800
3.037386 85.655 136.4513
3.059396 85.776 135.9086
3.081565 85.901 135.3512
3.103896 86.029 134.7779
3.126388 86.160 134.1871
3.149043 86.293 133.5770
3.171862 86.427 132.9456
3.194847 86.562 132.2909
3.217998 86.697 131.6108
3.241317 86.832 130.9036
3.264805 86.967 130.1678
3.288463 87.101 129.4030
3.312293 87.235 128.6096
3.336295 87.370 127.7888
3.360471 87.505 126.9431
3.384822 87.641 126.0750
3.409350 87.777 125.1873
3.434056 87.914 124.2826
3.458940 88.051 123.3634
3.484005 88.187 122.4315
3.509252 88.323 121.4883
3.534681 88.457 120.5348
3.560295 88.590 119.5710
3.586094 88.721 118.5966
3.612081 88.850 117.6100
3.638255 88.977 116.6093
3.664620 89.101 115.5919
3.691175 89.223 114.5555
3.717923 89.343 113.4990
3.744864 89.460 112.4232
3.772001 89.575 111.3306
3.799335 89.688 110.2248
3.826866 89.799 109.1102
3.854597 89.907 107.9913
3.882529 90.012 106.8724
3.910664 90.114 105.7571
3.939002 90.214 104.6479
3.967546 90.310 103.5461
3.996296 90.403 102.4509
4.025255 90.493 101.3599
4.054423 90.579 100.2697
4.083804 90.662 99.1769
4.113396 90.740 98.0799
4.143204 90.816 96.9794
4.173227 90.887 95.8779
4.203468 90.956 94.7795
4.233928 91.020 93.6889
4.264609 91.082 92.6112
4.295512 91.140 91.5507
4.326639 91.194 90.5110
4.357992 91.245 89.4938
4.389572 91.292 88.4987
4.421380 91.335 87.5237
4.453419 91.375 86.5660
4.485691 91.411 85.6236
4.518196 91.442 84.6962
4.550936 91.471 83.7853
4.583914 91.496 82.8940
4.617131 91.518 82.0259
4.650589 91.538 81.1855
4.684289 91.556 80.3772
4.718233 91.571 79.6044
4.752424 91.585 78.8693
4.786862 91.596 78.1727
4.821549 91.605 77.5137
4.856488 91.612 76.8911
4.891680 91.618 76.3037
4.927127 91.622 75.7508
4.962831 91.625 75.2320
4.998794 91.629 74.7480
5.035017 91.634 74.2996
5.071503 91.640 73.8885
5.108253 91.649 73.5164
5.145270 91.660 73.1849
5.182555 91.672 72.8947
5.220110 91.688 72.6450
5.257937 91.705 72.4331
5.296038 91.726 72.2549
5.334415 91.750 72.1053
5.373071 91.778 71.9793
5.412006 91.811 71.8724
5.451224 91.849 71.7814
5.490725 91.893 71.7045
5.530514 91.942 71.6411
5.570590 91.997 71.5904
5.610957 92.058 71.5500
5.651616 92.124 71.5158
5.692570 92.195 71.4822
5.733821 92.269 71.4428
5.775370 92.348 71.3916
5.817221 92.431 71.3240
5.859375 92.517 71.2369
5.901834 92.607 71.1293
5.944602 92.700 71.0011
5.987679 92.796 70.8523
6.031068 92.894 70.6822
6.074771 92.993 70.4898
6.118792 93.093 70.2736
6.163131 93.193 70.0320
6.207792 93.291 69.7637
6.252776 93.389 69.4684
6.298086 93.485 69.1468
6.343725 93.580 68.8005
6.389694 93.672 68.4322
6.435996 93.762 68.0450
6.482634 93.850 67.6417
6.529610 93.934 67.2247
6.576926 94.015 66.7954
6.624585 94.092 66.3547
6.672590 94.165 65.9036
6.720942 94.234 65.4438
6.769645 94.300 64.9780
6.818700 94.361 64.5099
6.868111 94.420 64.0428
6.917881 94.475 63.5798
6.968010 94.526 63.1228
7.018504 94.575 62.6727
7.069362 94.620 62.2301
7.120590 94.662 61.7956
7.172189 94.702 61.3702
7.224161 94.740 60.9552
7.276511 94.777 60.5520
7.329239 94.812 60.1614
7.382350 94.847 59.7837
7.435845 94.880 59.4180
7.489729 94.914 59.0630
7.544002 94.947 58.7169
7.598669 94.980 58.3777
7.653732 95.014 58.0439
7.709194 95.048 57.7141
7.765058 95.083 57.3871
7.821327 95.119 57.0612
7.878004 95.156 56.7342
7.935091 95.193 56.4034
7.992592 95.231 56.0662
8.050510 95.269 55.7204
8.108847 95.307 55.3646
8.167607 95.345 54.9981
8.226793 95.383 54.6206
8.286408 95.420 54.2318
8.346454 95.455 53.8316
8.406936 95.489 53.4199
8.467856 95.521 52.9968
8.529218 95.550 52.5635
8.591024 95.577 52.1218
8.653278 95.601 51.6746
8.715983 95.623 51.2246
8.779143 95.641 50.7745
8.842760 95.656 50.3266
8.906839 95.668 49.8832
8.971381 95.677 49.4471
9.036392 95.684 49.0217
9.101873 95.689 48.6103
9.167829 95.692 48.2157
9.234263 95.693 47.8398
9.301178 95.694 47.4836
9.368578 95.695 47.1475
9.436467 95.697 46.8315
9.504847 95.700 46.5356
9.573723 95.706 46.2587
9.643099 95.715 45.9987
9.712976 95.727 45.7519
9.783361 95.744 45.5136
9.854255 95.765 45.2787
9.925663 95.791 45.0423
9.997588 95.822 44.7996
10.070035 95.859 44.5450
10.143007 95.899 44.2722
10.216507 95.944 43.9753
10.290540 95.993 43.6492
10.365109 96.044 43.2903
10.440219 96.098 42.8962
10.515873 96.152 42.4648
10.592076 96.207 41.9948
10.668830 96.259 41.4861
10.746141 96.310 40.9400
10.824012 96.358 40.3598
10.902447 96.401 39.7498
10.981451 96.439 39.1147
11.061027 96.471 38.4597
11.141180 96.497 37.7906
11.221913 96.516 37.1151
11.303232 96.528 36.4410
11.385140 96.533 35.7762
11.467641 96.531 35.1276
11.550741 96.523 34.5025
11.634442 96.508 33.9084
11.718750 96.489 33.3523
11.803669 96.466 32.8398
11.889203 96.439 32.3754
11.975357 96.411 31.9622
12.062136 96.382 31.6022
12.149543 96.354 31.2963
12.237583 96.329 31.0433
12.326262 96.306 30.8399
12.415583 96.288 30.6814
12.505552 96.276 30.5620
12.596172 96.270 30.4752
12.687449 96.270 30.4130
12.779387 96.277 30.3666
12.871992 96.291 30.3279
12.965268 96.312 30.2890
13.059220 96.338 30.2430
13.153852 96.369 30.1834
13.249170 96.404 30.1054
13.345179 96.442 30.0053
13.441884 96.481 29.8813
13.539289 96.522 29.7325
13.637401 96.562 29.5591
13.736223 96.602 29.3625
13.835761 96.640 29.1451
13.936021 96.675 28.9098
14.037007 96.707 28.6597
14.138725 96.736 28.3984
14.241180 96.762 28.1295
14.344377 96.784 27.8567
14.448323 96.802 27.5831
14.553021 96.817 27.3122
14.658478 96.829 27.0469
14.764700 96.837 26.7898
14.871691 96.842 26.5435
14.979457 96.845 26.3101
15.088005 96.845 26.0914
15.197339 96.843 25.8887
15.307465 96.841 25.7027
15.418389 96.838 25.5337
15.530117 96.835 25.3810
15.642655 96.832 25.2431
15.756008 96.832 25.1172
15.870182 96.833 24.9996
15.985184 96.838 24.8854
16.101019 96.846 24.7683
16.217694 96.857 24.6417
16.335214 96.872 24.4980
16.453586 96.891 24.3298
16.572815 96.913 24.1298
16.692909 96.937 23.8917
16.813872 96.962 23.6105
16.935713 96.987 23.2831
17.058436 97.010 22.9086
17.182048 97.031 22.4883
17.306556 97.047 22.0259
17.431967 97.058 21.5274
17.558286 97.062 21.0009
17.685521 97.060 20.4557
17.813677 97.051 19.9023
17.942762 97.035 19.3515
18.072783 97.013 18.8136
18.203746 96.987 18.2979
18.335658 96.956 17.8115
18.468526 96.925 17.3596
18.602356 96.893 16.9440
18.737156 96.864 16.5634
18.872934 96.839 16.2137
19.009695 96.819 15.8881
19.147447 96.805 15.5776
19.286197 96.798 15.2728
19.425953 96.796 14.9641
19.566721 96.801 14.6433
19.708510 96.809 14.3047
19.851326 96.820 13.9451
19.995177 96.833 13.5648
20.140070 96.846 13.1669
20.286013 96.857 12.7574
20.433014 96.866 12.3441
20.581080 96.872 11.9357
20.730219 96.876 11.5405
20.880439 96.879 11.1664
21.031747 96.880 10.8190
21.184152 96.881 10.5013
21.337661 96.883 10.2139
21.492282 96.888 9.9543
21.648024 96.895 9.7183
21.804895 96.905 9.4999
21.962902 96.917 9.2925
22.122054 96.933 9.0902
22.282360 96.949 8.8880
22.443827 96.967 8.6826
22.606464 96.984 8.4724
22.770280 97.001 8.2578
22.935283 97.015 8.0398
23.101481 97.028 7.8204
23.268884 97.038 7.6012
23.437500 97.046 7.3831
23.607338 97.052 7.1660
23.778406 97.056 6.9489
23.950714 97.058 6.7297
24.124271 97.059 6.5065
24.299086 97.056 6.2775
24.475167 97.051 6.0419
24.652524 97.043 5.8004
24.831166 97.031 5.5549
25.011103 97.016 5.3088
25.192344 96.998 5.0656
25.374898 96.977 4.8284
25.558775 96.955 4.5990
25.743984 96.933 4.3768
25.930536 96.912 4.1589
26.118439 96.893 3.9396
26.307704 96.877 3.7113
26.498341 96.864 3.4657
26.690359 96.853 3.1951
26.883768 96.845 2.8941
27.078579 96.837 2.5601
27.274801 96.829 2.1945
27.472446 96.819 1.8021
27.671522 96.807 1.3909
27.872042 96.792 0.9704
28.074014 96.776 0.5505
28.277450 96.758 0.1402
28.482360 96.739 -0.2540
28.688755 96.722 -0.6282
28.896645 96.707 -0.9819
29.106042 96.696 -1.3173
29.316957 96.688 -1.6379
29.529400 96.684 -1.9485
29.743382 96.684 -2.2535
29.958915 96.687 -2.5561
30.176009 96.693 -2.8579
30.394677 96.700 -3.1593
30.614929 96.708 -3.4596
30.836778 96.716 -3.7577
31.060234 96.725 -4.0532
31.285309 96.733 -4.3463
31.512015 96.741 -4.6383
31.740364 96.748 -4.9315
31.970368 96.754 -5.2281
32.202039 96.758 -5.5298
32.435388 96.759 -5.8373
32.670428 96.757 -6.1492
32.907171 96.750 -6.4633
33.145630 96.740 -6.7761
33.385817 96.725 -7.0850
33.627745 96.707 -7.3882
33.871425 96.686 -7.6863
34.116871 96.663 -7.9812
34.364096 96.638 -8.2761
34.613113 96.611 -8.5732
34.863934 96.583 -8.8729
35.116572 96.552 -9.1729
35.371041 96.520 -9.4684
35.627354 96.488 -9.7543
35.885525 96.456 -10.0273
36.145566 96.428 -10.2888
36.407492 96.405 -10.5457
36.671316 96.387 -10.8099
36.937051 96.377 -11.0959
37.204712 96.371 -11.4156
37.474313 96.367 -11.7750
37.745867 96.364 -12.1710
38.019389 96.358 -12.5918
38.294893 96.349 -13.0195
38.572394 96.336 -13.4352
38.851905 96.321 -13.8236
39.133442 96.306 -14.1769
39.417019 96.294 -14.4960
39.702651 96.285 -14.7885
39.990353 96.280 -15.0653
40.280140 96.279 -15.3368
40.572026 96.279 -15.6093
40.866028 96.280 -15.8844
41.162160 96.279 -16.1603
41.460438 96.277 -16.4343
41.760877 96.273 -16.7041
42.063494 96.267 -16.9692
42.368303 96.259 -17.2303
42.675322 96.247 -17.4877
42.984565 96.233 -17.7401
43.296048 96.215 -17.9849
43.609789 96.195 -18.2191
43.925804 96.172 -18.4420
44.244108 96.149 -18.6553
44.564719 96.126 -18.8645
44.887654 96.103 -19.0765
45.212928 96.081 -19.2979
45.540560 96.059 -19.5326
45.870565 96.037 -19.7822
46.202962 96.015 -20.0464
46.537768 95.993 -20.3250
46.875000 95.972 -20.6195
47.214676 95.952 -20.9327
47.556813 95.932 -21.2673
47.901429 95.912 -21.6234
48.248542 95.891 -21.9975
48.598171 95.868 -22.3823
48.950334 95.843 -22.7690
49.305048 95.818 -23.1499
49.662333 95.792 -23.5201
50.022206 95.768 -23.8783
50.384688 95.745 -24.2257
50.749796 95.724 -24.5641
51.117550 95.704 -24.8950
51.487969 95.686 -25.2192
51.861072 95.669 -25.5378
52.236879 95.652 -25.8521
52.615409 95.634 -26.1628
52.996681 95.616 -26.4685
53.380717 95.595 -26.7646
53.767536 95.572 -27.0447
54.157158 95.547 -27.3032
54.549603 95.522 -27.5394
54.944892 95.497 -27.7572
55.343045 95.473 -27.9642
55.744084 95.451 -28.1685
56.148028 95.431 -28.3777
56.554900 95.411 -28.5988
56.964720 95.393 -28.8386
57.377510 95.375 -29.1017
57.793291 95.355 -29.3884
58.212085 95.334 -29.6932
58.633914 95.311 -30.0085
59.058799 95.287 -30.3289
59.486764 95.263 -30.6534
59.917829 95.238 -30.9833
60.352019 95.212 -31.3177
60.789354 95.186 -31.6523
61.229859 95.158 -31.9817
61.673556 95.130 -32.3014
62.120468 95.101 -32.6102
62.570618 95.072 -32.9084
63.024031 95.044 -33.1987
63.480729 95.017 -33.4866
63.940736 94.991 -33.7782
64.404077 94.964 -34.0766
64.870776 94.936 -34.3795
65.340856 94.907 -34.6825
65.814343 94.879 -34.9838
66.291261 94.850 -35.2838
66.771635 94.823 -35.5806
67.255489 94.796 -35.8701
67.742850 94.772 -36.1531
68.233743 94.752 -36.4398
68.728193 94.734 -36.7422
69.226226 94.715 -37.0601
69.727867 94.694 -37.3784
70.233144 94.670 -37.6823
70.742083 94.646 -37.9712
71.254709 94.622 -38.2543
71.771050 94.595 -38.5341
72.291132 94.565 -38.8027
72.814984 94.534 -39.0554
73.342631 94.503 -39.3009
73.874102 94.472 -39.5514
74.409424 94.440 -39.8081
74.948626 94.407 -40.0648
75.491734 94.376 -40.3232
76.038779 94.346 -40.5964
76.589787 94.317 -40.8917
77.144788 94.287 -41.1976
77.703811 94.256 -41.4960
78.266885 94.227 -41.7841
78.834039 94.202 -42.0762
79.405303 94.178 -42.3822
79.980706 94.153 -42.6951
80.560280 94.127 -43.0031
81.144053 94.102 -43.3093
81.732056 94.077 -43.6271
82.324320 94.049 -43.9584
82.920876 94.016 -44.2850
83.521755 93.981 -44.5896
84.126988 93.945 -44.8771
84.736607 93.910 -45.1665
85.350643 93.873 -45.4631
85.969129 93.832 -45.7496
86.592097 93.789 -46.0087
87.219579 93.748 -46.2469
87.851608 93.708 -46.4874
88.488217 93.668 -46.7402
89.129439 93.625 -46.9900
89.775308 93.581 -47.2177
90.425856 93.540 -47.4284
91.081119 93.502 -47.6486
91.741131 93.465 -47.8959
92.405925 93.427 -48.1599
93.075536 93.387 -48.4180
93.750000 93.348 -48.6642
94.429351 93.313 -48.9163
95.113625 93.278 -49.1917
95.802858 93.242 -49.4841
96.497085 93.202 -49.7687
97.196342 93.161 -50.0301
97.900667 93.122 -50.2788
