* Measurement data measured by REW V5.31
* Source: EXCL: Microphone (USB Sound Device        ), MICROPHONE (Master Volume), R, volume: 0.390
* Format: 256k Log Swept Sine, 1 sweep at -15.0 dBFS with no timing reference
* Dated: Jan 12, 2025 12:50:03 AM
* REW Settings:
*  C-weighting compensation: Off
*  Target level: 75.0 dB
* Note: EPZ P50 L
* Measurement: L EPZ P50
* Smoothing: 1/12 octave
* Frequency Step: 96 ppo
* Start Frequency: 0.36621094 Hz
*
* Freq(Hz) SPL(dB) Phase(degrees)
0.366211 96.351 156.5578
0.368865 96.345 156.5334
0.371538 96.336 156.4968
0.374230 96.325 156.4509
0.376942 96.313 156.3980
0.379673 96.300 156.3398
0.382424 96.286 156.2775
0.385196 96.272 156.2117
0.387987 96.257 156.1430
0.390798 96.243 156.0714
0.393630 96.228 155.9971
0.396483 96.213 155.9201
0.399356 96.198 155.8405
0.402250 96.183 155.7582
0.405165 96.168 155.6732
0.408101 96.152 155.5854
0.411058 96.137 155.4950
0.414037 96.121 155.4017
0.417037 96.106 155.3057
0.420059 96.090 155.2069
0.423103 96.074 155.1052
0.426169 96.058 155.0006
0.429257 96.042 154.8931
0.432368 96.025 154.7827
0.435501 96.009 154.6693
0.438656 95.993 154.5530
0.441835 95.976 154.4337
0.445037 95.959 154.3113
0.448262 95.942 154.1859
0.451510 95.925 154.0574
0.454782 95.908 153.9258
0.458077 95.891 153.7912
0.461397 95.874 153.6533
0.464740 95.856 153.5124
0.468108 95.839 153.3682
0.471500 95.821 153.2209
0.474917 95.803 153.0703
0.478358 95.785 152.9165
0.481825 95.767 152.7596
0.485316 95.749 152.5993
0.488833 95.730 152.4358
0.492375 95.712 152.2690
0.495943 95.693 152.0989
0.499537 95.674 151.9255
0.503157 95.655 151.7488
0.506803 95.636 151.5688
0.510475 95.617 151.3855
0.514175 95.598 151.1989
0.517900 95.578 151.0090
0.521653 95.559 150.8158
0.525434 95.539 150.6192
0.529241 95.519 150.4194
0.533076 95.499 150.2163
0.536939 95.479 150.0100
0.540830 95.459 149.8004
0.544749 95.438 149.5875
0.548696 95.417 149.3714
0.552673 95.397 149.1522
0.556677 95.376 148.9297
0.560711 95.355 148.7042
0.564774 95.333 148.4755
0.568867 95.312 148.2438
0.572989 95.290 148.0091
0.577141 95.269 147.7714
0.581324 95.247 147.5308
0.585536 95.225 147.2873
0.589779 95.203 147.0410
0.594053 95.180 146.7920
0.598358 95.158 146.5403
0.602694 95.135 146.2860
0.607061 95.112 146.0293
0.611460 95.089 145.7701
0.615891 95.066 145.5085
0.620354 95.043 145.2448
0.624849 95.019 144.9789
0.629377 94.996 144.7110
0.633938 94.972 144.4411
0.638532 94.948 144.1696
0.643159 94.924 143.8964
0.647819 94.899 143.6217
0.652514 94.875 143.3457
0.657242 94.850 143.0685
0.662005 94.825 142.7903
0.666802 94.800 142.5113
0.671634 94.775 142.2317
0.676501 94.750 141.9516
0.681403 94.724 141.6712
0.686341 94.698 141.3908
0.691314 94.672 141.1106
0.696324 94.646 140.8308
0.701370 94.619 140.5516
0.706452 94.592 140.2732
0.711571 94.565 139.9956
0.716728 94.536 139.7187
0.721921 94.507 139.4424
0.727153 94.476 139.1662
0.732422 94.443 138.8892
0.737729 94.408 138.6104
0.743075 94.371 138.3286
0.748460 94.332 138.0429
0.753883 94.292 137.7525
0.759346 94.250 137.4569
0.764849 94.208 137.1557
0.770391 94.166 136.8486
0.775974 94.122 136.5355
0.781597 94.079 136.2162
0.787261 94.034 135.8907
0.792966 93.989 135.5589
0.798712 93.944 135.2206
0.804500 93.898 134.8759
0.810329 93.851 134.5246
0.816201 93.804 134.1668
0.822116 93.756 133.8023
0.828073 93.707 133.4312
0.834074 93.657 133.0533
0.840118 93.607 132.6687
0.846206 93.556 132.2774
0.852338 93.504 131.8793
0.858514 93.451 131.4744
0.864735 93.398 131.0627
0.871001 93.343 130.6443
0.877313 93.288 130.2192
0.883670 93.231 129.7873
0.890074 93.174 129.3488
0.896524 93.115 128.9038
0.903020 93.055 128.4523
0.909564 92.994 127.9943
0.916155 92.932 127.5301
0.922794 92.868 127.0598
0.929481 92.803 126.5835
0.936216 92.737 126.1014
0.943000 92.669 125.6138
0.949834 92.600 125.1208
0.956717 92.530 124.6227
0.963649 92.457 124.1198
0.970632 92.384 123.6124
0.977666 92.308 123.1010
0.984750 92.231 122.5858
0.991886 92.151 122.0673
0.999074 92.070 121.5460
1.006314 91.987 121.0224
1.013606 91.902 120.4971
1.020951 91.815 119.9706
1.028349 91.726 119.4437
1.035801 91.634 118.9170
1.043307 91.540 118.3913
1.050867 91.444 117.8673
1.058482 91.345 117.3460
1.066152 91.244 116.8279
1.073878 91.140 116.3139
1.081660 91.034 115.8045
1.089498 90.926 115.3000
1.097393 90.815 114.8002
1.105345 90.703 114.3048
1.113355 90.589 113.8129
1.121423 90.474 113.3238
1.129549 90.358 112.8367
1.137734 90.240 112.3509
1.145979 90.122 111.8657
1.154283 90.002 111.3806
1.162647 89.881 110.8951
1.171072 89.758 110.4088
1.179558 89.634 109.9212
1.188106 89.508 109.4317
1.196715 89.380 108.9398
1.205387 89.249 108.4452
1.214122 89.117 107.9471
1.222920 88.981 107.4450
1.231782 88.843 106.9384
1.240708 88.701 106.4267
1.249699 88.557 105.9090
1.258754 88.408 105.3849
1.267876 88.256 104.8535
1.277063 88.099 104.3142
1.286318 87.938 103.7660
1.295639 87.772 103.2083
1.305027 87.602 102.6401
1.314484 87.425 102.0605
1.324009 87.244 101.4687
1.333604 87.056 100.8636
1.343268 86.862 100.2443
1.353002 86.661 99.6097
1.362806 86.453 98.9589
1.372681 86.237 98.2908
1.382628 86.014 97.6045
1.392647 85.782 96.8989
1.402739 85.542 96.1732
1.412904 85.292 95.4266
1.423142 85.032 94.6587
1.433455 84.761 93.8691
1.443843 84.477 93.0578
1.454305 84.179 92.2253
1.464844 83.865 91.3720
1.475459 83.530 90.4986
1.486150 83.174 89.6052
1.496920 82.793 88.6909
1.507767 82.386 87.7540
1.518693 81.954 86.7920
1.529698 81.497 85.8012
1.540783 81.015 84.7775
1.551948 80.511 83.7152
1.563194 79.985 82.6083
1.574521 79.441 81.4491
1.585931 78.880 80.2284
1.597423 78.304 78.9356
1.608999 77.717 77.5574
1.620658 77.122 76.0777
1.632402 76.520 74.4769
1.644232 75.915 72.7306
1.656146 75.311 70.8083
1.668147 74.712 68.6714
1.680235 74.120 66.2712
1.692411 73.541 63.5450
1.704675 72.978 60.4125
1.717028 72.437 56.7705
1.729470 71.922 52.4876
1.742003 71.440 47.4008
1.754626 70.995 41.3191
1.767341 70.594 34.0450
1.780147 70.245 25.4308
1.793047 69.953 15.4817
1.806040 69.725 4.4754
1.819128 69.568 -7.0081
1.832310 69.486 -18.2453
1.845587 69.482 -28.6392
1.858961 69.558 -37.8786
1.872432 69.712 -45.9132
1.886001 69.941 -52.8432
1.899667 70.240 -58.8237
1.913433 70.603 -64.0127
1.927299 71.024 -68.5489
1.941265 71.496 -72.5466
1.955332 72.013 -76.0979
1.969501 72.568 -79.2756
1.983773 73.153 -82.1378
1.998148 73.761 -84.7301
2.012627 74.385 -87.0894
2.027212 75.018 -89.2449
2.041902 75.654 -91.2204
2.056698 76.284 -93.0353
2.071602 76.903 -94.7054
2.086614 77.504 -96.2440
2.101734 78.081 -97.6624
2.116964 78.627 -98.9708
2.132304 79.137 -100.1789
2.147756 79.607 -101.2968
2.163320 80.035 -102.3361
2.178996 80.419 -103.3108
2.194786 80.761 -104.2372
2.210690 81.064 -105.1335
2.226710 81.333 -106.0166
2.242845 81.572 -106.8994
2.259098 81.783 -107.7897
2.275468 81.970 -108.6914
2.291957 82.135 -109.6045
2.308566 82.279 -110.5273
2.325295 82.404 -111.4565
2.342145 82.510 -112.3879
2.359117 82.601 -113.3169
2.376212 82.675 -114.2381
2.393431 82.736 -115.1462
2.410775 82.784 -116.0354
2.428244 82.821 -116.8998
2.445840 82.848 -117.7333
2.463564 82.868 -118.5301
2.481416 82.880 -119.2848
2.499397 82.887 -119.9926
2.517509 82.889 -120.6509
2.535752 82.886 -121.2591
2.554127 82.878 -121.8202
2.572635 82.864 -122.3405
2.591277 82.841 -122.8285
2.610055 82.808 -123.2922
2.628968 82.765 -123.7375
2.648019 82.709 -124.1679
2.667208 82.642 -124.5840
2.686535 82.564 -124.9846
2.706003 82.475 -125.3670
2.725612 82.377 -125.7269
2.745363 82.269 -126.0590
2.765257 82.154 -126.3567
2.785295 82.031 -126.6126
2.805478 81.904 -126.8180
2.825808 81.771 -126.9634
2.846285 81.635 -127.0385
2.866910 81.495 -127.0323
2.887685 81.353 -126.9337
2.908611 81.206 -126.7319
2.929688 81.053 -126.4174
2.950917 80.892 -125.9815
2.972301 80.722 -125.4167
2.993839 80.541 -124.7160
3.015534 80.349 -123.8727
3.037386 80.149 -122.8804
3.059396 79.941 -121.7333
3.081565 79.731 -120.4264
3.103896 79.523 -118.9563
3.126388 79.319 -117.3222
3.149043 79.127 -115.5264
3.171862 78.951 -113.5753
3.194847 78.797 -111.4794
3.217998 78.670 -109.2534
3.241317 78.577 -106.9146
3.264805 78.522 -104.4814
3.288463 78.509 -101.9712
3.312293 78.539 -99.3999
3.336295 78.614 -96.7846
3.360471 78.730 -94.1482
3.384822 78.885 -91.5203
3.409350 79.075 -88.9356
3.434056 79.294 -86.4305
3.458940 79.537 -84.0395
3.484005 79.799 -81.7925
3.509252 80.074 -79.7135
3.534681 80.357 -77.8196
3.560295 80.644 -76.1214
3.586094 80.930 -74.6233
3.612081 81.213 -73.3243
3.638255 81.492 -72.2181
3.664620 81.767 -71.2942
3.691175 82.041 -70.5388
3.717923 82.315 -69.9364
3.744864 82.589 -69.4710
3.772001 82.864 -69.1274
3.799335 83.140 -68.8913
3.826866 83.414 -68.7495
3.854597 83.684 -68.6902
3.882529 83.948 -68.7033
3.910664 84.205 -68.7803
3.939002 84.451 -68.9145
3.967546 84.685 -69.1018
3.996296 84.907 -69.3403
4.025255 85.114 -69.6301
4.054423 85.307 -69.9724
4.083804 85.486 -70.3675
4.113396 85.653 -70.8131
4.143204 85.807 -71.3039
4.173227 85.949 -71.8322
4.203468 86.080 -72.3892
4.233928 86.200 -72.9653
4.264609 86.311 -73.5518
4.295512 86.411 -74.1410
4.326639 86.503 -74.7276
4.357992 86.585 -75.3091
4.389572 86.658 -75.8863
4.421380 86.720 -76.4627
4.453419 86.773 -77.0423
4.485691 86.815 -77.6269
4.518196 86.847 -78.2154
4.550936 86.869 -78.8036
4.583914 86.882 -79.3850
4.617131 86.887 -79.9513
4.650589 86.884 -80.4939
4.684289 86.874 -81.0049
4.718233 86.857 -81.4776
4.752424 86.834 -81.9079
4.786862 86.803 -82.2948
4.821549 86.765 -82.6389
4.856488 86.720 -82.9416
4.891680 86.668 -83.2037
4.927127 86.611 -83.4246
4.962831 86.550 -83.6026
4.998794 86.487 -83.7350
5.035017 86.423 -83.8178
5.071503 86.359 -83.8470
5.108253 86.297 -83.8179
5.145270 86.236 -83.7268
5.182555 86.177 -83.5716
5.220110 86.120 -83.3530
5.257937 86.066 -83.0750
5.296038 86.015 -82.7443
5.334415 85.970 -82.3698
5.373071 85.931 -81.9611
5.412006 85.900 -81.5274
5.451224 85.879 -81.0761
5.490725 85.870 -80.6124
5.530514 85.871 -80.1393
5.570590 85.885 -79.6602
5.610957 85.909 -79.1809
5.651616 85.943 -78.7107
5.692570 85.987 -78.2614
5.733821 86.038 -77.8458
5.775370 86.097 -77.4763
5.817221 86.162 -77.1626
5.859375 86.234 -76.9114
5.901834 86.312 -76.7252
5.944602 86.395 -76.6043
5.987679 86.483 -76.5480
6.031068 86.575 -76.5558
6.074771 86.668 -76.6278
6.118792 86.761 -76.7644
6.163131 86.853 -76.9669
6.207792 86.941 -77.2361
6.252776 87.026 -77.5723
6.298086 87.107 -77.9737
6.343725 87.183 -78.4362
6.389694 87.255 -78.9533
6.435996 87.321 -79.5172
6.482634 87.382 -80.1204
6.529610 87.436 -80.7568
6.576926 87.484 -81.4224
6.624585 87.524 -82.1152
6.672590 87.557 -82.8338
6.720942 87.582 -83.5748
6.769645 87.601 -84.3326
6.818700 87.614 -85.0994
6.868111 87.620 -85.8671
6.917881 87.621 -86.6287
6.968010 87.616 -87.3795
7.018504 87.606 -88.1169
7.069362 87.591 -88.8394
7.120590 87.573 -89.5450
7.172189 87.551 -90.2303
7.224161 87.527 -90.8911
7.276511 87.502 -91.5227
7.329239 87.478 -92.1215
7.382350 87.454 -92.6856
7.435845 87.432 -93.2153
7.489729 87.412 -93.7126
7.544002 87.396 -94.1805
7.598669 87.384 -94.6220
7.653732 87.378 -95.0398
7.709194 87.379 -95.4360
7.765058 87.387 -95.8128
7.821327 87.402 -96.1741
7.878004 87.425 -96.5257
7.935091 87.455 -96.8750
7.992592 87.494 -97.2290
8.050510 87.540 -97.5936
8.108847 87.593 -97.9729
8.167607 87.654 -98.3696
8.226793 87.722 -98.7866
8.286408 87.794 -99.2270
8.346454 87.872 -99.6941
8.406936 87.953 -100.1905
8.467856 88.037 -100.7172
8.529218 88.123 -101.2733
8.591024 88.211 -101.8568
8.653278 88.299 -102.4644
8.715983 88.387 -103.0931
8.779143 88.474 -103.7401
8.842760 88.560 -104.4025
8.906839 88.643 -105.0767
8.971381 88.724 -105.7581
9.036392 88.803 -106.4411
9.101873 88.879 -107.1202
9.167829 88.952 -107.7910
9.234263 89.023 -108.4499
9.301178 89.091 -109.0936
9.368578 89.157 -109.7187
9.436467 89.222 -110.3217
9.504847 89.285 -110.8994
9.573723 89.347 -111.4497
9.643099 89.408 -111.9718
9.712976 89.469 -112.4658
9.783361 89.528 -112.9320
9.854255 89.586 -113.3712
9.925663 89.644 -113.7845
9.997588 89.701 -114.1736
10.070035 89.757 -114.5409
10.143007 89.814 -114.8897
10.216507 89.871 -115.2230
10.290540 89.928 -115.5438
10.365109 89.985 -115.8546
10.440219 90.043 -116.1578
10.515873 90.102 -116.4558
10.592076 90.161 -116.7507
10.668830 90.219 -117.0442
10.746141 90.277 -117.3370
10.824012 90.335 -117.6294
10.902447 90.391 -117.9212
10.981451 90.446 -118.2122
11.061027 90.498 -118.5016
11.141180 90.549 -118.7885
11.221913 90.598 -119.0718
11.303232 90.644 -119.3499
11.385140 90.688 -119.6218
11.467641 90.729 -119.8865
11.550741 90.769 -120.1435
11.634442 90.807 -120.3923
11.718750 90.843 -120.6326
11.803669 90.878 -120.8647
11.889203 90.912 -121.0893
11.975357 90.944 -121.3074
12.062136 90.976 -121.5203
12.149543 91.007 -121.7292
12.237583 91.037 -121.9357
12.326262 91.066 -122.1413
12.415583 91.094 -122.3474
12.505552 91.121 -122.5555
12.596172 91.146 -122.7664
12.687449 91.169 -122.9808
12.779387 91.191 -123.1993
12.871992 91.210 -123.4221
12.965268 91.228 -123.6491
13.059220 91.244 -123.8800
13.153852 91.258 -124.1144
13.249170 91.270 -124.3521
13.345179 91.281 -124.5926
13.441884 91.291 -124.8360
13.539289 91.299 -125.0823
13.637401 91.307 -125.3319
13.736223 91.314 -125.5857
13.835761 91.320 -125.8447
13.936021 91.326 -126.1104
14.037007 91.332 -126.3841
14.138725 91.338 -126.6676
14.241180 91.343 -126.9625
14.344377 91.348 -127.2701
14.448323 91.353 -127.5917
14.553021 91.358 -127.9278
14.658478 91.362 -128.2787
14.764700 91.365 -128.6443
14.871691 91.368 -129.0236
14.979457 91.370 -129.4154
15.088005 91.371 -129.8181
15.197339 91.372 -130.2298
15.307465 91.372 -130.6485
15.418389 91.372 -131.0724
15.530117 91.372 -131.4998
15.642655 91.372 -131.9293
15.756008 91.373 -132.3600
15.870182 91.376 -132.7916
15.985184 91.379 -133.2240
16.101019 91.385 -133.6577
16.217694 91.392 -134.0936
16.335214 91.402 -134.5324
16.453586 91.414 -134.9751
16.572815 91.428 -135.4225
16.692909 91.444 -135.8748
16.813872 91.463 -136.3319
16.935713 91.483 -136.7934
17.058436 91.505 -137.2581
17.182048 91.528 -137.7246
17.306556 91.552 -138.1910
17.431967 91.576 -138.6553
17.558286 91.602 -139.1157
17.685521 91.627 -139.5700
17.813677 91.653 -140.0169
17.942762 91.680 -140.4548
18.072783 91.707 -140.8831
18.203746 91.734 -141.3010
18.335658 91.762 -141.7085
18.468526 91.791 -142.1053
18.602356 91.819 -142.4917
18.737156 91.848 -142.8677
18.872934 91.877 -143.2333
19.009695 91.906 -143.5885
19.147447 91.935 -143.9330
19.286197 91.963 -144.2668
19.425953 91.991 -144.5898
19.566721 92.018 -144.9021
19.708510 92.044 -145.2041
19.851326 92.069 -145.4966
19.995177 92.093 -145.7806
20.140070 92.117 -146.0577
20.286013 92.139 -146.3295
20.433014 92.160 -146.5976
20.581080 92.180 -146.8636
20.730219 92.199 -147.1288
20.880439 92.216 -147.3943
21.031747 92.231 -147.6606
21.184152 92.245 -147.9279
21.337661 92.257 -148.1962
21.492282 92.267 -148.4652
21.648024 92.275 -148.7349
21.804895 92.281 -149.0054
21.962902 92.286 -149.2770
22.122054 92.290 -149.5507
22.282360 92.292 -149.8275
22.443827 92.294 -150.1089
22.606464 92.296 -150.3965
22.770280 92.296 -150.6916
22.935283 92.296 -150.9954
23.101481 92.296 -151.3088
23.268884 92.296 -151.6321
23.437500 92.295 -151.9654
23.607338 92.293 -152.3084
23.778406 92.292 -152.6606
23.950714 92.290 -153.0214
24.124271 92.288 -153.3900
24.299086 92.287 -153.7658
24.475167 92.286 -154.1481
24.652524 92.285 -154.5360
24.831166 92.285 -154.9285
25.011103 92.285 -155.3244
25.192344 92.286 -155.7223
25.374898 92.288 -156.1205
25.558775 92.291 -156.5172
25.743984 92.294 -156.9110
25.930536 92.298 -157.3002
26.118439 92.302 -157.6835
26.307704 92.308 -158.0599
26.498341 92.314 -158.4285
26.690359 92.321 -158.7885
26.883768 92.329 -159.1393
27.078579 92.337 -159.4803
27.274801 92.345 -159.8112
27.472446 92.354 -160.1317
27.671522 92.363 -160.4420
27.872042 92.372 -160.7428
28.074014 92.381 -161.0351
28.277450 92.390 -161.3205
28.482360 92.399 -161.6005
28.688755 92.408 -161.8770
28.896645 92.416 -162.1514
29.106042 92.422 -162.4247
29.316957 92.428 -162.6976
29.529400 92.432 -162.9705
29.743382 92.434 -163.2433
29.958915 92.436 -163.5161
30.176009 92.435 -163.7893
30.394677 92.434 -164.0634
30.614929 92.431 -164.3393
30.836778 92.427 -164.6178
31.060234 92.423 -164.9002
31.285309 92.417 -165.1871
31.512015 92.411 -165.4795
31.740364 92.405 -165.7777
31.970368 92.398 -166.0821
32.202039 92.391 -166.3929
32.435388 92.383 -166.7102
32.670428 92.376 -167.0338
32.907171 92.368 -167.3633
33.145630 92.361 -167.6980
33.385817 92.353 -168.0368
33.627745 92.346 -168.3782
33.871425 92.339 -168.7208
34.116871 92.332 -169.0628
34.364096 92.326 -169.4029
34.613113 92.320 -169.7400
34.863934 92.314 -170.0730
35.116572 92.309 -170.4016
35.371041 92.304 -170.7253
35.627354 92.299 -171.0439
35.885525 92.294 -171.3574
36.145566 92.289 -171.6658
36.407492 92.284 -171.9688
36.671316 92.278 -172.2665
36.937051 92.272 -172.5585
37.204712 92.264 -172.8446
37.474313 92.256 -173.1247
37.745867 92.248 -173.3989
38.019389 92.238 -173.6678
38.294893 92.228 -173.9324
38.572394 92.217 -174.1938
38.851905 92.206 -174.4538
39.133442 92.194 -174.7135
39.417019 92.181 -174.9741
39.702651 92.168 -175.2363
39.990353 92.154 -175.5004
40.280140 92.140 -175.7664
40.572026 92.125 -176.0341
40.866028 92.110 -176.3033
41.162160 92.095 -176.5738
41.460438 92.079 -176.8453
41.760877 92.064 -177.1178
42.063494 92.048 -177.3915
42.368303 92.033 -177.6666
42.675322 92.018 -177.9431
42.984565 92.002 -178.2207
43.296048 91.986 -178.4986
43.609789 91.970 -178.7751
43.925804 91.952 -179.0487
44.244108 91.935 -179.3177
44.564719 91.917 -179.5813
44.887654 91.899 -179.8393
45.212928 91.880 179.9075
45.540560 91.862 179.6577
45.870565 91.844 179.4099
46.202962 91.826 179.1628
46.537768 91.808 178.9157
46.875000 91.789 178.6688
47.214676 91.770 178.4224
47.556813 91.751 178.1772
47.901429 91.731 177.9338
48.248542 91.711 177.6923
48.598171 91.692 177.4524
48.950334 91.672 177.2138
49.305048 91.652 176.9763
49.662333 91.633 176.7398
50.022206 91.613 176.5045
50.384688 91.593 176.2706
50.749796 91.572 176.0387
51.117550 91.551 175.8097
51.487969 91.529 175.5846
51.861072 91.506 175.3642
52.236879 91.483 175.1491
52.615409 91.460 174.9389
52.996681 91.437 174.7327
53.380717 91.413 174.5290
53.767536 91.390 174.3266
54.157158 91.366 174.1246
54.549603 91.342 173.9223
54.944892 91.319 173.7192
55.343045 91.295 173.5147
55.744084 91.272 173.3082
56.148028 91.248 173.0993
56.554900 91.225 172.8878
56.964720 91.201 172.6744
57.377510 91.177 172.4597
57.793291 91.153 172.2451
58.212085 91.129 172.0316
58.633914 91.104 171.8201
59.058799 91.079 171.6117
59.486764 91.053 171.4067
59.917829 91.026 171.2057
60.352019 90.999 171.0084
60.789354 90.971 170.8148
61.229859 90.942 170.6244
61.673556 90.912 170.4368
62.120468 90.882 170.2521
62.570618 90.850 170.0704
63.024031 90.817 169.8918
63.480729 90.784 169.7162
63.940736 90.751 169.5429
64.404077 90.718 169.3712
64.870776 90.684 169.2001
65.340856 90.651 169.0296
65.814343 90.617 168.8599
66.291261 90.583 168.6918
66.771635 90.549 168.5265
67.255489 90.514 168.3655
67.742850 90.478 168.2102
68.233743 90.442 168.0614
68.728193 90.405 167.9189
69.226226 90.368 167.7822
69.727867 90.330 167.6508
70.233144 90.291 167.5241
70.742083 90.251 167.4023
71.254709 90.211 167.2851
71.771050 90.169 167.1731
72.291132 90.127 167.0672
72.814984 90.084 166.9691
73.342631 90.041 166.8805
73.874102 89.997 166.8028
74.409424 89.952 166.7373
74.948626 89.908 166.6851
75.491734 89.864 166.6481
76.038779 89.821 166.6288
76.589787 89.778 166.6301
77.144788 89.736 166.6542
77.703811 89.696 166.7019
78.266885 89.659 166.7714
78.834039 89.626 166.8581
79.405303 89.599 166.9544
79.980706 89.576 167.0506
80.560280 89.559 167.1352
81.144053 89.547 167.1968
81.732056 89.539 167.2256
82.324320 89.533 167.2156
82.920876 89.528 167.1648
83.521755 89.521 167.0753
84.126988 89.512 166.9531
84.736607 89.499 166.8069
85.350643 89.483 166.6463
85.969129 89.462 166.4798
86.592097 89.438 166.3144
