* Measurement data measured by REW V5.30.3
* Source: EXCL: Microphone (Realtek(R) Audio), MICROPHONE (Master Volume), L, volume: 1.000
* Format: 256k Log Swept Sine, 1 sweep at -15.0 dBFS with no timing reference
* Dated: Jan 11, 2024 4:02:19 PM
* REW Settings:
*  C-weighting compensation: Off
*  Target level: 75.0 dB
* Note: 
* Measurement: L Jan 11
* Smoothing: 1/12 octave
* Frequency Step: 96 ppo
* Start Frequency: 0.36621094 Hz
*
* Freq(Hz) SPL(dB) Phase(degrees)
0.366211 101.379 -23.4886
0.368865 101.373 -23.5121
0.371538 101.364 -23.5472
0.374230 101.354 -23.5913
0.376942 101.342 -23.6422
0.379673 101.329 -23.6982
0.382424 101.316 -23.7581
0.385196 101.302 -23.8214
0.387987 101.288 -23.8877
0.390798 101.274 -23.9567
0.393630 101.259 -24.0283
0.396483 101.245 -24.1026
0.399356 101.230 -24.1794
0.402250 101.216 -24.2589
0.405165 101.201 -24.3410
0.408101 101.186 -24.4257
0.411058 101.171 -24.5131
0.414037 101.156 -24.6032
0.417037 101.141 -24.6960
0.420059 101.125 -24.7916
0.423103 101.110 -24.8899
0.426169 101.094 -24.9910
0.429257 101.079 -25.0950
0.432367 101.063 -25.2018
0.435501 101.047 -25.3114
0.438656 101.031 -25.4239
0.441835 101.015 -25.5394
0.445037 100.999 -25.6578
0.448262 100.982 -25.7791
0.451510 100.966 -25.9034
0.454782 100.949 -26.0306
0.458077 100.933 -26.1609
0.461397 100.916 -26.2942
0.464740 100.899 -26.4306
0.468108 100.882 -26.5700
0.471500 100.865 -26.7124
0.474917 100.847 -26.8580
0.478358 100.830 -27.0067
0.481825 100.812 -27.1584
0.485316 100.794 -27.3133
0.488833 100.777 -27.4713
0.492375 100.759 -27.6325
0.495943 100.741 -27.7968
0.499537 100.722 -27.9642
0.503157 100.704 -28.1348
0.506803 100.685 -28.3085
0.510475 100.667 -28.4854
0.514174 100.648 -28.6654
0.517900 100.629 -28.8486
0.521653 100.610 -29.0348
0.525433 100.591 -29.2242
0.529241 100.572 -29.4167
0.533076 100.552 -29.6123
0.536939 100.533 -29.8109
0.540830 100.513 -30.0126
0.544749 100.493 -30.2173
0.548696 100.473 -30.4251
0.552673 100.453 -30.6357
0.556677 100.433 -30.8493
0.560711 100.412 -31.0658
0.564774 100.392 -31.2852
0.568867 100.371 -31.5073
0.572989 100.350 -31.7322
0.577141 100.329 -31.9598
0.581324 100.308 -32.1901
0.585536 100.286 -32.4229
0.589779 100.265 -32.6582
0.594053 100.243 -32.8959
0.598358 100.221 -33.1360
0.602694 100.199 -33.3783
0.607061 100.177 -33.6229
0.611460 100.155 -33.8694
0.615891 100.132 -34.1180
0.620354 100.110 -34.3684
0.624849 100.087 -34.6206
0.629377 100.064 -34.8743
0.633938 100.041 -35.1296
0.638532 100.018 -35.3861
0.643159 99.994 -35.6439
0.647819 99.970 -35.9027
0.652514 99.947 -36.1623
0.657242 99.923 -36.4227
0.662005 99.898 -36.6835
0.666802 99.874 -36.9447
0.671634 99.850 -37.2060
0.676501 99.825 -37.4671
0.681403 99.800 -37.7279
0.686341 99.775 -37.9882
0.691314 99.750 -38.2476
0.696324 99.724 -38.5060
0.701369 99.698 -38.7632
0.706452 99.672 -39.0189
0.711571 99.646 -39.2730
0.716727 99.618 -39.5257
0.721921 99.589 -39.7770
0.727153 99.559 -40.0274
0.732422 99.527 -40.2777
0.737729 99.493 -40.5290
0.743075 99.457 -40.7822
0.748460 99.419 -41.0383
0.753883 99.379 -41.2981
0.759346 99.339 -41.5620
0.764849 99.298 -41.8304
0.770391 99.256 -42.1035
0.775974 99.214 -42.3814
0.781597 99.171 -42.6642
0.787261 99.127 -42.9520
0.792965 99.083 -43.2449
0.798712 99.038 -43.5428
0.804499 98.993 -43.8458
0.810329 98.947 -44.1539
0.816201 98.901 -44.4671
0.822116 98.853 -44.7855
0.828073 98.805 -45.1090
0.834073 98.757 -45.4376
0.840118 98.707 -45.7713
0.846205 98.657 -46.1101
0.852337 98.606 -46.4539
0.858514 98.554 -46.8028
0.864735 98.501 -47.1566
0.871001 98.447 -47.5152
0.877313 98.393 -47.8787
0.883670 98.337 -48.2468
0.890074 98.280 -48.6196
0.896523 98.222 -48.9968
0.903020 98.164 -49.3783
0.909564 98.104 -49.7640
0.916155 98.042 -50.1536
0.922793 97.980 -50.5470
0.929480 97.916 -50.9440
0.936216 97.851 -51.3442
0.943000 97.785 -51.7475
0.949833 97.717 -52.1534
0.956716 97.648 -52.5617
0.963649 97.577 -52.9719
0.970632 97.505 -53.3838
0.977666 97.431 -53.7967
0.984750 97.356 -54.2103
0.991886 97.279 -54.6240
0.999074 97.200 -55.0373
1.006313 97.119 -55.4494
1.013605 97.036 -55.8598
1.020950 96.951 -56.2678
1.028349 96.864 -56.6725
1.035801 96.775 -57.0731
1.043306 96.684 -57.4687
1.050867 96.591 -57.8584
1.058482 96.495 -58.2413
1.066152 96.397 -58.6162
1.073878 96.297 -58.9824
1.081659 96.193 -59.3389
1.089498 96.087 -59.6850
1.097393 95.977 -60.0204
1.105345 95.864 -60.3448
1.113355 95.747 -60.6584
1.121422 95.626 -60.9613
1.129549 95.502 -61.2536
1.137734 95.372 -61.5354
1.145978 95.239 -61.8068
1.154283 95.102 -62.0677
1.162647 94.960 -62.3179
1.171072 94.815 -62.5575
1.179558 94.665 -62.7862
1.188106 94.512 -63.0037
1.196715 94.356 -63.2100
1.205387 94.196 -63.4047
1.214122 94.032 -63.5875
1.222920 93.866 -63.7581
1.231781 93.696 -63.9162
1.240708 93.524 -64.0614
1.249698 93.350 -64.1932
1.258754 93.173 -64.3113
1.267875 92.993 -64.4151
1.277063 92.812 -64.5040
1.286317 92.629 -64.5775
1.295638 92.445 -64.6350
1.305027 92.260 -64.6758
1.314484 92.074 -64.6991
1.324009 91.887 -64.7042
1.333603 91.699 -64.6903
1.343267 91.512 -64.6565
1.353001 91.325 -64.6020
1.362805 91.139 -64.5257
1.372681 90.953 -64.4267
1.382628 90.769 -64.3039
1.392647 90.587 -64.1562
1.402739 90.407 -63.9824
1.412904 90.229 -63.7811
1.423142 90.053 -63.5504
1.433455 89.881 -63.2879
1.443842 89.710 -62.9903
1.454305 89.542 -62.6527
1.464843 89.375 -62.2686
1.475458 89.209 -61.8296
1.486150 89.041 -61.3265
1.496919 88.872 -60.7501
1.507766 88.700 -60.0916
1.518692 88.525 -59.3428
1.529697 88.348 -58.4959
1.540782 88.169 -57.5434
1.551947 87.988 -56.4780
1.563193 87.805 -55.2929
1.574521 87.622 -53.9810
1.585931 87.440 -52.5365
1.597423 87.258 -50.9536
1.608998 87.078 -49.2283
1.620658 86.900 -47.3580
1.632402 86.725 -45.3421
1.644231 86.555 -43.1831
1.656146 86.391 -40.8866
1.668147 86.232 -38.4619
1.680235 86.081 -35.9227
1.692410 85.938 -33.2867
1.704674 85.805 -30.5760
1.717027 85.683 -27.8157
1.729469 85.572 -25.0340
1.742002 85.476 -22.2601
1.754625 85.394 -19.5234
1.767340 85.328 -16.8514
1.780147 85.281 -14.2689
1.793046 85.253 -11.7964
1.806040 85.246 -9.4492
1.819127 85.263 -7.2372
1.832309 85.305 -5.1654
1.845587 85.373 -3.2350
1.858961 85.469 -1.4451
1.872431 85.592 0.2055
1.886000 85.742 1.7186
1.899666 85.917 3.0964
1.913432 86.118 4.3423
1.927298 86.340 5.4606
1.941264 86.584 6.4565
1.955331 86.846 7.3362
1.969500 87.123 8.1060
1.983772 87.415 8.7728
1.998147 87.718 9.3432
2.012626 88.030 9.8239
2.027211 88.348 10.2213
2.041901 88.669 10.5414
2.056697 88.991 10.7896
2.071601 89.311 10.9711
2.086613 89.626 11.0903
2.101733 89.934 11.1514
2.116963 90.232 11.1576
2.132303 90.517 11.1116
2.147755 90.788 11.0151
2.163318 91.043 10.8691
2.178995 91.281 10.6733
2.194785 91.504 10.4268
2.210689 91.713 10.1281
2.226709 91.909 9.7764
2.242844 92.094 9.3721
2.259097 92.270 8.9171
2.275467 92.437 8.4146
2.291956 92.598 7.8686
2.308565 92.751 7.2833
2.325294 92.898 6.6634
2.342144 93.039 6.0131
2.359116 93.175 5.3370
2.376211 93.305 4.6390
2.393430 93.430 3.9229
2.410774 93.551 3.1922
2.428243 93.667 2.4502
2.445839 93.780 1.6997
2.463562 93.889 0.9430
2.481415 93.996 0.1817
2.499396 94.099 -0.5834
2.517508 94.200 -1.3529
2.535750 94.298 -2.1290
2.554126 94.393 -2.9157
2.572634 94.485 -3.7183
2.591276 94.573 -4.5428
2.610054 94.656 -5.3939
2.628967 94.735 -6.2741
2.648018 94.809 -7.1836
2.667206 94.878 -8.1210
2.686534 94.942 -9.0837
2.706002 95.002 -10.0679
2.725610 95.057 -11.0697
2.745361 95.108 -12.0846
2.765255 95.155 -13.1079
2.785294 95.199 -14.1351
2.805477 95.239 -15.1615
2.825807 95.277 -16.1830
2.846284 95.311 -17.1958
2.866909 95.343 -18.1972
2.887684 95.373 -19.1861
2.908609 95.400 -20.1634
2.929686 95.425 -21.1324
2.950916 95.447 -22.0981
2.972299 95.465 -23.0662
2.993838 95.479 -24.0411
3.015532 95.490 -25.0255
3.037384 95.497 -26.0202
3.059394 95.500 -27.0246
3.081564 95.500 -28.0367
3.103894 95.497 -29.0538
3.126386 95.491 -30.0725
3.149041 95.482 -31.0888
3.171861 95.470 -32.0984
3.194845 95.457 -33.0970
3.217996 95.442 -34.0806
3.241315 95.425 -35.0458
3.264803 95.406 -35.9904
3.288461 95.386 -36.9141
3.312291 95.363 -37.8183
3.336293 95.338 -38.7060
3.360469 95.310 -39.5799
3.384820 95.279 -40.4424
3.409348 95.246 -41.2945
3.434054 95.211 -42.1365
3.458938 95.173 -42.9673
3.484003 95.135 -43.7852
3.509250 95.097 -44.5877
3.534679 95.058 -45.3716
3.560293 95.020 -46.1331
3.586092 94.983 -46.8682
3.612079 94.948 -47.5724
3.638253 94.915 -48.2418
3.664618 94.883 -48.8728
3.691173 94.852 -49.4632
3.717921 94.823 -50.0123
3.744862 94.795 -50.5208
3.771999 94.768 -50.9909
3.799332 94.743 -51.4255
3.826864 94.721 -51.8283
3.854595 94.701 -52.2031
3.882527 94.686 -52.5536
3.910661 94.675 -52.8832
3.938999 94.670 -53.1948
3.967543 94.672 -53.4898
3.996294 94.680 -53.7681
4.025252 94.697 -54.0280
4.054421 94.721 -54.2667
4.083801 94.753 -54.4817
4.113394 94.792 -54.6730
4.143201 94.839 -54.8427
4.173225 94.893 -54.9959
4.203466 94.953 -55.1391
4.233926 95.021 -55.2797
4.264606 95.094 -55.4256
4.295509 95.174 -55.5838
4.326636 95.260 -55.7601
4.357989 95.353 -55.9580
4.389569 95.452 -56.1788
4.421378 95.558 -56.4210
4.453417 95.671 -56.6824
4.485688 95.791 -56.9614
4.518193 95.917 -57.2580
4.550934 96.049 -57.5734
4.583912 96.185 -57.9104
4.617129 96.324 -58.2722
4.650587 96.466 -58.6624
4.684287 96.609 -59.0842
4.718231 96.752 -59.5401
4.752421 96.896 -60.0313
4.786859 97.040 -60.5577
4.821547 97.185 -61.1172
4.856485 97.329 -61.7071
4.891677 97.474 -62.3238
4.927125 97.619 -62.9638
4.962829 97.763 -63.6238
4.998791 97.905 -64.3012
5.035015 98.045 -64.9943
5.071500 98.182 -65.7025
5.108251 98.315 -66.4260
5.145267 98.445 -67.1655
5.182552 98.572 -67.9212
5.220107 98.695 -68.6920
5.257934 98.814 -69.4751
5.296035 98.930 -70.2661
5.334412 99.043 -71.0601
5.373067 99.152 -71.8522
5.412003 99.257 -72.6385
5.451221 99.358 -73.4163
5.490722 99.455 -74.1848
5.530510 99.548 -74.9446
5.570587 99.636 -75.6963
5.610953 99.721 -76.4395
5.651613 99.802 -77.1722
5.692567 99.879 -77.8911
5.733818 99.954 -78.5924
5.775367 100.025 -79.2722
5.817218 100.094 -79.9275
5.859372 100.161 -80.5564
5.901831 100.225 -81.1586
5.944598 100.287 -81.7347
5.987675 100.347 -82.2854
6.031065 100.405 -82.8108
6.074768 100.462 -83.3106
6.118788 100.519 -83.7842
6.163127 100.577 -84.2304
6.207788 100.634 -84.6484
6.252772 100.693 -85.0378
6.298082 100.752 -85.3992
6.343721 100.813 -85.7340
6.389690 100.875 -86.0452
6.435992 100.938 -86.3359
6.482630 101.004 -86.6093
6.529606 101.072 -86.8684
6.576922 101.143 -87.1152
6.624581 101.216 -87.3510
6.672585 101.293 -87.5772
6.720938 101.372 -87.7958
6.769640 101.454 -88.0099
6.818696 101.538 -88.2234
6.868107 101.625 -88.4400
6.917876 101.713 -88.6632
6.968006 101.803 -88.8950
7.018499 101.894 -89.1366
7.069358 101.987 -89.3887
7.120586 102.081 -89.6519
7.172184 102.175 -89.9270
7.224157 102.269 -90.2151
7.276506 102.362 -90.5172
7.329235 102.455 -90.8340
7.382345 102.546 -91.1655
7.435841 102.635 -91.5108
7.489724 102.723 -91.8684
7.543997 102.808 -92.2365
7.598664 102.891 -92.6130
7.653728 102.972 -92.9964
7.709189 103.049 -93.3855
7.765053 103.124 -93.7792
7.821322 103.196 -94.1760
7.877998 103.264 -94.5739
7.935086 103.330 -94.9703
7.992587 103.393 -95.3628
8.050504 103.454 -95.7495
8.108841 103.512 -96.1292
8.167601 103.567 -96.5010
8.226787 103.621 -96.8645
8.286402 103.673 -97.2187
8.346449 103.723 -97.5631
8.406931 103.773 -97.8969
8.467851 103.822 -98.2200
8.529212 103.870 -98.5329
8.591018 103.919 -98.8368
8.653272 103.967 -99.1332
8.715977 104.016 -99.4238
8.779137 104.065 -99.7100
8.842754 104.116 -99.9935
8.906833 104.167 -100.2757
8.971375 104.219 -100.5589
9.036386 104.272 -100.8454
9.101867 104.325 -101.1378
9.167823 104.380 -101.4379
9.234257 104.435 -101.7474
9.301172 104.490 -102.0674
9.368572 104.545 -102.3989
9.436460 104.601 -102.7429
9.504841 104.655 -103.1003
9.573717 104.709 -103.4714
9.643092 104.761 -103.8559
9.712970 104.813 -104.2531
9.783354 104.862 -104.6619
9.854248 104.910 -105.0809
9.925656 104.956 -105.5091
9.997581 104.999 -105.9449
10.070028 105.041 -106.3867
10.143000 105.080 -106.8323
10.216500 105.118 -107.2797
10.290533 105.153 -107.7269
10.365103 105.186 -108.1725
10.440212 105.218 -108.6151
10.515866 105.249 -109.0534
10.592069 105.278 -109.4861
10.668823 105.307 -109.9125
10.746134 105.336 -110.3321
10.824005 105.365 -110.7452
10.902440 105.394 -111.1523
10.981443 105.423 -111.5539
11.061020 105.454 -111.9510
11.141172 105.486 -112.3447
11.221906 105.519 -112.7368
11.303225 105.554 -113.1290
11.385133 105.590 -113.5230
11.467634 105.628 -113.9204
11.550734 105.667 -114.3229
11.634435 105.708 -114.7318
11.718742 105.750 -115.1487
11.803661 105.793 -115.5746
11.889195 105.837 -116.0101
11.975349 105.881 -116.4554
12.062128 105.926 -116.9108
12.149535 105.971 -117.3760
12.237576 106.016 -117.8503
12.326254 106.061 -118.3329
12.415575 106.104 -118.8226
12.505544 106.148 -119.3181
12.596164 106.190 -119.8180
12.687441 106.231 -120.3206
12.779379 106.272 -120.8244
12.871984 106.311 -121.3276
12.965260 106.350 -121.8288
13.059211 106.388 -122.3265
13.153843 106.424 -122.8193
13.249161 106.461 -123.3059
13.345170 106.496 -123.7855
13.441875 106.532 -124.2572
13.539280 106.567 -124.7204
13.637391 106.602 -125.1749
13.736214 106.637 -125.6206
13.835752 106.673 -126.0576
13.936011 106.709 -126.4864
14.036998 106.746 -126.9078
14.138716 106.783 -127.3226
14.241171 106.821 -127.7318
14.344368 106.859 -128.1369
14.448313 106.898 -128.5390
14.553011 106.938 -128.9394
14.658468 106.978 -129.3396
14.764689 107.019 -129.7405
14.871680 107.059 -130.1433
14.979446 107.099 -130.5484
15.087994 107.139 -130.9563
15.197328 107.178 -131.3669
15.307454 107.215 -131.7796
15.418378 107.251 -132.1935
15.530106 107.286 -132.6075
15.642643 107.318 -133.0199
15.755996 107.349 -133.4288
15.870171 107.378 -133.8326
15.985172 107.405 -134.2293
16.101007 107.430 -134.6174
16.217682 107.454 -134.9957
16.335201 107.477 -135.3635
16.453573 107.499 -135.7207
16.572803 107.521 -136.0680
16.692898 107.543 -136.4064
16.813862 107.565 -136.7382
16.935701 107.589 -137.0655
17.058424 107.613 -137.3912
17.182035 107.637 -137.7182
17.306543 107.663 -138.0493
17.431953 107.689 -138.3869
17.558273 107.715 -138.7329
17.685509 107.741 -139.0887
17.813665 107.767 -139.4548
17.942751 107.791 -139.8308
18.072771 107.815 -140.2160
18.203733 107.837 -140.6090
18.335646 107.857 -141.0081
18.468513 107.877 -141.4115
18.602345 107.895 -141.8178
18.737144 107.912 -142.2257
18.872921 107.928 -142.6345
19.009682 107.944 -143.0441
19.147434 107.960 -143.4551
19.286184 107.975 -143.8681
19.425940 107.991 -144.2842
19.566708 108.006 -144.7044
19.708496 108.021 -145.1294
19.851313 108.036 -145.5592
19.995163 108.051 -145.9932
20.140057 108.064 -146.4302
20.285999 108.076 -146.8682
20.433001 108.088 -147.3046
20.581066 108.099 -147.7369
20.730206 108.108 -148.1626
20.880424 108.118 -148.5798
21.031733 108.128 -148.9874
21.184137 108.138 -149.3854
21.337646 108.150 -149.7750
21.492268 108.163 -150.1583
21.648010 108.178 -150.5381
21.804880 108.194 -150.9176
21.962887 108.212 -151.2997
22.122040 108.231 -151.6869
22.282345 108.250 -152.0801
22.443811 108.268 -152.4792
22.606449 108.286 -152.8828
22.770266 108.302 -153.2880
22.935268 108.316 -153.6914
23.101467 108.329 -154.0892
23.268869 108.340 -154.4781
23.437485 108.349 -154.8555
23.607323 108.358 -155.2204
23.778391 108.367 -155.5729
23.950699 108.376 -155.9150
24.124256 108.386 -156.2495
24.299070 108.396 -156.5798
24.475151 108.406 -156.9092
24.652508 108.417 -157.2406
24.831150 108.427 -157.5752
25.011087 108.436 -157.9134
25.192327 108.444 -158.2540
25.374882 108.451 -158.5952
25.558758 108.456 -158.9350
25.743967 108.460 -159.2716
25.930519 108.463 -159.6044
26.118422 108.465 -159.9341
26.307686 108.468 -160.2626
26.498322 108.471 -160.5932
26.690340 108.474 -160.9289
26.883749 108.477 -161.2726
27.078560 108.480 -161.6259
27.274782 108.482 -161.9888
27.472427 108.482 -162.3593
27.671503 108.480 -162.7341
27.872023 108.477 -163.1094
28.073996 108.472 -163.4813
28.277431 108.467 -163.8474
28.482342 108.461 -164.2070
28.688736 108.456 -164.5611
28.896626 108.453 -164.9125
29.106022 108.450 -165.2645
29.316936 108.448 -165.6200
29.529379 108.447 -165.9806
29.743361 108.446 -166.3460
29.958893 108.445 -166.7142
30.175987 108.443 -167.0818
30.394655 108.441 -167.4454
30.614908 108.439 -167.8027
30.836756 108.437 -168.1533
31.060211 108.436 -168.4986
31.285286 108.437 -168.8419
31.511992 108.439 -169.1869
31.740341 108.441 -169.5364
31.970345 108.443 -169.8917
32.202015 108.445 -170.2519
32.435364 108.446 -170.6141
32.670403 108.445 -170.9751
32.907146 108.442 -171.3320
33.145607 108.439 -171.6836
33.385796 108.436 -172.0306
33.627724 108.432 -172.3751
33.871403 108.427 -172.7194
34.116848 108.422 -173.0645
34.364071 108.414 -173.4090
34.613087 108.405 -173.7494
34.863907 108.394 -174.0810
35.116547 108.381 -174.3995
35.371017 108.368 -174.7034
35.627331 108.355 -174.9944
35.885502 108.344 -175.2778
36.145542 108.335 -175.5604
36.407467 108.327 -175.8483
36.671291 108.319 -176.1446
36.937027 108.310 -176.4483
37.204689 108.301 -176.7554
37.474289 108.290 -177.0606
37.745842 108.279 -177.3607
38.019363 108.268 -177.6564
38.294868 108.259 -177.9524
38.572369 108.251 -178.2557
38.851879 108.245 -178.5728
39.133415 108.237 -178.9066
39.416992 108.228 -179.2553
39.702625 108.216 -179.6127
39.990326 108.201 -179.9711
40.280113 108.183 179.6758
40.571999 108.164 179.3315
40.866001 108.143 178.9962
41.162132 108.122 178.6691
41.460411 108.099 178.3506
41.760849 108.076 178.0433
42.063465 108.052 177.7512
42.368275 108.029 177.4764
42.675293 108.008 177.2164
42.984535 107.990 176.9626
43.296021 107.975 176.7029
43.609760 107.964 176.4260
43.925774 107.952 176.1264
44.244080 107.939 175.8079
44.564690 107.923 175.4816
44.887623 107.903 175.1617
45.212898 107.882 174.8597
45.540531 107.859 174.5809
45.870537 107.838 174.3234
46.202934 107.819 174.0818
46.537739 107.802 173.8506
46.874969 107.787 173.6269
47.214645 107.773 173.4103
47.556782 107.761 173.2001
47.901398 107.751 172.9928
48.248512 107.743 172.7813
48.598141 107.737 172.5572
48.950302 107.730 172.3139
49.305016 107.721 172.0503
49.662300 107.708 171.7718
50.022175 107.690 171.4893
50.384655 107.665 171.2167
50.749763 107.635 170.9669
51.117516 107.601 170.7479
51.487934 107.567 170.5604
51.861038 107.534 170.3969
52.236843 107.503 170.2445
52.615372 107.475 170.0885
52.996643 107.450 169.9161
53.380680 107.426 169.7174
53.767498 107.403 169.4846
54.157120 107.379 169.2112
54.549564 107.352 168.8962
54.944855 107.319 168.5501
55.343006 107.278 168.2000
55.744045 107.228 167.8846
56.147991 107.175 167.6394
56.554863 107.126 167.4757
56.964684 107.089 167.3693
57.377472 107.067 167.2695
57.793251 107.058 167.1255
58.212044 107.054 166.9138
58.633873 107.047 166.6469
59.058758 107.035 166.3587
59.486721 107.019 166.0808
59.917786 107.000 165.8251
60.351974 106.982 165.5841
60.789310 106.964 165.3447
61.229816 106.945 165.0999
61.673512 106.923 164.8519
62.120422 106.898 164.6060
62.570572 106.871 164.3658
63.023983 106.842 164.1329
63.480682 106.811 163.9098
63.940689 106.781 163.6995
64.404030 106.752 163.5005
64.870728 106.726 163.3025
65.340805 106.703 163.0916
65.814293 106.682 162.8605
66.291214 106.658 162.6165
66.771591 106.632 162.3767
67.255447 106.604 162.1564
67.742805 106.575 161.9602
68.233696 106.546 161.7844
68.728142 106.517 161.6252
69.226173 106.487 161.4821
69.727814 106.457 161.3547
70.233093 106.427 161.2382
70.742035 106.397 161.1235
71.254662 106.369 161.0014
71.771004 106.341 160.8636
72.291084 106.315 160.7003
72.814934 106.290 160.5018
73.342583 106.263 160.2646
73.874054 106.232 159.9974
74.409378 106.197 159.7204
74.948578 106.156 159.4578
75.491684 106.112 159.2308
76.038727 106.066 159.0521
76.589737 106.021 158.9236
77.144737 105.980 158.8345
77.703758 105.942 158.7642
78.266830 105.909 158.6886
78.833984 105.876 158.5868
79.405251 105.842 158.4458
