* Measurement data measured by REW V5.31.3
* Source: EXCL: Microphone (USB Sound Device        ), MICROPHONE (Master Volume), R, volume: 0.390
* Format: 256k Log Swept Sine, 1 sweep at -12.0 dBFS with no timing reference
* Dated: Jul 21, 2025 12:13:55 AM
* REW Settings:
*  C-weighting compensation: Off
*  Target level: 75.0 dB
* Note: EPZ K9 R
* Measurement: R EPZ K9
* Smoothing: 1/12 octave
* Frequency Step: 96 ppo
* Start Frequency: 0.36621094 Hz
*
* Freq(Hz) SPL(dB) Phase(degrees)
0.366211 94.111 158.3455
0.368865 94.105 158.3229
0.371538 94.097 158.2890
0.374230 94.086 158.2465
0.376942 94.074 158.1975
0.379673 94.061 158.1436
0.382424 94.047 158.0859
0.385196 94.034 158.0250
0.387987 94.020 157.9614
0.390798 94.005 157.8952
0.393630 93.991 157.8265
0.396483 93.976 157.7553
0.399356 93.962 157.6817
0.402250 93.947 157.6056
0.405165 93.932 157.5271
0.408101 93.917 157.4460
0.411058 93.902 157.3625
0.414037 93.887 157.2764
0.417037 93.872 157.1877
0.420059 93.856 157.0965
0.423103 93.841 157.0026
0.426169 93.825 156.9061
0.429257 93.809 156.8069
0.432368 93.793 156.7051
0.435501 93.777 156.6006
0.438656 93.761 156.4933
0.441835 93.745 156.3833
0.445037 93.729 156.2705
0.448262 93.712 156.1549
0.451510 93.696 156.0366
0.454782 93.679 155.9153
0.458077 93.662 155.7913
0.461397 93.645 155.6644
0.464740 93.628 155.5345
0.468108 93.611 155.4018
0.471500 93.594 155.2662
0.474917 93.576 155.1276
0.478358 93.559 154.9861
0.481825 93.541 154.8416
0.485316 93.523 154.6942
0.488833 93.505 154.5437
0.492375 93.487 154.3903
0.495943 93.469 154.2339
0.499537 93.451 154.0744
0.503157 93.432 153.9120
0.506803 93.414 153.7465
0.510475 93.395 153.5780
0.514175 93.376 153.4065
0.517900 93.357 153.2320
0.521653 93.338 153.0544
0.525434 93.319 152.8739
0.529241 93.299 152.6903
0.533076 93.280 152.5038
0.536939 93.260 152.3142
0.540830 93.240 152.1217
0.544749 93.220 151.9262
0.548696 93.200 151.7278
0.552673 93.180 151.5265
0.556677 93.159 151.3223
0.560711 93.139 151.1152
0.564774 93.118 150.9053
0.568867 93.097 150.6926
0.572989 93.076 150.4772
0.577141 93.055 150.2591
0.581324 93.034 150.0382
0.585536 93.012 149.8148
0.589779 92.991 149.5888
0.594053 92.969 149.3603
0.598358 92.947 149.1294
0.602694 92.925 148.8961
0.607061 92.902 148.6605
0.611460 92.880 148.4227
0.615891 92.857 148.1828
0.620354 92.835 147.9408
0.624849 92.812 147.6969
0.629377 92.789 147.4511
0.633938 92.765 147.2036
0.638532 92.742 146.9544
0.643159 92.718 146.7038
0.647819 92.695 146.4518
0.652514 92.671 146.1985
0.657242 92.647 145.9442
0.662005 92.622 145.6890
0.666802 92.598 145.4329
0.671634 92.573 145.1763
0.676501 92.548 144.9192
0.681403 92.523 144.6619
0.686341 92.498 144.4046
0.691314 92.473 144.1474
0.696324 92.447 143.8906
0.701370 92.421 143.6342
0.706452 92.395 143.3786
0.711571 92.368 143.1237
0.716728 92.340 142.8694
0.721921 92.312 142.6157
0.727153 92.281 142.3620
0.732422 92.249 142.1076
0.737729 92.215 141.8516
0.743075 92.179 141.5928
0.748460 92.141 141.3306
0.753883 92.102 141.0640
0.759346 92.061 140.7927
0.764849 92.021 140.5163
0.770391 91.979 140.2346
0.775974 91.937 139.9475
0.781597 91.894 139.6548
0.787261 91.851 139.3565
0.792966 91.807 139.0524
0.798712 91.762 138.7426
0.804500 91.717 138.4270
0.810329 91.672 138.1054
0.816201 91.626 137.7780
0.822116 91.579 137.4445
0.828073 91.531 137.1051
0.834074 91.483 136.7597
0.840118 91.434 136.4082
0.846206 91.384 136.0506
0.852338 91.333 135.6870
0.858514 91.282 135.3173
0.864735 91.230 134.9415
0.871001 91.176 134.5597
0.877313 91.122 134.1719
0.883670 91.067 133.7780
0.890074 91.011 133.3783
0.896524 90.954 132.9727
0.903020 90.895 132.5612
0.909564 90.836 132.1441
0.916155 90.775 131.7214
0.922794 90.713 131.2932
0.929481 90.650 130.8596
0.936216 90.586 130.4209
0.943000 90.520 129.9772
0.949834 90.453 129.5287
0.956717 90.384 129.0757
0.963649 90.314 128.6184
0.970632 90.242 128.1571
0.977666 90.168 127.6921
0.984750 90.093 127.2238
0.991886 90.016 126.7525
0.999074 89.937 126.2787
1.006314 89.857 125.8028
1.013606 89.774 125.3253
1.020951 89.690 124.8468
1.028349 89.603 124.3679
1.035801 89.514 123.8890
1.043307 89.423 123.4111
1.050867 89.330 122.9346
1.058482 89.234 122.4604
1.066152 89.136 121.9892
1.073878 89.036 121.5215
1.081660 88.934 121.0579
1.089498 88.829 120.5987
1.097393 88.723 120.1439
1.105345 88.616 119.6930
1.113355 88.507 119.2456
1.121423 88.398 118.8008
1.129549 88.288 118.3582
1.137734 88.178 117.9171
1.145979 88.067 117.4771
1.154283 87.956 117.0377
1.162647 87.844 116.5985
1.171072 87.731 116.1591
1.179558 87.617 115.7192
1.188106 87.501 115.2783
1.196715 87.384 114.8360
1.205387 87.265 114.3920
1.214122 87.144 113.9457
1.222920 87.020 113.4968
1.231782 86.894 113.0446
1.240708 86.765 112.5889
1.249699 86.632 112.1289
1.258754 86.495 111.6641
1.267876 86.355 111.1939
1.277063 86.210 110.7178
1.286318 86.061 110.2350
1.295639 85.906 109.7448
1.305027 85.746 109.2466
1.314484 85.580 108.7395
1.324009 85.407 108.2228
1.333604 85.228 107.6955
1.343268 85.042 107.1569
1.353002 84.847 106.6060
1.362806 84.645 106.0419
1.372681 84.434 105.4636
1.382628 84.214 104.8701
1.392647 83.984 104.2605
1.402739 83.744 103.6338
1.412904 83.493 102.9892
1.423142 83.230 102.3260
1.433455 82.953 101.6436
1.443843 82.662 100.9419
1.454305 82.355 100.2211
1.464844 82.028 99.4816
1.475459 81.679 98.7241
1.486150 81.305 97.9490
1.496920 80.903 97.1559
1.507767 80.473 96.3437
1.518693 80.014 95.5107
1.529698 79.527 94.6542
1.540783 79.012 93.7710
1.551948 78.472 92.8569
1.563194 77.908 91.9072
1.574521 77.323 90.9163
1.585931 76.718 89.8772
1.597423 76.097 88.7819
1.608999 75.463 87.6206
1.620658 74.818 86.3816
1.632402 74.165 85.0506
1.644232 73.508 83.6099
1.656146 72.851 82.0379
1.668147 72.197 80.3073
1.680235 71.551 78.3838
1.692411 70.918 76.2238
1.704675 70.301 73.7712
1.717028 69.707 70.9538
1.729470 69.141 67.6777
1.742003 68.609 63.8217
1.754626 68.118 59.2308
1.767341 67.674 53.7138
1.780147 67.285 47.0516
1.793047 66.959 39.0326
1.806040 66.703 29.5371
1.819128 66.524 18.6726
1.832310 66.427 6.8927
1.845587 66.415 -5.0501
1.858961 66.490 -16.3667
1.872432 66.649 -26.5182
1.886001 66.889 -35.3061
1.899667 67.205 -42.7808
1.913433 67.590 -49.1099
1.927299 68.038 -54.4871
1.941265 68.540 -59.0896
1.955332 69.091 -63.0647
1.969501 69.681 -66.5302
1.983773 70.305 -69.5780
1.998148 70.953 -72.2796
2.012627 71.618 -74.6909
2.027212 72.294 -76.8555
2.041902 72.972 -78.8076
2.056698 73.645 -80.5746
2.071602 74.307 -82.1783
2.086614 74.950 -83.6364
2.101734 75.567 -84.9634
2.116964 76.152 -86.1720
2.132304 76.701 -87.2732
2.147756 77.209 -88.2783
2.163320 77.672 -89.1989
2.178996 78.090 -90.0482
2.194786 78.465 -90.8416
2.210690 78.800 -91.5952
2.226710 79.099 -92.3241
2.242845 79.367 -93.0398
2.259098 79.608 -93.7497
2.275468 79.824 -94.4572
2.291957 80.018 -95.1630
2.308566 80.190 -95.8662
2.325295 80.344 -96.5643
2.342145 80.480 -97.2543
2.359117 80.601 -97.9328
2.376212 80.707 -98.5958
2.393431 80.800 -99.2392
2.410775 80.883 -99.8588
2.428244 80.956 -100.4502
2.445840 81.021 -101.0088
2.463564 81.081 -101.5302
2.481416 81.135 -102.0103
2.499397 81.185 -102.4455
2.517509 81.231 -102.8334
2.535752 81.272 -103.1734
2.554127 81.307 -103.4668
2.572635 81.333 -103.7173
2.591277 81.352 -103.9301
2.610055 81.363 -104.1102
2.628968 81.368 -104.2611
2.648019 81.370 -104.3851
2.667208 81.368 -104.4829
2.686535 81.365 -104.5540
2.706003 81.361 -104.5973
2.725612 81.356 -104.6108
2.745363 81.351 -104.5923
2.765257 81.345 -104.5392
2.785295 81.340 -104.4486
2.805478 81.335 -104.3175
2.825808 81.330 -104.1425
2.846285 81.326 -103.9205
2.866910 81.322 -103.6480
2.887685 81.319 -103.3216
2.908611 81.316 -102.9380
2.929688 81.314 -102.4939
2.950917 81.311 -101.9868
2.972301 81.309 -101.4151
2.993839 81.306 -100.7783
3.015534 81.302 -100.0779
3.037386 81.300 -99.3163
3.059396 81.298 -98.4977
3.081565 81.298 -97.6270
3.103896 81.301 -96.7103
3.126388 81.308 -95.7546
3.149043 81.321 -94.7674
3.171862 81.340 -93.7570
3.194847 81.367 -92.7313
3.217998 81.404 -91.6983
3.241317 81.451 -90.6641
3.264805 81.510 -89.6332
3.288463 81.581 -88.6072
3.312293 81.666 -87.5856
3.336295 81.765 -86.5673
3.360471 81.876 -85.5528
3.384822 81.999 -84.5456
3.409350 82.133 -83.5517
3.434056 82.277 -82.5791
3.458940 82.430 -81.6365
3.484005 82.589 -80.7330
3.509252 82.753 -79.8773
3.534681 82.920 -79.0774
3.560295 83.090 -78.3401
3.586094 83.260 -77.6705
3.612081 83.430 -77.0723
3.638255 83.600 -76.5464
3.664620 83.770 -76.0918
3.691175 83.940 -75.7051
3.717923 84.111 -75.3820
3.744864 84.284 -75.1178
3.772001 84.457 -74.9080
3.799335 84.632 -74.7488
3.826866 84.806 -74.6367
3.854597 84.978 -74.5685
3.882529 85.149 -74.5415
3.910664 85.316 -74.5536
3.939002 85.478 -74.6030
3.967546 85.636 -74.6888
3.996296 85.787 -74.8108
4.025255 85.932 -74.9693
4.054423 86.070 -75.1649
4.083804 86.202 -75.3972
4.113396 86.328 -75.6648
4.143204 86.448 -75.9646
4.173227 86.563 -76.2922
4.203468 86.672 -76.6426
4.233928 86.775 -77.0108
4.264609 86.873 -77.3919
4.295512 86.965 -77.7816
4.326639 87.052 -78.1771
4.357992 87.132 -78.5768
4.389572 87.206 -78.9811
4.421380 87.274 -79.3918
4.453419 87.336 -79.8106
4.485691 87.391 -80.2381
4.518196 87.439 -80.6730
4.550936 87.482 -81.1125
4.583914 87.519 -81.5521
4.617131 87.550 -81.9870
4.650589 87.577 -82.4119
4.684289 87.600 -82.8223
4.718233 87.618 -83.2147
4.752424 87.632 -83.5871
4.786862 87.642 -83.9393
4.821549 87.647 -84.2721
4.856488 87.647 -84.5866
4.891680 87.643 -84.8833
4.927127 87.636 -85.1619
4.962831 87.626 -85.4212
4.998794 87.614 -85.6596
5.035017 87.601 -85.8750
5.071503 87.587 -86.0650
5.108253 87.574 -86.2275
5.145270 87.560 -86.3609
5.182555 87.547 -86.4647
5.220110 87.534 -86.5397
5.257937 87.521 -86.5881
5.296038 87.509 -86.6132
5.334415 87.499 -86.6189
5.373071 87.492 -86.6092
5.412006 87.487 -86.5874
5.451224 87.487 -86.5563
5.490725 87.491 -86.5172
5.530514 87.500 -86.4706
5.570590 87.514 -86.4174
5.610957 87.532 -86.3601
5.651616 87.554 -86.3029
5.692570 87.581 -86.2512
5.733821 87.612 -86.2113
5.775370 87.647 -86.1894
5.817221 87.685 -86.1902
5.859375 87.727 -86.2170
5.901834 87.774 -86.2713
5.944602 87.824 -86.3536
5.987679 87.877 -86.4645
6.031068 87.933 -86.6052
6.074771 87.991 -86.7773
6.118792 88.050 -86.9831
6.163131 88.109 -87.2247
6.207792 88.168 -87.5038
6.252776 88.227 -87.8213
6.298086 88.285 -88.1769
6.343725 88.342 -88.5688
6.389694 88.398 -88.9944
6.435996 88.452 -89.4506
6.482634 88.504 -89.9341
6.529610 88.554 -90.4427
6.576926 88.600 -90.9748
6.624585 88.643 -91.5296
6.672590 88.683 -92.1060
6.720942 88.720 -92.7020
6.769645 88.753 -93.3141
6.818700 88.783 -93.9377
6.868111 88.810 -94.5685
6.917881 88.834 -95.2025
6.968010 88.855 -95.8371
7.018504 88.873 -96.4710
7.069362 88.888 -97.1030
7.120590 88.901 -97.7313
7.172189 88.912 -98.3532
7.224161 88.922 -98.9658
7.276511 88.931 -99.5661
7.329239 88.940 -100.1516
7.382350 88.948 -100.7212
7.435845 88.957 -101.2747
7.489729 88.967 -101.8126
7.544002 88.978 -102.3354
7.598669 88.990 -102.8437
7.653732 89.006 -103.3378
7.709194 89.024 -103.8180
7.765058 89.046 -104.2849
7.821327 89.071 -104.7401
7.878004 89.099 -105.1859
7.935091 89.132 -105.6256
7.992592 89.168 -106.0621
8.050510 89.209 -106.4979
8.108847 89.253 -106.9348
8.167607 89.302 -107.3741
8.226793 89.355 -107.8178
8.286408 89.411 -108.2678
8.346454 89.470 -108.7263
8.406936 89.532 -109.1953
8.467856 89.596 -109.6757
8.529218 89.662 -110.1677
8.591024 89.730 -110.6708
8.653278 89.798 -111.1844
8.715983 89.868 -111.7076
8.779143 89.938 -112.2398
8.842760 90.007 -112.7800
8.906839 90.076 -113.3266
8.971381 90.144 -113.8776
9.036392 90.212 -114.4303
9.101873 90.278 -114.9821
9.167829 90.343 -115.5308
9.234263 90.407 -116.0745
9.301178 90.469 -116.6115
9.368578 90.530 -117.1395
9.436467 90.590 -117.6564
9.504847 90.648 -118.1602
9.573723 90.706 -118.6495
9.643099 90.763 -119.1234
9.712976 90.819 -119.5814
9.783361 90.875 -120.0232
9.854255 90.931 -120.4485
9.925663 90.987 -120.8576
9.997588 91.044 -121.2507
10.070035 91.100 -121.6290
10.143007 91.157 -121.9937
10.216507 91.215 -122.3460
10.290540 91.273 -122.6874
10.365109 91.332 -123.0191
10.440219 91.391 -123.3424
10.515873 91.450 -123.6587
10.592076 91.509 -123.9695
10.668830 91.568 -124.2757
10.746141 91.627 -124.5784
10.824012 91.685 -124.8779
10.902447 91.743 -125.1748
10.981451 91.800 -125.4694
11.061027 91.855 -125.7619
11.141180 91.910 -126.0521
11.221913 91.963 -126.3398
11.303232 92.014 -126.6247
11.385140 92.064 -126.9064
11.467641 92.112 -127.1849
11.550741 92.159 -127.4597
11.634442 92.204 -127.7309
11.718750 92.247 -127.9984
11.803669 92.289 -128.2622
11.889203 92.330 -128.5226
11.975357 92.369 -128.7802
12.062136 92.406 -129.0354
12.149543 92.443 -129.2890
12.237583 92.477 -129.5414
12.326262 92.511 -129.7935
12.415583 92.543 -130.0460
12.505552 92.574 -130.2995
12.596172 92.604 -130.5546
12.687449 92.631 -130.8118
12.779387 92.658 -131.0713
12.871992 92.683 -131.3334
12.965268 92.706 -131.5982
13.059220 92.728 -131.8658
13.153852 92.748 -132.1359
13.249170 92.767 -132.4087
13.345179 92.785 -132.6841
13.441884 92.801 -132.9622
13.539289 92.816 -133.2432
13.637401 92.831 -133.5275
13.736223 92.845 -133.8155
13.835761 92.858 -134.1081
13.936021 92.871 -134.4060
14.037007 92.883 -134.7101
14.138725 92.896 -135.0215
14.241180 92.908 -135.3410
14.344377 92.920 -135.6698
14.448323 92.932 -136.0084
14.553021 92.944 -136.3573
14.658478 92.955 -136.7169
14.764700 92.967 -137.0871
14.871691 92.978 -137.4675
14.979457 92.988 -137.8575
15.088005 92.999 -138.2561
15.197339 93.009 -138.6623
15.307465 93.018 -139.0749
15.418389 93.028 -139.4925
15.530117 93.037 -139.9140
15.642655 93.047 -140.3385
15.756008 93.057 -140.7649
15.870182 93.068 -141.1927
15.985184 93.080 -141.6215
16.101019 93.093 -142.0511
16.217694 93.107 -142.4817
16.335214 93.122 -142.9133
16.453586 93.138 -143.3462
16.572815 93.156 -143.7803
16.692909 93.175 -144.2158
16.813872 93.195 -144.6523
16.935713 93.217 -145.0894
17.058436 93.238 -145.5262
17.182048 93.261 -145.9619
17.306556 93.284 -146.3951
17.431967 93.307 -146.8248
17.558286 93.331 -147.2496
17.685521 93.355 -147.6683
17.813677 93.380 -148.0800
17.942762 93.405 -148.4839
18.072783 93.430 -148.8795
18.203746 93.455 -149.2666
18.335658 93.481 -149.6452
18.468526 93.507 -150.0156
18.602356 93.533 -150.3781
18.737156 93.559 -150.7329
18.872934 93.585 -151.0805
19.009695 93.611 -151.4211
19.147447 93.636 -151.7547
19.286197 93.660 -152.0815
19.425953 93.684 -152.4014
19.566721 93.706 -152.7145
19.708510 93.728 -153.0208
19.851326 93.748 -153.3209
19.995177 93.768 -153.6150
20.140070 93.786 -153.9040
20.286013 93.804 -154.1888
20.433014 93.820 -154.4703
20.581080 93.835 -154.7497
20.730219 93.848 -155.0280
20.880439 93.860 -155.3060
21.031747 93.871 -155.5842
21.184152 93.880 -155.8630
21.337661 93.887 -156.1424
21.492282 93.893 -156.4224
21.648024 93.897 -156.7028
21.804895 93.900 -156.9833
21.962902 93.901 -157.2642
22.122054 93.901 -157.5458
22.282360 93.901 -157.8287
22.443827 93.900 -158.1141
22.606464 93.900 -158.4033
22.770280 93.899 -158.6978
22.935283 93.898 -158.9993
23.101481 93.897 -159.3091
23.268884 93.896 -159.6283
23.437500 93.896 -159.9575
23.607338 93.895 -160.2966
23.778406 93.894 -160.6451
23.950714 93.893 -161.0020
24.124271 93.892 -161.3656
24.299086 93.891 -161.7343
24.475167 93.889 -162.1063
24.652524 93.888 -162.4798
24.831166 93.887 -162.8535
25.011103 93.887 -163.2264
25.192344 93.888 -163.5980
25.374898 93.890 -163.9684
25.558775 93.893 -164.3377
25.743984 93.897 -164.7066
25.930536 93.902 -165.0755
26.118439 93.908 -165.4446
26.307704 93.915 -165.8138
26.498341 93.921 -166.1825
26.690359 93.928 -166.5494
26.883768 93.934 -166.9129
27.078579 93.940 -167.2711
27.274801 93.945 -167.6221
27.472446 93.949 -167.9645
27.671522 93.953 -168.2971
27.872042 93.956 -168.6196
28.074014 93.959 -168.9324
28.277450 93.962 -169.2363
28.482360 93.965 -169.5330
28.688755 93.967 -169.8241
28.896645 93.970 -170.1113
29.106042 93.972 -170.3965
29.316957 93.973 -170.6808
29.529400 93.973 -170.9654
29.743382 93.973 -171.2510
29.958915 93.972 -171.5379
30.176009 93.969 -171.8260
30.394677 93.966 -172.1150
30.614929 93.961 -172.4041
30.836778 93.955 -172.6925
31.060234 93.949 -172.9799
31.285309 93.942 -173.2663
31.512015 93.936 -173.5528
31.740364 93.930 -173.8416
31.970368 93.925 -174.1357
32.202039 93.921 -174.4387
32.435388 93.917 -174.7540
32.670428 93.914 -175.0834
32.907171 93.909 -175.4266
33.145630 93.902 -175.7805
33.385817 93.893 -176.1394
33.627745 93.881 -176.4957
33.871425 93.867 -176.8410
34.116871 93.851 -177.1682
34.364096 93.834 -177.4722
34.613113 93.817 -177.7515
34.863934 93.803 -178.0083
35.116572 93.791 -178.2477
35.371041 93.782 -178.4771
35.627354 93.777 -178.7041
35.885525 93.774 -178.9354
36.145566 93.774 -179.1757
36.407492 93.774 -179.4277
36.671316 93.775 -179.6917
36.937051 93.775 -179.9671
37.204712 93.774 179.7477
37.474313 93.773 179.4539
37.745867 93.769 179.1530
38.019389 93.765 178.8461
38.294893 93.758 178.5346
38.572394 93.750 178.2204
38.851905 93.740 177.9058
39.133442 93.729 177.5932
39.417019 93.716 177.2847
39.702651 93.702 176.9812
39.990353 93.688 176.6822
40.280140 93.674 176.3862
40.572026 93.660 176.0909
40.866028 93.646 175.7946
41.162160 93.631 175.4970
41.460438 93.616 175.1992
41.760877 93.600 174.9037
42.063494 93.583 174.6133
42.368303 93.565 174.3298
42.675322 93.547 174.0534
42.984565 93.529 173.7827
43.296048 93.512 173.5153
43.609789 93.494 173.2492
43.925804 93.476 172.9832
44.244108 93.459 172.7177
44.564719 93.441 172.4533
44.887654 93.423 172.1903
45.212928 93.406 171.9272
45.540560 93.389 171.6608
45.870565 93.374 171.3869
46.202962 93.360 171.1016
46.537768 93.347 170.8030
46.875000 93.332 170.4919
47.214676 93.317 170.1721
47.556813 93.300 169.8498
47.901429 93.282 169.5319
48.248542 93.263 169.2251
48.598171 93.243 168.9346
48.950334 93.223 168.6635
49.305048 93.204 168.4125
49.662333 93.185 168.1815
50.022206 93.167 167.9710
50.384688 93.149 167.7834
50.749796 93.131 167.6238
51.117550 93.114 167.4970
51.487969 93.099 167.4039
51.861072 93.088 167.3375
52.236879 93.082 167.2809
52.615409 93.082 167.2107
52.996681 93.086 167.1039
53.380717 93.090 166.9453
53.767536 93.091 166.7321
54.157158 93.086 166.4738
54.549603 93.073 166.1869
54.944892 93.052 165.8884
55.343045 93.026 165.5907
55.744084 92.997 165.2996
56.148028 92.965 165.0152
56.554900 92.934 164.7351
56.964720 92.903 164.4565
57.377510 92.873 164.1768
57.793291 92.846 163.8938
58.212085 92.820 163.6048
58.633914 92.797 163.3077
59.058799 92.774 163.0023
59.486764 92.751 162.6926
59.917829 92.727 162.3858
60.352019 92.701 162.0917
60.789354 92.674 161.8187
61.229859 92.647 161.5720
61.673556 92.619 161.3527
62.120468 92.594 161.1578
62.570618 92.569 160.9817
63.024031 92.547 160.8170
63.480729 92.526 160.6564
63.940736 92.507 160.4945
64.404077 92.488 160.3284
64.870776 92.469 160.1575
65.340856 92.450 159.9824
65.814343 92.431 159.8044
66.291261 92.412 159.6252
66.771635 92.394 159.4468
67.255489 92.375 159.2708
67.742850 92.358 159.0977
68.233743 92.342 158.9257
68.728193 92.329 158.7510
69.226226 92.318 158.5684
69.727867 92.309 158.3721
70.233144 92.301 158.1569
70.742083 92.293 157.9203
71.254709 92.285 157.6639
71.771050 92.275 157.3923
72.291132 92.263 157.1112
72.814984 92.250 156.8242
73.342631 92.235 156.5329
73.874102 92.219 156.2395
74.409424 92.201 155.9476
74.948626 92.180 155.6617
75.491734 92.158 155.3845
76.038779 92.134 155.1167
76.589787 92.109 154.8589
77.144788 92.082 154.6130
77.703811 92.053 154.3809
78.266885 92.025 154.1610
78.834039 91.996 153.9477
79.405303 91.969 153.7333
79.980706 91.943 153.5106
80.560280 91.918 153.2740
81.144053 91.894 153.0199
81.732056 91.870 152.7472
82.324320 91.846 152.4581
82.920876 91.821 152.1573
83.521755 91.795 151.8517
84.126988 91.769 151.5477
84.736607 91.741 151.2508
85.350643 91.713 150.9647
85.969129 91.682 150.6918
86.592097 91.651 150.4343
87.219579 91.617 150.1933
