* Measurement data measured by REW V5.31
* Source: EXCL: Microphone (USB Sound Device        ), MICROPHONE (Master Volume), L, volume: 0.390
* Format: 256k Log Swept Sine, 1 sweep at -15.0 dBFS with no timing reference
* Dated: Oct 26, 2024 2:31:11 PM
* REW Settings:
*  C-weighting compensation: Off
*  Target level: 75.0 dB
* Note: EPZ Q5 Pro R
* Measurement: R EPZ Q5 Pro
* Smoothing: 1/12 octave
* Frequency Step: 96 ppo
* Start Frequency: 0.36621094 Hz
*
* Freq(Hz)	SPL(dB)	Phase(degrees)
0.366211	77.599	-168.3225
0.368865	77.600	-168.3229
0.371538	77.602	-168.3236
0.374230	77.604	-168.3244
0.376942	77.607	-168.3253
0.379673	77.609	-168.3263
0.382424	77.612	-168.3274
0.385196	77.615	-168.3284
0.387987	77.618	-168.3296
0.390798	77.621	-168.3307
0.393630	77.624	-168.3318
0.396483	77.627	-168.3330
0.399356	77.630	-168.3342
0.402250	77.633	-168.3354
0.405165	77.636	-168.3366
0.408101	77.639	-168.3379
0.411058	77.642	-168.3391
0.414037	77.645	-168.3403
0.417037	77.648	-168.3416
0.420059	77.651	-168.3429
0.423103	77.654	-168.3441
0.426169	77.658	-168.3454
0.429257	77.661	-168.3466
0.432368	77.664	-168.3479
0.435501	77.667	-168.3492
0.438656	77.671	-168.3504
0.441835	77.674	-168.3517
0.445037	77.677	-168.3529
0.448262	77.681	-168.3541
0.451510	77.684	-168.3553
0.454782	77.688	-168.3565
0.458077	77.691	-168.3577
0.461397	77.694	-168.3588
0.464740	77.698	-168.3600
0.468108	77.701	-168.3611
0.471500	77.705	-168.3621
0.474917	77.709	-168.3632
0.478358	77.712	-168.3642
0.481825	77.716	-168.3651
0.485316	77.719	-168.3660
0.488833	77.723	-168.3669
0.492375	77.727	-168.3677
0.495943	77.730	-168.3685
0.499537	77.734	-168.3692
0.503157	77.738	-168.3698
0.506803	77.742	-168.3704
0.510475	77.746	-168.3709
0.514175	77.749	-168.3714
0.517900	77.753	-168.3717
0.521653	77.757	-168.3720
0.525434	77.761	-168.3722
0.529241	77.765	-168.3723
0.533076	77.769	-168.3723
0.536939	77.773	-168.3722
0.540830	77.777	-168.3720
0.544749	77.781	-168.3717
0.548696	77.785	-168.3712
0.552673	77.790	-168.3707
0.556677	77.794	-168.3700
0.560711	77.798	-168.3692
0.564774	77.802	-168.3682
0.568867	77.806	-168.3671
0.572989	77.811	-168.3658
0.577141	77.815	-168.3644
0.581324	77.819	-168.3628
0.585536	77.824	-168.3610
0.589779	77.828	-168.3590
0.594053	77.833	-168.3568
0.598358	77.837	-168.3545
0.602694	77.842	-168.3519
0.607061	77.846	-168.3491
0.611460	77.851	-168.3461
0.615891	77.856	-168.3428
0.620354	77.860	-168.3393
0.624849	77.865	-168.3355
0.629377	77.870	-168.3315
0.633938	77.874	-168.3272
0.638532	77.879	-168.3226
0.643159	77.884	-168.3177
0.647819	77.889	-168.3124
0.652514	77.894	-168.3069
0.657242	77.899	-168.3010
0.662005	77.904	-168.2947
0.666802	77.909	-168.2881
0.671634	77.914	-168.2811
0.676501	77.919	-168.2738
0.681403	77.924	-168.2660
0.686341	77.929	-168.2578
0.691314	77.934	-168.2493
0.696324	77.939	-168.2405
0.701370	77.944	-168.2315
0.706452	77.949	-168.2226
0.711571	77.953	-168.2142
0.716728	77.957	-168.2070
0.721921	77.959	-168.2019
0.727153	77.960	-168.2003
0.732422	77.959	-168.2035
0.737729	77.956	-168.2124
0.743075	77.950	-168.2272
0.748460	77.943	-168.2472
0.753883	77.935	-168.2717
0.759346	77.927	-168.3002
0.764849	77.918	-168.3321
0.770391	77.908	-168.3672
0.775974	77.899	-168.4051
0.781597	77.890	-168.4459
0.787261	77.880	-168.4893
0.792966	77.871	-168.5353
0.798712	77.861	-168.5838
0.804500	77.851	-168.6347
0.810329	77.841	-168.6880
0.816201	77.831	-168.7436
0.822116	77.820	-168.8015
0.828073	77.809	-168.8615
0.834074	77.798	-168.9236
0.840118	77.786	-168.9877
0.846206	77.773	-169.0536
0.852338	77.760	-169.1215
0.858514	77.746	-169.1910
0.864735	77.731	-169.2621
0.871001	77.716	-169.3347
0.877313	77.699	-169.4087
0.883670	77.682	-169.4839
0.890074	77.663	-169.5603
0.896524	77.643	-169.6376
0.903020	77.622	-169.7157
0.909564	77.600	-169.7945
0.916155	77.576	-169.8739
0.922794	77.550	-169.9536
0.929481	77.523	-170.0334
0.936216	77.494	-170.1131
0.943000	77.463	-170.1927
0.949834	77.430	-170.2718
0.956717	77.395	-170.3501
0.963649	77.358	-170.4276
0.970632	77.318	-170.5039
0.977666	77.276	-170.5787
0.984750	77.231	-170.6517
0.991886	77.183	-170.7228
0.999074	77.133	-170.7914
1.006314	77.079	-170.8573
1.013606	77.022	-170.9202
1.020951	76.962	-170.9796
1.028349	76.898	-171.0351
1.035801	76.830	-171.0863
1.043307	76.759	-171.1328
1.050867	76.683	-171.1742
1.058482	76.603	-171.2100
1.066152	76.518	-171.2400
1.073878	76.429	-171.2640
1.081660	76.333	-171.2822
1.089498	76.232	-171.2949
1.097393	76.123	-171.3031
1.105345	76.006	-171.3082
1.113355	75.880	-171.3115
1.121423	75.745	-171.3142
1.129549	75.599	-171.3170
1.137734	75.443	-171.3205
1.145979	75.277	-171.3245
1.154283	75.100	-171.3289
1.162647	74.914	-171.3334
1.171072	74.718	-171.3373
1.179558	74.514	-171.3401
1.188106	74.301	-171.3409
1.196715	74.080	-171.3391
1.205387	73.852	-171.3335
1.214122	73.617	-171.3232
1.222920	73.376	-171.3071
1.231782	73.129	-171.2838
1.240708	72.878	-171.2518
1.249699	72.623	-171.2096
1.258754	72.365	-171.1554
1.267876	72.105	-171.0870
1.277063	71.843	-171.0022
1.286318	71.581	-170.8985
1.295639	71.319	-170.7727
1.305027	71.059	-170.6217
1.314484	70.801	-170.4417
1.324009	70.547	-170.2282
1.333604	70.297	-169.9764
1.343268	70.054	-169.6808
1.353002	69.818	-169.3347
1.362806	69.591	-168.9307
1.372681	69.374	-168.4603
1.382628	69.168	-167.9137
1.392647	68.976	-167.2793
1.402739	68.798	-166.5442
1.412904	68.636	-165.6931
1.423142	68.493	-164.7088
1.433455	68.368	-163.5717
1.443843	68.264	-162.2596
1.454305	68.181	-160.7474
1.464844	68.119	-159.0067
1.475459	68.079	-157.0049
1.486150	68.059	-154.7034
1.496920	68.059	-152.0571
1.507767	68.079	-149.0133
1.518693	68.117	-145.5142
1.529698	68.173	-141.5000
1.540783	68.246	-136.9172
1.551948	68.336	-131.7304
1.563194	68.442	-125.9402
1.574521	68.564	-119.6019
1.585931	68.700	-112.8406
1.597423	68.850	-105.8486
1.608999	69.014	-98.8616
1.620658	69.191	-92.1159
1.632402	69.379	-85.8066
1.644232	69.578	-80.0616
1.656146	69.788	-74.9394
1.668147	70.007	-70.4421
1.680235	70.234	-66.5356
1.692411	70.469	-63.1663
1.704675	70.710	-60.2738
1.717028	70.956	-57.7984
1.729470	71.207	-55.6855
1.742003	71.461	-53.8861
1.754626	71.717	-52.3582
1.767341	71.975	-51.0653
1.780147	72.234	-49.9764
1.793047	72.494	-49.0643
1.806040	72.756	-48.3052
1.819128	73.020	-47.6777
1.832310	73.289	-47.1622
1.845587	73.564	-46.7413
1.858961	73.848	-46.4003
1.872432	74.142	-46.1273
1.886001	74.447	-45.9130
1.899667	74.763	-45.7503
1.913433	75.089	-45.6337
1.927299	75.425	-45.5588
1.941265	75.769	-45.5218
1.955332	76.120	-45.5196
1.969501	76.478	-45.5497
1.983773	76.841	-45.6096
1.998148	77.208	-45.6976
2.012627	77.576	-45.8119
2.027212	77.946	-45.9510
2.041902	78.314	-46.1138
2.056698	78.680	-46.2992
2.071602	79.043	-46.5063
2.086614	79.400	-46.7344
2.101734	79.750	-46.9831
2.116964	80.092	-47.2520
2.132304	80.424	-47.5406
2.147756	80.744	-47.8489
2.163320	81.053	-48.1766
2.178996	81.349	-48.5237
2.194786	81.632	-48.8897
2.210690	81.903	-49.2742
2.226710	82.163	-49.6764
2.242845	82.412	-50.0949
2.259098	82.652	-50.5284
2.275468	82.882	-50.9753
2.291957	83.104	-51.4340
2.308566	83.318	-51.9029
2.325295	83.525	-52.3807
2.342145	83.725	-52.8659
2.359117	83.918	-53.3575
2.376212	84.106	-53.8544
2.393431	84.288	-54.3556
2.410775	84.466	-54.8604
2.428244	84.640	-55.3682
2.445840	84.811	-55.8784
2.463564	84.980	-56.3907
2.481416	85.146	-56.9051
2.499397	85.311	-57.4218
2.517509	85.475	-57.9413
2.535752	85.637	-58.4647
2.554127	85.798	-58.9935
2.572635	85.958	-59.5294
2.591277	86.114	-60.0741
2.610055	86.268	-60.6287
2.628968	86.418	-61.1933
2.648019	86.563	-61.7675
2.667208	86.705	-62.3501
2.686535	86.843	-62.9397
2.706003	86.977	-63.5347
2.725612	87.108	-64.1332
2.745363	87.235	-64.7337
2.765257	87.359	-65.3346
2.785295	87.480	-65.9341
2.805478	87.598	-66.5310
2.825808	87.714	-67.1241
2.846285	87.828	-67.7124
2.866910	87.940	-68.2955
2.887685	88.050	-68.8737
2.908611	88.158	-69.4478
2.929688	88.263	-70.0196
2.950917	88.366	-70.5913
2.972301	88.467	-71.1650
2.993839	88.564	-71.7421
3.015534	88.658	-72.3230
3.037386	88.749	-72.9074
3.059396	88.837	-73.4944
3.081565	88.922	-74.0825
3.103896	89.004	-74.6702
3.126388	89.084	-75.2557
3.149043	89.162	-75.8370
3.171862	89.237	-76.4126
3.194847	89.310	-76.9807
3.217998	89.381	-77.5400
3.241317	89.451	-78.0896
3.264805	89.519	-78.6292
3.288463	89.585	-79.1595
3.312293	89.649	-79.6818
3.336295	89.711	-80.1978
3.360471	89.770	-80.7088
3.384822	89.827	-81.2159
3.409350	89.881	-81.7191
3.434056	89.933	-82.2182
3.458940	89.984	-82.7125
3.484005	90.032	-83.2010
3.509252	90.078	-83.6824
3.534681	90.124	-84.1555
3.560295	90.168	-84.6189
3.586094	90.211	-85.0715
3.612081	90.254	-85.5121
3.638255	90.295	-85.9401
3.664620	90.336	-86.3553
3.691175	90.376	-86.7579
3.717923	90.415	-87.1487
3.744864	90.453	-87.5284
3.772001	90.489	-87.8978
3.799335	90.525	-88.2576
3.826866	90.559	-88.6083
3.854597	90.593	-88.9504
3.882529	90.627	-89.2842
3.910664	90.661	-89.6099
3.939002	90.695	-89.9276
3.967546	90.730	-90.2371
3.996296	90.765	-90.5380
4.025255	90.801	-90.8298
4.054423	90.837	-91.1120
4.083804	90.875	-91.3843
4.113396	90.912	-91.6470
4.143204	90.951	-91.9010
4.173227	90.989	-92.1476
4.203468	91.029	-92.3884
4.233928	91.069	-92.6253
4.264609	91.110	-92.8599
4.295512	91.152	-93.0939
4.326639	91.196	-93.3286
4.357992	91.240	-93.5648
4.389572	91.286	-93.8026
4.421380	91.333	-94.0418
4.453419	91.382	-94.2819
4.485691	91.432	-94.5230
4.518196	91.483	-94.7654
4.550936	91.535	-95.0102
4.583914	91.588	-95.2590
4.617131	91.642	-95.5133
4.650589	91.697	-95.7749
4.684289	91.752	-96.0453
4.718233	91.808	-96.3258
4.752424	91.864	-96.6171
4.786862	91.920	-96.9195
4.821549	91.977	-97.2326
4.856488	92.035	-97.5561
4.891680	92.092	-97.8897
4.927127	92.150	-98.2331
4.962831	92.208	-98.5863
4.998794	92.265	-98.9494
5.035017	92.322	-99.3227
5.071503	92.378	-99.7065
5.108253	92.432	-100.1013
5.145270	92.486	-100.5075
5.182555	92.539	-100.9254
5.220110	92.591	-101.3545
5.257937	92.641	-101.7939
5.296038	92.691	-102.2426
5.334415	92.739	-102.6989
5.373071	92.786	-103.1616
5.412006	92.831	-103.6295
5.451224	92.874	-104.1018
5.490725	92.916	-104.5783
5.530514	92.956	-105.0592
5.570590	92.994	-105.5445
5.610957	93.030	-106.0338
5.651616	93.064	-106.5260
5.692570	93.097	-107.0197
5.733821	93.128	-107.5131
5.775370	93.158	-108.0045
5.817221	93.186	-108.4926
5.859375	93.213	-108.9766
5.901834	93.238	-109.4562
5.944602	93.262	-109.9315
5.987679	93.285	-110.4024
6.031068	93.306	-110.8686
6.074771	93.327	-111.3295
6.118792	93.347	-111.7841
6.163131	93.366	-112.2316
6.207792	93.386	-112.6712
6.252776	93.405	-113.1027
6.298086	93.424	-113.5259
6.343725	93.443	-113.9412
6.389694	93.462	-114.3493
6.435996	93.482	-114.7510
6.482634	93.502	-115.1469
6.529610	93.523	-115.5377
6.576926	93.544	-115.9236
6.624585	93.567	-116.3049
6.672590	93.591	-116.6819
6.720942	93.617	-117.0554
6.769645	93.643	-117.4265
6.818700	93.670	-117.7967
6.868111	93.699	-118.1675
6.917881	93.729	-118.5401
6.968010	93.760	-118.9155
7.018504	93.793	-119.2941
7.069362	93.826	-119.6764
7.120590	93.861	-120.0628
7.172189	93.896	-120.4542
7.224161	93.933	-120.8514
7.276511	93.969	-121.2551
7.329239	94.006	-121.6659
7.382350	94.044	-122.0841
7.435845	94.081	-122.5095
7.489729	94.119	-122.9418
7.544002	94.156	-123.3803
7.598669	94.193	-123.8245
7.653732	94.229	-124.2740
7.709194	94.265	-124.7284
7.765058	94.300	-125.1873
7.821327	94.334	-125.6499
7.878004	94.368	-126.1151
7.935091	94.400	-126.5816
7.992592	94.431	-127.0480
8.050510	94.462	-127.5133
8.108847	94.491	-127.9765
8.167607	94.519	-128.4372
8.226793	94.547	-128.8943
8.286408	94.573	-129.3471
8.346454	94.599	-129.7943
8.406936	94.625	-130.2352
8.467856	94.650	-130.6691
8.529218	94.674	-131.0957
8.591024	94.699	-131.5150
8.653278	94.723	-131.9269
8.715983	94.747	-132.3315
8.779143	94.772	-132.7288
8.842760	94.797	-133.1190
8.906839	94.822	-133.5025
8.971381	94.848	-133.8799
9.036392	94.875	-134.2521
9.101873	94.902	-134.6198
9.167829	94.929	-134.9838
9.234263	94.957	-135.3448
9.301178	94.986	-135.7034
9.368578	95.015	-136.0603
9.436467	95.045	-136.4163
9.504847	95.075	-136.7719
9.573723	95.104	-137.1277
9.643099	95.133	-137.4840
9.712976	95.162	-137.8408
9.783361	95.188	-138.1981
9.854255	95.213	-138.5558
9.925663	95.235	-138.9138
9.997588	95.254	-139.2719
10.070035	95.270	-139.6296
10.143007	95.283	-139.9863
10.216507	95.294	-140.3414
10.290540	95.303	-140.6943
10.365109	95.310	-141.0446
10.440219	95.316	-141.3918
10.515873	95.319	-141.7353
10.592076	95.322	-142.0747
10.668830	95.324	-142.4098
10.746141	95.325	-142.7402
10.824012	95.326	-143.0662
10.902447	95.326	-143.3876
10.981451	95.326	-143.7048
11.061027	95.325	-144.0179
11.141180	95.324	-144.3273
11.221913	95.323	-144.6336
11.303232	95.322	-144.9372
11.385140	95.320	-145.2388
11.467641	95.318	-145.5387
11.550741	95.316	-145.8374
11.634442	95.314	-146.1354
11.718750	95.312	-146.4330
11.803669	95.310	-146.7305
11.889203	95.307	-147.0280
11.975357	95.305	-147.3256
12.062136	95.302	-147.6233
12.149543	95.299	-147.9210
12.237583	95.296	-148.2185
12.326262	95.292	-148.5157
12.415583	95.287	-148.8124
12.505552	95.282	-149.1084
12.596172	95.277	-149.4037
12.687449	95.271	-149.6981
12.779387	95.264	-149.9919
12.871992	95.257	-150.2849
12.965268	95.250	-150.5776
13.059220	95.242	-150.8702
13.153852	95.235	-151.1631
13.249170	95.228	-151.4566
13.345179	95.220	-151.7513
13.441884	95.213	-152.0474
13.539289	95.206	-152.3455
13.637401	95.199	-152.6458
13.736223	95.192	-152.9484
13.835761	95.185	-153.2534
13.936021	95.178	-153.5609
14.037007	95.170	-153.8707
14.138725	95.162	-154.1826
14.241180	95.153	-154.4963
14.344377	95.144	-154.8114
14.448323	95.135	-155.1276
14.553021	95.125	-155.4446
14.658478	95.116	-155.7621
14.764700	95.106	-156.0799
14.871691	95.096	-156.3980
14.979457	95.087	-156.7164
15.088005	95.078	-157.0351
15.197339	95.069	-157.3544
15.307465	95.061	-157.6745
15.418389	95.053	-157.9958
15.530117	95.045	-158.3182
15.642655	95.037	-158.6422
15.756008	95.030	-158.9676
15.870182	95.023	-159.2944
15.985184	95.016	-159.6225
16.101019	95.009	-159.9515
16.217694	95.002	-160.2810
16.335214	94.995	-160.6105
16.453586	94.989	-160.9393
16.572815	94.982	-161.2670
16.692909	94.976	-161.5931
16.813872	94.970	-161.9171
16.935713	94.965	-162.2387
17.058436	94.960	-162.5578
17.182048	94.955	-162.8742
17.306556	94.952	-163.1881
17.431967	94.948	-163.4996
17.558286	94.945	-163.8087
17.685521	94.942	-164.1156
17.813677	94.939	-164.4204
17.942762	94.936	-164.7231
18.072783	94.933	-165.0237
18.203746	94.930	-165.3218
18.335658	94.927	-165.6174
18.468526	94.924	-165.9100
18.602356	94.921	-166.1995
18.737156	94.918	-166.4856
18.872934	94.915	-166.7682
19.009695	94.912	-167.0472
19.147447	94.909	-167.3229
19.286197	94.906	-167.5953
19.425953	94.902	-167.8649
19.566721	94.899	-168.1320
19.708510	94.896	-168.3969
19.851326	94.892	-168.6600
19.995177	94.888	-168.9216
20.140070	94.883	-169.1819
20.286013	94.878	-169.4410
20.433014	94.872	-169.6989
20.581080	94.866	-169.9555
20.730219	94.859	-170.2110
20.880439	94.852	-170.4654
21.031747	94.844	-170.7188
21.184152	94.837	-170.9715
21.337661	94.829	-171.2236
21.492282	94.820	-171.4757
21.648024	94.812	-171.7281
21.804895	94.804	-171.9811
21.962902	94.795	-172.2350
22.122054	94.786	-172.4901
22.282360	94.776	-172.7465
22.443827	94.766	-173.0041
22.606464	94.756	-173.2631
22.770280	94.746	-173.5233
22.935283	94.735	-173.7849
23.101481	94.724	-174.0477
23.268884	94.713	-174.3120
23.437500	94.702	-174.5778
23.607338	94.690	-174.8451
23.778406	94.679	-175.1140
23.950714	94.667	-175.3844
24.124271	94.655	-175.6560
24.299086	94.643	-175.9284
24.475167	94.630	-176.2013
24.652524	94.618	-176.4740
24.831166	94.606	-176.7462
25.011103	94.594	-177.0173
25.192344	94.582	-177.2872
25.374898	94.570	-177.5556
25.558775	94.558	-177.8226
25.743984	94.547	-178.0881
25.930536	94.536	-178.3523
26.118439	94.526	-178.6152
26.307704	94.515	-178.8766
26.498341	94.505	-179.1366
26.690359	94.495	-179.3948
26.883768	94.484	-179.6510
27.078579	94.474	-179.9051
27.274801	94.464	179.8431
27.472446	94.453	179.5938
27.671522	94.442	179.3470
27.872042	94.431	179.1025
28.074014	94.420	178.8604
28.277450	94.408	178.6206
28.482360	94.396	178.3831
28.688755	94.384	178.1479
28.896645	94.371	177.9149
29.106042	94.357	177.6838
29.316957	94.344	177.4545
29.529400	94.330	177.2266
29.743382	94.316	176.9998
29.958915	94.301	176.7736
30.176009	94.287	176.5477
30.394677	94.272	176.3217
30.614929	94.257	176.0953
30.836778	94.241	175.8685
31.060234	94.226	175.6410
31.285309	94.210	175.4127
31.512015	94.194	175.1833
31.740364	94.178	174.9528
31.970368	94.162	174.7209
32.202039	94.146	174.4875
32.435388	94.129	174.2527
32.670428	94.113	174.0164
32.907171	94.097	173.7789
33.145630	94.080	173.5403
33.385817	94.063	173.3011
33.627745	94.047	173.0615
33.871425	94.030	172.8217
34.116871	94.014	172.5821
34.364096	93.997	172.3429
34.613113	93.981	172.1044
34.863934	93.964	171.8669
35.116572	93.947	171.6309
35.371041	93.930	171.3967
35.627354	93.913	171.1648
35.885525	93.895	170.9355
36.145566	93.878	170.7092
36.407492	93.860	170.4861
36.671316	93.841	170.2662
36.937051	93.823	170.0494
37.204712	93.805	169.8353
37.474313	93.786	169.6232
37.745867	93.768	169.4128
38.019389	93.749	169.2032
38.294893	93.730	168.9944
38.572394	93.710	168.7859
38.851905	93.691	168.5778
39.133442	93.671	168.3699
39.417019	93.650	168.1625
39.702651	93.630	167.9558
39.990353	93.609	167.7498
40.280140	93.587	167.5449
40.572026	93.566	167.3411
40.866028	93.544	167.1385
41.162160	93.523	166.9368
41.460438	93.501	166.7357
41.760877	93.480	166.5347
42.063494	93.458	166.3334
42.368303	93.437	166.1318
42.675322	93.415	165.9297
42.984565	93.393	165.7276
43.296048	93.371	165.5258
43.609789	93.348	165.3250
43.925804	93.325	165.1255
44.244108	93.302	164.9280
44.564719	93.278	164.7328
44.887654	93.255	164.5402
45.212928	93.231	164.3505
45.540560	93.207	164.1634
45.870565	93.183	163.9786
46.202962	93.159	163.7955
46.537768	93.135	163.6134
46.875000	93.111	163.4319
47.214676	93.087	163.2506
47.556813	93.063	163.0696
47.901429	93.039	162.8893
48.248542	93.015	162.7100
48.598171	92.990	162.5322
48.950334	92.965	162.3561
49.305048	92.941	162.1817
49.662333	92.916	162.0086
50.022206	92.891	161.8365
50.384688	92.867	161.6649
50.749796	92.842	161.4938
51.117550	92.817	161.3235
51.487969	92.792	161.1545
51.861072	92.766	160.9877
52.236879	92.740	160.8237
52.615409	92.715	160.6630
52.996681	92.689	160.5057
53.380717	92.663	160.3514
53.767536	92.638	160.1996
54.157158	92.613	160.0494
54.549603	92.589	159.9004
54.944892	92.565	159.7517
55.343045	92.541	159.6029
55.744084	92.517	159.4535
56.148028	92.494	159.3030
56.554900	92.470	159.1512
56.964720	92.447	158.9976
57.377510	92.423	158.8419
57.793291	92.400	158.6837
58.212085	92.376	158.5229
58.633914	92.351	158.3599
59.058799	92.326	158.1952
59.486764	92.300	158.0300
59.917829	92.273	157.8655
60.352019	92.245	157.7030
60.789354	92.217	157.5436
61.229859	92.188	157.3877
61.673556	92.159	157.2353
62.120468	92.129	157.0862
62.570618	92.100	156.9400
63.024031	92.070	156.7963
63.480729	92.040	156.6551
63.940736	92.011	156.5162
64.404077	91.981	156.3794
64.870776	91.952	156.2446
65.340856	91.922	156.1113
65.814343	91.892	155.9792
66.291261	91.862	155.8486
66.771635	91.832	155.7193
67.255489	91.801	155.5916
67.742850	91.770	155.4651
68.233743	91.739	155.3397
68.728193	91.708	155.2149
69.226226	91.677	155.0912
69.727867	91.645	154.9691
70.233144	91.613	154.8491
70.742083	91.582	154.7316
71.254709	91.550	154.6163
71.771050	91.519	154.5027
72.291132	91.487	154.3912
72.814984	91.456	154.2825
73.342631	91.424	154.1780
73.874102	91.393	154.0782
74.409424	91.362	153.9820
74.948626	91.332	153.8870
75.491734	91.301	153.7912
76.038779	91.271	153.6938
76.589787	91.241	153.5951
77.144788	91.210	153.4952
77.703811	91.180	153.3942
78.266885	91.150	153.2914
78.834039	91.121	153.1854
79.405303	91.092	153.0754
79.980706	91.063	152.9609
80.560280	91.035	152.8424
81.144053	91.005	152.7215
81.732056	90.975	152.5999
82.324320	90.945	152.4794
