* Measurement data measured by REW V5.31
* Source: EXCL: Microphone (USB Sound Device        ), MICROPHONE (Master Volume), L, volume: 0.390
* Format: 256k Log Swept Sine, 1 sweep at -15.0 dBFS with no timing reference
* Dated: Oct 26, 2024 2:28:58 PM
* REW Settings:
*  C-weighting compensation: Off
*  Target level: 75.0 dB
* Note: EPZ Q5 Pro
* Measurement: L EPZ Q5 Pro
* Smoothing: 1/12 octave
* Frequency Step: 96 ppo
* Start Frequency: 0.36621094 Hz
*
* Freq(Hz)	SPL(dB)	Phase(degrees)
0.366211	77.251	-165.8054
0.368865	77.253	-165.8033
0.371538	77.255	-165.8002
0.374230	77.258	-165.7962
0.376942	77.262	-165.7916
0.379673	77.266	-165.7865
0.382424	77.270	-165.7810
0.385196	77.274	-165.7751
0.387987	77.278	-165.7690
0.390798	77.283	-165.7625
0.393630	77.287	-165.7557
0.396483	77.291	-165.7486
0.399356	77.296	-165.7413
0.402250	77.300	-165.7337
0.405165	77.305	-165.7258
0.408101	77.309	-165.7176
0.411058	77.314	-165.7092
0.414037	77.318	-165.7004
0.417037	77.323	-165.6914
0.420059	77.327	-165.6821
0.423103	77.332	-165.6726
0.426169	77.337	-165.6628
0.429257	77.342	-165.6527
0.432368	77.346	-165.6423
0.435501	77.351	-165.6317
0.438656	77.356	-165.6209
0.441835	77.361	-165.6097
0.445037	77.366	-165.5984
0.448262	77.371	-165.5867
0.451510	77.376	-165.5749
0.454782	77.381	-165.5627
0.458077	77.386	-165.5504
0.461397	77.391	-165.5378
0.464740	77.396	-165.5250
0.468108	77.401	-165.5119
0.471500	77.406	-165.4987
0.474917	77.412	-165.4852
0.478358	77.417	-165.4715
0.481825	77.422	-165.4576
0.485316	77.428	-165.4435
0.488833	77.433	-165.4292
0.492375	77.438	-165.4148
0.495943	77.444	-165.4001
0.499537	77.449	-165.3853
0.503157	77.455	-165.3704
0.506803	77.460	-165.3553
0.510475	77.466	-165.3400
0.514175	77.472	-165.3246
0.517900	77.477	-165.3091
0.521653	77.483	-165.2935
0.525434	77.489	-165.2778
0.529241	77.495	-165.2619
0.533076	77.501	-165.2460
0.536939	77.507	-165.2300
0.540830	77.513	-165.2140
0.544749	77.519	-165.1979
0.548696	77.525	-165.1817
0.552673	77.531	-165.1656
0.556677	77.537	-165.1494
0.560711	77.543	-165.1332
0.564774	77.549	-165.1170
0.568867	77.556	-165.1009
0.572989	77.562	-165.0848
0.577141	77.568	-165.0688
0.581324	77.575	-165.0529
0.585536	77.581	-165.0370
0.589779	77.588	-165.0213
0.594053	77.594	-165.0056
0.598358	77.601	-164.9902
0.602694	77.607	-164.9749
0.607061	77.614	-164.9598
0.611460	77.621	-164.9449
0.615891	77.628	-164.9302
0.620354	77.634	-164.9158
0.624849	77.641	-164.9016
0.629377	77.648	-164.8877
0.633938	77.655	-164.8742
0.638532	77.662	-164.8610
0.643159	77.669	-164.8482
0.647819	77.677	-164.8357
0.652514	77.684	-164.8237
0.657242	77.691	-164.8121
0.662005	77.698	-164.8011
0.666802	77.706	-164.7905
0.671634	77.713	-164.7805
0.676501	77.721	-164.7711
0.681403	77.728	-164.7622
0.686341	77.736	-164.7541
0.691314	77.743	-164.7466
0.696324	77.751	-164.7398
0.701370	77.758	-164.7339
0.706452	77.765	-164.7287
0.711571	77.772	-164.7245
0.716728	77.778	-164.7214
0.721921	77.783	-164.7193
0.727153	77.786	-164.7187
0.732422	77.787	-164.7195
0.737729	77.786	-164.7221
0.743075	77.782	-164.7268
0.748460	77.777	-164.7336
0.753883	77.770	-164.7428
0.759346	77.763	-164.7544
0.764849	77.755	-164.7683
0.770391	77.747	-164.7846
0.775974	77.738	-164.8033
0.781597	77.730	-164.8243
0.787261	77.721	-164.8476
0.792966	77.712	-164.8731
0.798712	77.703	-164.9007
0.804500	77.693	-164.9303
0.810329	77.684	-164.9620
0.816201	77.673	-164.9955
0.822116	77.663	-165.0309
0.828073	77.652	-165.0679
0.834074	77.640	-165.1066
0.840118	77.628	-165.1469
0.846206	77.615	-165.1885
0.852338	77.602	-165.2314
0.858514	77.588	-165.2756
0.864735	77.573	-165.3207
0.871001	77.557	-165.3668
0.877313	77.540	-165.4137
0.883670	77.522	-165.4612
0.890074	77.504	-165.5092
0.896524	77.483	-165.5574
0.903020	77.462	-165.6058
0.909564	77.440	-165.6542
0.916155	77.416	-165.7023
0.922794	77.390	-165.7499
0.929481	77.363	-165.7968
0.936216	77.334	-165.8429
0.943000	77.304	-165.8878
0.949834	77.271	-165.9313
0.956717	77.237	-165.9731
0.963649	77.201	-166.0130
0.970632	77.162	-166.0506
0.977666	77.121	-166.0856
0.984750	77.078	-166.1176
0.991886	77.032	-166.1464
0.999074	76.984	-166.1715
1.006314	76.933	-166.1925
1.013606	76.879	-166.2090
1.020951	76.821	-166.2206
1.028349	76.761	-166.2267
1.035801	76.697	-166.2268
1.043307	76.630	-166.2204
1.050867	76.559	-166.2071
1.058482	76.484	-166.1862
1.066152	76.405	-166.1575
1.073878	76.322	-166.1205
1.081660	76.233	-166.0754
1.089498	76.139	-166.0224
1.097393	76.038	-165.9623
1.105345	75.930	-165.8963
1.113355	75.813	-165.8256
1.121423	75.688	-165.7511
1.129549	75.552	-165.6736
1.137734	75.407	-165.5930
1.145979	75.253	-165.5093
1.154283	75.089	-165.4220
1.162647	74.915	-165.3304
1.171072	74.733	-165.2338
1.179558	74.543	-165.1311
1.188106	74.345	-165.0214
1.196715	74.139	-164.9034
1.205387	73.927	-164.7758
1.214122	73.708	-164.6371
1.222920	73.484	-164.4858
1.231782	73.256	-164.3200
1.240708	73.023	-164.1378
1.249699	72.786	-163.9370
1.258754	72.547	-163.7151
1.267876	72.306	-163.4694
1.277063	72.063	-163.1970
1.286318	71.821	-162.8943
1.295639	71.580	-162.5578
1.305027	71.340	-162.1830
1.314484	71.103	-161.7653
1.324009	70.870	-161.2993
1.333604	70.642	-160.7792
1.343268	70.420	-160.1982
1.353002	70.205	-159.5487
1.362806	69.999	-158.8224
1.372681	69.804	-158.0098
1.382628	69.620	-157.1004
1.392647	69.448	-156.0824
1.402739	69.292	-154.9428
1.412904	69.151	-153.6675
1.423142	69.028	-152.2412
1.433455	68.924	-150.6473
1.443843	68.840	-148.8688
1.454305	68.776	-146.8877
1.464844	68.735	-144.6860
1.475459	68.714	-142.2451
1.486150	68.715	-139.5469
1.496920	68.735	-136.5738
1.507767	68.775	-133.3117
1.518693	68.835	-129.7521
1.529698	68.912	-125.8955
1.540783	69.007	-121.7555
1.551948	69.119	-117.3613
1.563194	69.247	-112.7600
1.574521	69.391	-108.0153
1.585931	69.549	-103.2049
1.597423	69.721	-98.4129
1.608999	69.907	-93.7230
1.620658	70.105	-89.2101
1.632402	70.315	-84.9347
1.644232	70.535	-80.9401
1.656146	70.764	-77.2519
1.668147	71.002	-73.8804
1.680235	71.248	-70.8238
1.692411	71.500	-68.0714
1.704675	71.757	-65.6067
1.717028	72.018	-63.4102
1.729470	72.282	-61.4610
1.742003	72.548	-59.7382
1.754626	72.815	-58.2216
1.767341	73.082	-56.8920
1.780147	73.347	-55.7314
1.793047	73.612	-54.7226
1.806040	73.875	-53.8495
1.819128	74.139	-53.0963
1.832310	74.404	-52.4477
1.845587	74.673	-51.8894
1.858961	74.948	-51.4091
1.872432	75.230	-50.9966
1.886001	75.520	-50.6440
1.899667	75.818	-50.3452
1.913433	76.124	-50.0954
1.927299	76.437	-49.8908
1.941265	76.757	-49.7280
1.955332	77.082	-49.6043
1.969501	77.412	-49.5172
1.983773	77.745	-49.4645
1.998148	78.081	-49.4443
2.012627	78.419	-49.4550
2.027212	78.757	-49.4949
2.041902	79.094	-49.5629
2.056698	79.429	-49.6578
2.071602	79.761	-49.7786
2.086614	80.088	-49.9245
2.101734	80.410	-50.0947
2.116964	80.724	-50.2888
2.132304	81.030	-50.5063
2.147756	81.328	-50.7467
2.163320	81.615	-51.0097
2.178996	81.892	-51.2947
2.194786	82.158	-51.6012
2.210690	82.414	-51.9282
2.226710	82.661	-52.2747
2.242845	82.899	-52.6393
2.259098	83.129	-53.0203
2.275468	83.351	-53.4161
2.291957	83.565	-53.8253
2.308566	83.773	-54.2462
2.325295	83.974	-54.6775
2.342145	84.170	-55.1179
2.359117	84.360	-55.5663
2.376212	84.544	-56.0216
2.393431	84.725	-56.4831
2.410775	84.901	-56.9498
2.428244	85.074	-57.4212
2.445840	85.244	-57.8969
2.463564	85.411	-58.3764
2.481416	85.576	-58.8597
2.499397	85.740	-59.3471
2.517509	85.902	-59.8389
2.535752	86.063	-60.3361
2.554127	86.222	-60.8400
2.572635	86.379	-61.3523
2.591277	86.534	-61.8744
2.610055	86.685	-62.4073
2.628968	86.833	-62.9510
2.648019	86.977	-63.5049
2.667208	87.117	-64.0679
2.686535	87.253	-64.6387
2.706003	87.386	-65.2155
2.725612	87.516	-65.7967
2.745363	87.642	-66.3806
2.765257	87.765	-66.9657
2.785295	87.885	-67.5505
2.805478	88.003	-68.1336
2.825808	88.118	-68.7139
2.846285	88.231	-69.2904
2.866910	88.342	-69.8629
2.887685	88.451	-70.4315
2.908611	88.559	-70.9972
2.929688	88.664	-71.5615
2.950917	88.766	-72.1267
2.972301	88.866	-72.6948
2.993839	88.963	-73.2670
3.015534	89.057	-73.8438
3.037386	89.147	-74.4248
3.059396	89.235	-75.0090
3.081565	89.320	-75.5951
3.103896	89.402	-76.1813
3.126388	89.482	-76.7660
3.149043	89.559	-77.3473
3.171862	89.634	-77.9236
3.194847	89.707	-78.4931
3.217998	89.778	-79.0546
3.241317	89.848	-79.6073
3.264805	89.916	-80.1509
3.288463	89.981	-80.6862
3.312293	90.045	-81.2143
3.336295	90.107	-81.7371
3.360471	90.166	-82.2559
3.384822	90.223	-82.7716
3.409350	90.277	-83.2844
3.434056	90.329	-83.7939
3.458940	90.379	-84.2993
3.484005	90.427	-84.7996
3.509252	90.473	-85.2935
3.534681	90.518	-85.7796
3.560295	90.561	-86.2566
3.586094	90.604	-86.7232
3.612081	90.646	-87.1783
3.638255	90.687	-87.6215
3.664620	90.727	-88.0524
3.691175	90.765	-88.4715
3.717923	90.803	-88.8794
3.744864	90.839	-89.2771
3.772001	90.874	-89.6651
3.799335	90.908	-90.0442
3.826866	90.941	-90.4147
3.854597	90.974	-90.7770
3.882529	91.005	-91.1312
3.910664	91.037	-91.4775
3.939002	91.069	-91.8156
3.967546	91.101	-92.1453
3.996296	91.134	-92.4662
4.025255	91.167	-92.7778
4.054423	91.201	-93.0796
4.083804	91.235	-93.3713
4.113396	91.270	-93.6534
4.143204	91.305	-93.9266
4.173227	91.340	-94.1921
4.203468	91.376	-94.4516
4.233928	91.412	-94.7065
4.264609	91.450	-94.9586
4.295512	91.488	-95.2093
4.326639	91.527	-95.4598
4.357992	91.567	-95.7107
4.389572	91.609	-95.9622
4.421380	91.652	-96.2140
4.453419	91.696	-96.4656
4.485691	91.742	-96.7171
4.518196	91.788	-96.9690
4.550936	91.836	-97.2224
4.583914	91.884	-97.4787
4.617131	91.934	-97.7397
4.650589	91.984	-98.0070
4.684289	92.035	-98.2822
4.718233	92.086	-98.5666
4.752424	92.137	-98.8607
4.786862	92.190	-99.1650
4.821549	92.243	-99.4790
4.856488	92.296	-99.8025
4.891680	92.350	-100.1353
4.927127	92.403	-100.4771
4.962831	92.457	-100.8282
4.998794	92.511	-101.1888
5.035017	92.564	-101.5592
5.071503	92.616	-101.9399
5.108253	92.668	-102.3316
5.145270	92.719	-102.7345
5.182555	92.769	-103.1489
5.220110	92.817	-103.5743
5.257937	92.865	-104.0101
5.296038	92.912	-104.4551
5.334415	92.958	-104.9079
5.373071	93.002	-105.3674
5.412006	93.045	-105.8324
5.451224	93.086	-106.3024
5.490725	93.126	-106.7771
5.530514	93.164	-107.2569
5.570590	93.200	-107.7416
5.610957	93.234	-108.2308
5.651616	93.267	-108.7236
5.692570	93.298	-109.2184
5.733821	93.327	-109.7136
5.775370	93.355	-110.2074
5.817221	93.382	-110.6987
5.859375	93.407	-111.1866
5.901834	93.431	-111.6709
5.944602	93.453	-112.1517
5.987679	93.474	-112.6289
6.031068	93.493	-113.1020
6.074771	93.512	-113.5702
6.118792	93.530	-114.0328
6.163131	93.548	-114.4886
6.207792	93.565	-114.9371
6.252776	93.582	-115.3776
6.298086	93.598	-115.8103
6.343725	93.615	-116.2354
6.389694	93.631	-116.6535
6.435996	93.648	-117.0652
6.482634	93.665	-117.4710
6.529610	93.683	-117.8715
6.576926	93.702	-118.2667
6.624585	93.722	-118.6570
6.672590	93.742	-119.0426
6.720942	93.764	-119.4241
6.769645	93.787	-119.8027
6.818700	93.811	-120.1797
6.868111	93.836	-120.5566
6.917881	93.862	-120.9345
6.968010	93.889	-121.3143
7.018504	93.918	-121.6964
7.069362	93.948	-122.0813
7.120590	93.979	-122.4696
7.172189	94.010	-122.8619
7.224161	94.043	-123.2592
7.276511	94.076	-123.6622
7.329239	94.109	-124.0717
7.382350	94.143	-124.4878
7.435845	94.177	-124.9104
7.489729	94.211	-125.3393
7.544002	94.245	-125.7739
7.598669	94.279	-126.2139
7.653732	94.312	-126.6588
7.709194	94.345	-127.1083
7.765058	94.377	-127.5622
7.821327	94.408	-128.0196
7.878004	94.439	-128.4795
7.935091	94.468	-128.9407
7.992592	94.497	-129.4019
8.050510	94.525	-129.8620
8.108847	94.552	-130.3203
8.167607	94.578	-130.7762
8.226793	94.603	-131.2287
8.286408	94.628	-131.6770
8.346454	94.652	-132.1200
8.406936	94.675	-132.5569
8.467856	94.698	-132.9869
8.529218	94.720	-133.4099
8.591024	94.742	-133.8256
8.653278	94.764	-134.2341
8.715983	94.786	-134.6353
8.779143	94.809	-135.0292
8.842760	94.831	-135.4161
8.906839	94.855	-135.7961
8.971381	94.878	-136.1700
9.036392	94.902	-136.5385
9.101873	94.927	-136.9023
9.167829	94.952	-137.2623
9.234263	94.978	-137.6190
9.301178	95.005	-137.9731
9.368578	95.031	-138.3251
9.436467	95.059	-138.6760
9.504847	95.086	-139.0263
9.573723	95.114	-139.3765
9.643099	95.141	-139.7270
9.712976	95.167	-140.0777
9.783361	95.191	-140.4286
9.854255	95.213	-140.7799
9.925663	95.233	-141.1313
9.997588	95.250	-141.4826
10.070035	95.264	-141.8334
10.143007	95.275	-142.1830
10.216507	95.285	-142.5310
10.290540	95.291	-142.8766
10.365109	95.296	-143.2196
10.440219	95.300	-143.5594
10.515873	95.301	-143.8954
10.592076	95.302	-144.2272
10.668830	95.302	-144.5545
10.746141	95.301	-144.8771
10.824012	95.300	-145.1950
10.902447	95.298	-145.5083
10.981451	95.296	-145.8171
11.061027	95.293	-146.1216
11.141180	95.290	-146.4222
11.221913	95.287	-146.7195
11.303232	95.284	-147.0138
11.385140	95.280	-147.3058
11.467641	95.277	-147.5959
11.550741	95.273	-147.8847
11.634442	95.269	-148.1724
11.718750	95.265	-148.4597
11.803669	95.261	-148.7466
11.889203	95.256	-149.0335
11.975357	95.252	-149.3203
12.062136	95.248	-149.6072
12.149543	95.243	-149.8940
12.237583	95.238	-150.1806
12.326262	95.233	-150.4670
12.415583	95.227	-150.7530
12.505552	95.220	-151.0384
12.596172	95.213	-151.3231
12.687449	95.206	-151.6072
12.779387	95.198	-151.8907
12.871992	95.189	-152.1738
12.965268	95.180	-152.4567
13.059220	95.172	-152.7397
13.153852	95.163	-153.0231
13.249170	95.154	-153.3074
13.345179	95.145	-153.5929
13.441884	95.136	-153.8800
13.539289	95.128	-154.1691
13.637401	95.119	-154.4604
13.736223	95.110	-154.7541
13.835761	95.101	-155.0501
13.936021	95.092	-155.3484
14.037007	95.083	-155.6488
14.138725	95.073	-155.9511
14.241180	95.062	-156.2549
14.344377	95.051	-156.5598
14.448323	95.040	-156.8655
14.553021	95.029	-157.1716
14.658478	95.017	-157.4779
14.764700	95.005	-157.7842
14.871691	94.994	-158.0905
14.979457	94.983	-158.3968
15.088005	94.972	-158.7034
15.197339	94.962	-159.0105
15.307465	94.952	-159.3184
15.418389	94.942	-159.6275
15.530117	94.933	-159.9381
15.642655	94.924	-160.2503
15.756008	94.916	-160.5643
15.870182	94.907	-160.8800
15.985184	94.899	-161.1972
16.101019	94.891	-161.5156
16.217694	94.882	-161.8348
16.335214	94.874	-162.1541
16.453586	94.866	-162.4729
16.572815	94.858	-162.7907
16.692909	94.851	-163.1068
16.813872	94.844	-163.4208
16.935713	94.837	-163.7324
17.058436	94.831	-164.0414
17.182048	94.825	-164.3478
17.306556	94.820	-164.6517
17.431967	94.815	-164.9532
17.558286	94.811	-165.2527
17.685521	94.807	-165.5502
17.813677	94.803	-165.8460
17.942762	94.799	-166.1400
18.072783	94.795	-166.4323
18.203746	94.791	-166.7227
18.335658	94.787	-167.0107
18.468526	94.783	-167.2960
18.602356	94.779	-167.5782
18.737156	94.774	-167.8569
18.872934	94.770	-168.1317
19.009695	94.765	-168.4026
19.147447	94.760	-168.6694
19.286197	94.756	-168.9323
19.425953	94.751	-169.1915
19.566721	94.746	-169.4474
19.708510	94.741	-169.7003
19.851326	94.736	-169.9507
19.995177	94.731	-170.1991
20.140070	94.725	-170.4456
20.286013	94.719	-170.6906
20.433014	94.712	-170.9343
20.581080	94.705	-171.1768
20.730219	94.698	-171.4182
20.880439	94.690	-171.6587
21.031747	94.682	-171.8986
21.184152	94.674	-172.1382
21.337661	94.666	-172.3779
21.492282	94.657	-172.6181
21.648024	94.649	-172.8594
21.804895	94.640	-173.1019
21.962902	94.631	-173.3461
22.122054	94.622	-173.5920
22.282360	94.612	-173.8396
22.443827	94.601	-174.0886
22.606464	94.590	-174.3389
22.770280	94.579	-174.5901
22.935283	94.567	-174.8419
23.101481	94.555	-175.0941
23.268884	94.543	-175.3465
23.437500	94.530	-175.5993
23.607338	94.518	-175.8526
23.778406	94.505	-176.1068
23.950714	94.493	-176.3620
24.124271	94.480	-176.6184
24.299086	94.467	-176.8760
24.475167	94.455	-177.1346
24.652524	94.442	-177.3937
24.831166	94.429	-177.6528
25.011103	94.416	-177.9112
25.192344	94.404	-178.1682
25.374898	94.391	-178.4231
25.558775	94.379	-178.6756
25.743984	94.366	-178.9256
25.930536	94.355	-179.1731
26.118439	94.344	-179.4187
26.307704	94.333	-179.6630
26.498341	94.323	-179.9066
26.690359	94.312	179.8497
26.883768	94.303	179.6056
27.078579	94.293	179.3610
27.274801	94.282	179.1160
27.472446	94.271	178.8714
27.671522	94.260	178.6282
27.872042	94.247	178.3875
28.074014	94.234	178.1506
28.277450	94.220	177.9183
28.482360	94.206	177.6912
28.688755	94.191	177.4694
28.896645	94.176	177.2523
29.106042	94.161	177.0389
29.316957	94.146	176.8281
29.529400	94.131	176.6186
29.743382	94.116	176.4092
29.958915	94.100	176.1991
30.176009	94.085	175.9879
30.394677	94.070	175.7757
30.614929	94.054	175.5624
30.836778	94.038	175.3484
31.060234	94.021	175.1335
31.285309	94.005	174.9178
31.512015	93.988	174.7010
31.740364	93.972	174.4825
31.970368	93.955	174.2621
32.202039	93.938	174.0397
32.435388	93.921	173.8154
32.670428	93.904	173.5897
32.907171	93.886	173.3631
33.145630	93.869	173.1363
33.385817	93.851	172.9097
33.627745	93.834	172.6837
33.871425	93.817	172.4583
34.116871	93.799	172.2336
34.364096	93.782	172.0096
34.613113	93.765	171.7863
34.863934	93.749	171.5637
35.116572	93.732	171.3423
35.371041	93.714	171.1226
35.627354	93.697	170.9047
35.885525	93.680	170.6892
36.145566	93.662	170.4764
36.407492	93.644	170.2666
36.671316	93.626	170.0598
36.937051	93.607	169.8558
37.204712	93.588	169.6545
37.474313	93.570	169.4554
37.745867	93.550	169.2582
38.019389	93.531	169.0627
38.294893	93.511	168.8687
38.572394	93.492	168.6760
38.851905	93.471	168.4847
39.133442	93.451	168.2946
39.417019	93.430	168.1054
39.702651	93.409	167.9169
39.990353	93.388	167.7287
40.280140	93.367	167.5407
40.572026	93.345	167.3529
40.866028	93.324	167.1653
41.162160	93.302	166.9780
41.460438	93.280	166.7914
41.760877	93.258	166.6053
42.063494	93.236	166.4198
42.368303	93.214	166.2350
42.675322	93.191	166.0510
42.984565	93.169	165.8678
43.296048	93.147	165.6858
43.609789	93.124	165.5050
43.925804	93.101	165.3255
44.244108	93.078	165.1473
44.564719	93.055	164.9702
44.887654	93.032	164.7943
45.212928	93.009	164.6198
45.540560	92.985	164.4469
45.870565	92.961	164.2758
46.202962	92.937	164.1064
46.537768	92.913	163.9388
46.875000	92.889	163.7726
47.214676	92.865	163.6074
47.556813	92.841	163.4431
47.901429	92.817	163.2795
48.248542	92.793	163.1170
48.598171	92.769	162.9558
48.950334	92.744	162.7961
49.305048	92.720	162.6381
49.662333	92.695	162.4819
50.022206	92.671	162.3277
50.384688	92.646	162.1758
50.749796	92.621	162.0263
51.117550	92.596	161.8792
51.487969	92.572	161.7339
51.861072	92.547	161.5900
52.236879	92.523	161.4466
52.615409	92.498	161.3038
52.996681	92.473	161.1620
53.380717	92.449	161.0220
53.767536	92.424	160.8843
54.157158	92.399	160.7494
54.549603	92.374	160.6166
54.944892	92.350	160.4852
55.343045	92.326	160.3542
55.744084	92.302	160.2225
56.148028	92.279	160.0892
56.554900	92.257	159.9536
56.964720	92.234	159.8148
57.377510	92.211	159.6727
57.793291	92.188	159.5278
58.212085	92.165	159.3815
58.633914	92.140	159.2355
59.058799	92.116	159.0911
59.486764	92.090	158.9490
59.917829	92.064	158.8093
60.352019	92.038	158.6719
60.789354	92.012	158.5366
61.229859	91.984	158.4033
61.673556	91.957	158.2720
62.120468	91.929	158.1425
62.570618	91.901	158.0146
63.024031	91.872	157.8882
63.480729	91.844	157.7633
63.940736	91.815	157.6404
64.404077	91.785	157.5200
64.870776	91.756	157.4020
65.340856	91.727	157.2864
65.814343	91.698	157.1722
66.291261	91.670	157.0588
66.771635	91.641	156.9457
67.255489	91.613	156.8337
67.742850	91.584	156.7238
68.233743	91.555	156.6173
68.728193	91.526	156.5143
69.226226	91.497	156.4145
69.727867	91.468	156.3170
70.233144	91.439	156.2209
70.742083	91.410	156.1257
71.254709	91.382	156.0311
71.771050	91.353	155.9369
72.291132	91.324	155.8432
72.814984	91.296	155.7501
73.342631	91.267	155.6575
73.874102	91.239	155.5651
74.409424	91.211	155.4731
74.948626	91.183	155.3817
75.491734	91.155	155.2915
76.038779	91.127	155.2031
76.589787	91.099	155.1163
77.144788	91.072	155.0308
77.703811	91.045	154.9453
78.266885	91.019	154.8588
78.834039	90.992	154.7707
79.405303	90.965	154.6805
79.980706	90.939	154.5874
80.560280	90.912	154.4896
81.144053	90.886	154.3851
81.732056	90.859	154.2728
82.324320	90.830	154.1539
