* Measurement data measured by REW V5.31.3
* Source: EXCL: Microphone (USB Sound Device        ), MICROPHONE (Master Volume), R, volume: 0.390
* Format: 256k Log Swept Sine, 1 sweep at -15.0 dBFS with no timing reference
* Dated: Jul 6, 2025 11:36:57 PM
* REW Settings:
*  C-weighting compensation: Off
*  Target level: 75.0 dB
* Note: FATfreq Deuce R
* Measurement: R FATfreq Deuce
* Smoothing: 1/12 octave
* Frequency Step: 96 ppo
* Start Frequency: 0.36621094 Hz
*
* Freq(Hz) SPL(dB) Phase(degrees)
0.366211 90.550 171.2502
0.368865 90.546 171.2403
0.371538 90.540 171.2254
0.374230 90.533 171.2067
0.376942 90.524 171.1853
0.379673 90.516 171.1617
0.382424 90.506 171.1365
0.385196 90.497 171.1099
0.387987 90.487 171.0822
0.390798 90.477 171.0535
0.393630 90.467 171.0237
0.396483 90.457 170.9929
0.399356 90.447 170.9610
0.402250 90.437 170.9282
0.405165 90.427 170.8944
0.408101 90.416 170.8595
0.411058 90.406 170.8237
0.414037 90.395 170.7867
0.417037 90.385 170.7488
0.420059 90.374 170.7097
0.423103 90.364 170.6697
0.426169 90.353 170.6285
0.429257 90.342 170.5863
0.432368 90.331 170.5430
0.435501 90.320 170.4986
0.438656 90.309 170.4532
0.441835 90.298 170.4066
0.445037 90.286 170.3589
0.448262 90.275 170.3100
0.451510 90.264 170.2601
0.454782 90.252 170.2090
0.458077 90.241 170.1568
0.461397 90.229 170.1035
0.464740 90.217 170.0490
0.468108 90.205 169.9934
0.471500 90.193 169.9366
0.474917 90.181 169.8787
0.478358 90.169 169.8196
0.481825 90.157 169.7593
0.485316 90.145 169.6979
0.488833 90.132 169.6353
0.492375 90.120 169.5715
0.495943 90.107 169.5066
0.499537 90.095 169.4405
0.503157 90.082 169.3733
0.506803 90.069 169.3048
0.510475 90.056 169.2352
0.514175 90.043 169.1645
0.517900 90.030 169.0926
0.521653 90.017 169.0195
0.525434 90.004 168.9453
0.529241 89.990 168.8699
0.533076 89.977 168.7934
0.536939 89.963 168.7157
0.540830 89.950 168.6369
0.544749 89.936 168.5570
0.548696 89.922 168.4760
0.552673 89.908 168.3939
0.556677 89.894 168.3107
0.560711 89.880 168.2265
0.564774 89.865 168.1411
0.568867 89.851 168.0548
0.572989 89.836 167.9674
0.577141 89.822 167.8790
0.581324 89.807 167.7896
0.585536 89.792 167.6992
0.589779 89.777 167.6079
0.594053 89.762 167.5157
0.598358 89.747 167.4225
0.602694 89.732 167.3285
0.607061 89.717 167.2337
0.611460 89.701 167.1380
0.615891 89.686 167.0416
0.620354 89.670 166.9444
0.624849 89.654 166.8465
0.629377 89.638 166.7480
0.633938 89.622 166.6488
0.638532 89.606 166.5490
0.643159 89.590 166.4487
0.647819 89.573 166.3479
0.652514 89.557 166.2467
0.657242 89.540 166.1451
0.662005 89.523 166.0432
0.666802 89.506 165.9410
0.671634 89.489 165.8386
0.676501 89.472 165.7361
0.681403 89.455 165.6335
0.686341 89.438 165.5309
0.691314 89.420 165.4284
0.696324 89.402 165.3260
0.701370 89.385 165.2239
0.706452 89.366 165.1220
0.711571 89.348 165.0204
0.716728 89.329 164.9190
0.721921 89.309 164.8178
0.727153 89.287 164.7166
0.732422 89.265 164.6149
0.737729 89.241 164.5126
0.743075 89.215 164.4091
0.748460 89.188 164.3040
0.753883 89.160 164.1972
0.759346 89.132 164.0885
0.764849 89.103 163.9776
0.770391 89.073 163.8646
0.775974 89.043 163.7494
0.781597 89.013 163.6320
0.787261 88.982 163.5125
0.792966 88.951 163.3906
0.798712 88.920 163.2666
0.804500 88.888 163.1404
0.810329 88.856 163.0120
0.816201 88.823 162.8814
0.822116 88.790 162.7487
0.828073 88.756 162.6138
0.834074 88.722 162.4768
0.840118 88.688 162.3377
0.846206 88.652 162.1965
0.852338 88.616 162.0534
0.858514 88.580 161.9082
0.864735 88.543 161.7610
0.871001 88.505 161.6120
0.877313 88.466 161.4610
0.883670 88.427 161.3083
0.890074 88.387 161.1538
0.896524 88.346 160.9977
0.903020 88.304 160.8399
0.909564 88.262 160.6805
0.916155 88.218 160.5197
0.922794 88.174 160.3576
0.929481 88.128 160.1941
0.936216 88.081 160.0295
0.943000 88.034 159.8639
0.949834 87.985 159.6973
0.956717 87.935 159.5299
0.963649 87.883 159.3618
0.970632 87.831 159.1933
0.977666 87.777 159.0244
0.984750 87.721 158.8553
0.991886 87.664 158.6862
0.999074 87.606 158.5174
1.006314 87.546 158.3491
1.013606 87.485 158.1814
1.020951 87.421 158.0147
1.028349 87.356 157.8491
1.035801 87.290 157.6850
1.043307 87.221 157.5227
1.050867 87.150 157.3625
1.058482 87.078 157.2046
1.066152 87.003 157.0494
1.073878 86.927 156.8971
1.081660 86.849 156.7478
1.089498 86.769 156.6017
1.097393 86.687 156.4586
1.105345 86.604 156.3182
1.113355 86.521 156.1802
1.121423 86.437 156.0443
1.129549 86.353 155.9102
1.137734 86.269 155.7779
1.145979 86.184 155.6473
1.154283 86.099 155.5183
1.162647 86.013 155.3910
1.171072 85.927 155.2655
1.179558 85.840 155.1418
1.188106 85.752 155.0201
1.196715 85.662 154.9004
1.205387 85.571 154.7828
1.214122 85.478 154.6676
1.222920 85.383 154.5549
1.231782 85.286 154.4447
1.240708 85.187 154.3374
1.249699 85.084 154.2330
1.258754 84.978 154.1319
1.267876 84.869 154.0342
1.277063 84.756 153.9401
1.286318 84.639 153.8500
1.295639 84.517 153.7641
1.305027 84.391 153.6828
1.314484 84.260 153.6065
1.324009 84.123 153.5354
1.333604 83.980 153.4700
1.343268 83.831 153.4109
1.353002 83.675 153.3585
1.362806 83.512 153.3133
1.372681 83.341 153.2760
1.382628 83.163 153.2472
1.392647 82.976 153.2278
1.402739 82.779 153.2184
1.412904 82.573 153.2201
1.423142 82.356 153.2337
1.433455 82.127 153.2603
1.443843 81.886 153.3010
1.454305 81.629 153.3572
1.464844 81.354 153.4302
1.475459 81.059 153.5213
1.486150 80.741 153.6325
1.496920 80.398 153.7658
1.507767 80.028 153.9234
1.518693 79.632 154.1082
1.529698 79.210 154.3235
1.540783 78.763 154.5731
1.551948 78.293 154.8614
1.563194 77.801 155.1936
1.574521 77.291 155.5757
1.585931 76.763 156.0150
1.597423 76.221 156.5196
1.608999 75.668 157.0998
1.620658 75.106 157.7673
1.632402 74.538 158.5366
1.644232 73.968 159.4249
1.656146 73.399 160.4534
1.668147 72.834 161.6476
1.680235 72.279 163.0391
1.692411 71.737 164.6671
1.704675 71.213 166.5796
1.717028 70.711 168.8362
1.729470 70.238 171.5101
1.742003 69.799 174.6903
1.754626 69.400 178.4816
1.767341 69.047 -176.9988
1.780147 68.748 -171.6326
1.793047 68.510 -165.3268
1.806040 68.339 -158.0573
1.819128 68.241 -149.9257
1.832310 68.221 -141.2000
1.845587 68.281 -132.2962
1.858961 68.422 -123.6815
1.872432 68.643 -115.7449
1.886001 68.939 -108.7155
1.899667 69.306 -102.6603
1.913433 69.738 -97.5335
1.927299 70.229 -93.2319
1.941265 70.771 -89.6353
1.955332 71.359 -86.6282
1.969501 71.986 -84.1092
1.983773 72.643 -81.9933
1.998148 73.326 -80.2108
2.012627 74.026 -78.7051
2.027212 74.736 -77.4306
2.041902 75.450 -76.3503
2.056698 76.161 -75.4346
2.071602 76.862 -74.6588
2.086614 77.547 -74.0034
2.101734 78.210 -73.4518
2.116964 78.845 -72.9907
2.132304 79.448 -72.6089
2.147756 80.014 -72.2973
2.163320 80.541 -72.0482
2.178996 81.028 -71.8554
2.194786 81.478 -71.7136
2.210690 81.894 -71.6184
2.226710 82.281 -71.5659
2.242845 82.642 -71.5522
2.259098 82.981 -71.5739
2.275468 83.301 -71.6273
2.291957 83.602 -71.7093
2.308566 83.888 -71.8167
2.325295 84.158 -71.9467
2.342145 84.415 -72.0967
2.359117 84.660 -72.2645
2.376212 84.894 -72.4480
2.393431 85.119 -72.6454
2.410775 85.335 -72.8549
2.428244 85.545 -73.0750
2.445840 85.749 -73.3046
2.463564 85.950 -73.5426
2.481416 86.148 -73.7881
2.499397 86.345 -74.0405
2.517509 86.542 -74.2998
2.535752 86.738 -74.5662
2.554127 86.933 -74.8403
2.572635 87.127 -75.1234
2.591277 87.317 -75.4166
2.610055 87.502 -75.7204
2.628968 87.682 -76.0350
2.648019 87.856 -76.3600
2.667208 88.024 -76.6946
2.686535 88.186 -77.0374
2.706003 88.342 -77.3873
2.725612 88.493 -77.7428
2.745363 88.639 -78.1028
2.765257 88.780 -78.4658
2.785295 88.917 -78.8307
2.805478 89.052 -79.1963
2.825808 89.183 -79.5616
2.846285 89.312 -79.9261
2.866910 89.439 -80.2890
2.887685 89.565 -80.6506
2.908611 89.688 -81.0112
2.929688 89.810 -81.3721
2.950917 89.930 -81.7347
2.972301 90.046 -82.1004
2.993839 90.159 -82.4701
3.015534 90.269 -82.8440
3.037386 90.375 -83.2219
3.059396 90.477 -83.6029
3.081565 90.577 -83.9863
3.103896 90.673 -84.3707
3.126388 90.766 -84.7549
3.149043 90.857 -85.1378
3.171862 90.945 -85.5179
3.194847 91.032 -85.8943
3.217998 91.116 -86.2660
3.241317 91.199 -86.6323
3.264805 91.281 -86.9932
3.288463 91.360 -87.3490
3.312293 91.438 -87.7005
3.336295 91.514 -88.0489
3.360471 91.587 -88.3951
3.384822 91.658 -88.7397
3.409350 91.726 -89.0829
3.434056 91.792 -89.4246
3.458940 91.856 -89.7645
3.484005 91.918 -90.1020
3.509252 91.978 -90.4364
3.534681 92.036 -90.7672
3.560295 92.094 -91.0936
3.586094 92.150 -91.4150
3.612081 92.205 -91.7309
3.638255 92.259 -92.0410
3.664620 92.313 -92.3455
3.691175 92.365 -92.6444
3.717923 92.415 -92.9384
3.744864 92.465 -93.2278
3.772001 92.513 -93.5131
3.799335 92.559 -93.7947
3.826866 92.605 -94.0729
3.854597 92.649 -94.3479
3.882529 92.693 -94.6198
3.910664 92.736 -94.8887
3.939002 92.779 -95.1547
3.967546 92.821 -95.4176
3.996296 92.863 -95.6772
4.025255 92.905 -95.9336
4.054423 92.946 -96.1864
4.083804 92.987 -96.4357
4.113396 93.028 -96.6817
4.143204 93.069 -96.9249
4.173227 93.109 -97.1660
4.203468 93.149 -97.4059
4.233928 93.188 -97.6454
4.264609 93.228 -97.8854
4.295512 93.267 -98.1267
4.326639 93.306 -98.3701
4.357992 93.346 -98.6159
4.389572 93.385 -98.8643
4.421380 93.425 -99.1152
4.453419 93.465 -99.3685
4.485691 93.504 -99.6243
4.518196 93.544 -99.8828
4.550936 93.584 -100.1444
4.583914 93.624 -100.4099
4.617131 93.663 -100.6800
4.650589 93.703 -100.9554
4.684289 93.742 -101.2371
4.718233 93.781 -101.5254
4.752424 93.820 -101.8209
4.786862 93.858 -102.1238
4.821549 93.896 -102.4341
4.856488 93.934 -102.7518
4.891680 93.972 -103.0765
4.927127 94.009 -103.4084
4.962831 94.046 -103.7474
4.998794 94.082 -104.0935
5.035017 94.117 -104.4468
5.071503 94.152 -104.8075
5.108253 94.186 -105.1760
5.145270 94.219 -105.5524
5.182555 94.251 -105.9371
5.220110 94.282 -106.3299
5.257937 94.313 -106.7304
5.296038 94.342 -107.1382
5.334415 94.371 -107.5525
5.373071 94.398 -107.9725
5.412006 94.425 -108.3978
5.451224 94.450 -108.8279
5.490725 94.474 -109.2627
5.530514 94.497 -109.7024
5.570590 94.519 -110.1470
5.610957 94.540 -110.5964
5.651616 94.560 -111.0500
5.692570 94.579 -111.5073
5.733821 94.597 -111.9673
5.775370 94.614 -112.4290
5.817221 94.630 -112.8918
5.859375 94.645 -113.3554
5.901834 94.660 -113.8196
5.944602 94.674 -114.2845
5.987679 94.687 -114.7502
6.031068 94.699 -115.2163
6.074771 94.711 -115.6827
6.118792 94.723 -116.1489
6.163131 94.734 -116.6146
6.207792 94.746 -117.0792
6.252776 94.757 -117.5427
6.298086 94.769 -118.0051
6.343725 94.781 -118.4664
6.389694 94.792 -118.9272
6.435996 94.804 -119.3876
6.482634 94.817 -119.8481
6.529610 94.830 -120.3087
6.576926 94.844 -120.7698
6.624585 94.858 -121.2313
6.672590 94.873 -121.6934
6.720942 94.889 -122.1563
6.769645 94.906 -122.6206
6.818700 94.923 -123.0869
6.868111 94.941 -123.5557
6.917881 94.960 -124.0276
6.968010 94.980 -124.5030
7.018504 95.001 -124.9819
7.069362 95.023 -125.4646
7.120590 95.045 -125.9510
7.172189 95.068 -126.4414
7.224161 95.092 -126.9359
7.276511 95.116 -127.4348
7.329239 95.141 -127.9383
7.382350 95.166 -128.4462
7.435845 95.191 -128.9584
7.489729 95.217 -129.4744
7.544002 95.243 -129.9939
7.598669 95.269 -130.5163
7.653732 95.295 -131.0410
7.709194 95.321 -131.5679
7.765058 95.347 -132.0963
7.821327 95.373 -132.6260
7.878004 95.399 -133.1560
7.935091 95.424 -133.6855
7.992592 95.449 -134.2136
8.050510 95.475 -134.7394
8.108847 95.500 -135.2626
8.167607 95.524 -135.7824
8.226793 95.549 -136.2986
8.286408 95.573 -136.8102
8.346454 95.598 -137.3168
8.406936 95.622 -137.8177
8.467856 95.647 -138.3125
8.529218 95.671 -138.8010
8.591024 95.696 -139.2830
8.653278 95.721 -139.7585
8.715983 95.747 -140.2276
8.779143 95.772 -140.6901
8.842760 95.799 -141.1462
8.906839 95.825 -141.5961
8.971381 95.852 -142.0400
9.036392 95.880 -142.4785
9.101873 95.907 -142.9119
9.167829 95.936 -143.3408
9.234263 95.964 -143.7654
9.301178 95.993 -144.1861
9.368578 96.022 -144.6033
9.436467 96.052 -145.0174
9.504847 96.081 -145.4288
9.573723 96.110 -145.8377
9.643099 96.140 -146.2443
9.712976 96.168 -146.6486
9.783361 96.197 -147.0506
9.854255 96.225 -147.4502
9.925663 96.252 -147.8474
9.997588 96.279 -148.2419
10.070035 96.305 -148.6335
10.143007 96.330 -149.0219
10.216507 96.354 -149.4067
10.290540 96.377 -149.7875
10.365109 96.399 -150.1640
10.440219 96.420 -150.5359
10.515873 96.441 -150.9031
10.592076 96.460 -151.2651
10.668830 96.478 -151.6219
10.746141 96.495 -151.9734
10.824012 96.511 -152.3197
10.902447 96.527 -152.6610
10.981451 96.542 -152.9974
11.061027 96.556 -153.3294
11.141180 96.569 -153.6572
11.221913 96.581 -153.9813
11.303232 96.593 -154.3025
11.385140 96.605 -154.6212
11.467641 96.615 -154.9380
11.550741 96.625 -155.2535
11.634442 96.634 -155.5684
11.718750 96.643 -155.8832
11.803669 96.650 -156.1985
11.889203 96.657 -156.5147
11.975357 96.663 -156.8322
12.062136 96.668 -157.1512
12.149543 96.672 -157.4722
12.237583 96.675 -157.7953
12.326262 96.677 -158.1206
12.415583 96.678 -158.4483
12.505552 96.679 -158.7784
12.596172 96.678 -159.1109
12.687449 96.676 -159.4460
12.779387 96.673 -159.7838
12.871992 96.669 -160.1243
12.965268 96.665 -160.4676
13.059220 96.659 -160.8140
13.153852 96.653 -161.1635
13.249170 96.647 -161.5165
13.345179 96.640 -161.8732
13.441884 96.632 -162.2338
13.539289 96.624 -162.5986
13.637401 96.615 -162.9679
13.736223 96.606 -163.3417
13.835761 96.597 -163.7204
13.936021 96.587 -164.1040
14.037007 96.577 -164.4926
14.138725 96.567 -164.8862
14.241180 96.557 -165.2848
14.344377 96.547 -165.6883
14.448323 96.537 -166.0966
14.553021 96.527 -166.5095
14.658478 96.517 -166.9268
14.764700 96.507 -167.3484
14.871691 96.497 -167.7739
14.979457 96.487 -168.2030
15.088005 96.478 -168.6356
15.197339 96.469 -169.0712
15.307465 96.460 -169.5094
15.418389 96.452 -169.9500
15.530117 96.444 -170.3922
15.642655 96.437 -170.8358
15.756008 96.430 -171.2800
15.870182 96.423 -171.7242
15.985184 96.417 -172.1677
16.101019 96.412 -172.6100
16.217694 96.407 -173.0503
16.335214 96.402 -173.4879
16.453586 96.398 -173.9224
16.572815 96.395 -174.3533
16.692909 96.392 -174.7803
16.813872 96.391 -175.2032
16.935713 96.389 -175.6218
17.058436 96.389 -176.0363
17.182048 96.389 -176.4468
17.306556 96.390 -176.8534
17.431967 96.391 -177.2563
17.558286 96.392 -177.6556
17.685521 96.394 -178.0514
17.813677 96.395 -178.4435
17.942762 96.397 -178.8318
18.072783 96.398 -179.2158
18.203746 96.398 -179.5952
18.335658 96.398 -179.9691
18.468526 96.397 179.6629
18.602356 96.396 179.3013
18.737156 96.393 178.9467
18.872934 96.390 178.5993
19.009695 96.386 178.2593
19.147447 96.381 177.9262
19.286197 96.375 177.5998
19.425953 96.369 177.2792
19.566721 96.362 176.9635
19.708510 96.355 176.6517
19.851326 96.347 176.3425
19.995177 96.338 176.0349
20.140070 96.328 175.7278
20.286013 96.318 175.4201
20.433014 96.307 175.1112
20.581080 96.295 174.8005
20.730219 96.281 174.4874
20.880439 96.267 174.1715
21.031747 96.252 173.8527
21.184152 96.235 173.5306
21.337661 96.218 173.2051
21.492282 96.199 172.8759
21.648024 96.180 172.5426
21.804895 96.160 172.2051
21.962902 96.140 171.8629
22.122054 96.119 171.5159
22.282360 96.097 171.1638
22.443827 96.076 170.8064
22.606464 96.054 170.4438
22.770280 96.032 170.0760
22.935283 96.010 169.7030
23.101481 95.988 169.3250
23.268884 95.966 168.9424
23.437500 95.945 168.5554
23.607338 95.924 168.1644
23.778406 95.904 167.7700
23.950714 95.884 167.3726
24.124271 95.864 166.9730
24.299086 95.845 166.5718
24.475167 95.827 166.1698
24.652524 95.809 165.7678
24.831166 95.792 165.3666
25.011103 95.776 164.9671
25.192344 95.760 164.5697
25.374898 95.745 164.1752
25.558775 95.730 163.7839
25.743984 95.716 163.3963
25.930536 95.702 163.0127
26.118439 95.689 162.6334
26.307704 95.676 162.2587
26.498341 95.662 161.8889
26.690359 95.649 161.5242
26.883768 95.635 161.1650
27.078579 95.621 160.8114
27.274801 95.606 160.4634
27.472446 95.590 160.1208
27.671522 95.574 159.7833
27.872042 95.558 159.4503
28.074014 95.540 159.1212
28.277450 95.522 158.7954
28.482360 95.503 158.4719
28.688755 95.482 158.1500
28.896645 95.461 157.8290
29.106042 95.439 157.5081
29.316957 95.416 157.1866
29.529400 95.391 156.8637
29.743382 95.366 156.5389
29.958915 95.340 156.2115
30.176009 95.313 155.8810
30.394677 95.285 155.5469
30.614929 95.257 155.2089
30.836778 95.228 154.8668
31.060234 95.199 154.5206
31.285309 95.170 154.1703
31.512015 95.140 153.8159
31.740364 95.111 153.4575
31.970368 95.081 153.0952
32.202039 95.052 152.7293
32.435388 95.023 152.3598
32.670428 94.995 151.9872
32.907171 94.967 151.6119
33.145630 94.939 151.2345
33.385817 94.912 150.8559
33.627745 94.885 150.4769
33.871425 94.858 150.0985
34.116871 94.831 149.7219
34.364096 94.804 149.3478
34.613113 94.777 148.9770
34.863934 94.750 148.6100
35.116572 94.724 148.2470
35.371041 94.696 147.8883
35.627354 94.669 147.5337
35.885525 94.641 147.1831
36.145566 94.613 146.8366
36.407492 94.583 146.4940
36.671316 94.554 146.1552
36.937051 94.523 145.8200
37.204712 94.491 145.4880
37.474313 94.459 145.1586
37.745867 94.426 144.8310
38.019389 94.393 144.5043
38.294893 94.359 144.1774
38.572394 94.324 143.8497
38.851905 94.288 143.5204
39.133442 94.252 143.1892
39.417019 94.216 142.8559
39.702651 94.179 142.5207
39.990353 94.142 142.1836
40.280140 94.104 141.8448
40.572026 94.066 141.5042
40.866028 94.028 141.1620
41.162160 93.990 140.8179
41.460438 93.952 140.4721
41.760877 93.914 140.1250
42.063494 93.876 139.7774
42.368303 93.837 139.4307
42.675322 93.797 139.0865
42.984565 93.758 138.7461
43.296048 93.718 138.4102
43.609789 93.678 138.0789
43.925804 93.639 137.7509
44.244108 93.599 137.4248
44.564719 93.560 137.0990
44.887654 93.521 136.7724
45.212928 93.481 136.4445
45.540560 93.441 136.1157
45.870565 93.400 135.7867
46.202962 93.358 135.4583
46.537768 93.316 135.1309
46.875000 93.274 134.8047
47.214676 93.231 134.4795
47.556813 93.187 134.1546
47.901429 93.144 133.8299
48.248542 93.100 133.5052
48.598171 93.055 133.1811
48.950334 93.010 132.8581
49.305048 92.965 132.5371
49.662333 92.918 132.2189
50.022206 92.872 131.9035
50.384688 92.825 131.5907
50.749796 92.778 131.2802
51.117550 92.730 130.9715
51.487969 92.682 130.6647
51.861072 92.633 130.3600
52.236879 92.584 130.0573
52.615409 92.534 129.7561
52.996681 92.485 129.4555
53.380717 92.434 129.1545
53.767536 92.384 128.8522
54.157158 92.333 128.5488
54.549603 92.282 128.2444
54.944892 92.231 127.9395
55.343045 92.180 127.6342
55.744084 92.129 127.3280
56.148028 92.078 127.0206
56.554900 92.027 126.7122
56.964720 91.976 126.4035
57.377510 91.924 126.0950
57.793291 91.872 125.7870
58.212085 91.820 125.4790
58.633914 91.767 125.1708
59.058799 91.714 124.8624
59.486764 91.658 124.5551
59.917829 91.602 124.2504
60.352019 91.544 123.9496
60.789354 91.485 123.6533
61.229859 91.425 123.3612
61.673556 91.365 123.0727
62.120468 91.303 122.7872
62.570618 91.242 122.5038
63.024031 91.180 122.2214
63.480729 91.118 121.9390
63.940736 91.055 121.6563
64.404077 90.993 121.3737
64.870776 90.930 121.0924
65.340856 90.866 120.8139
65.814343 90.803 120.5391
66.291261 90.739 120.2681
66.771635 90.675 120.0002
67.255489 90.611 119.7349
67.742850 90.546 119.4720
68.233743 90.480 119.2117
68.728193 90.413 118.9543
69.226226 90.345 118.7002
69.727867 90.277 118.4493
70.233144 90.208 118.2010
70.742083 90.138 117.9548
71.254709 90.067 117.7100
71.771050 89.996 117.4665
72.291132 89.925 117.2244
72.814984 89.853 116.9840
73.342631 89.781 116.7454
73.874102 89.709 116.5089
74.409424 89.636 116.2753
74.948626 89.564 116.0454
75.491734 89.491 115.8198
76.038779 89.418 115.5980
76.589787 89.346 115.3790
77.144788 89.273 115.1611
77.703811 89.200 114.9436
78.266885 89.127 114.7263
78.834039 89.053 114.5090
79.405303 88.979 114.2915
79.980706 88.904 114.0733
80.560280 88.828 113.8540
81.144053 88.751 113.6332
81.732056 88.672 113.4116
82.324320 88.592 113.1911
82.920876 88.509 112.9739
83.521755 88.425 112.7615
84.126988 88.339 112.5541
84.736607 88.251 112.3518
85.350643 88.162 112.1553
85.969129 88.071 111.9661
86.592097 87.979 111.7864
87.219579 87.886 111.6177
