* Measurement data measured by REW V5.31.3
* Source: EXCL: Microphone (USB Sound Device        ), MICROPHONE (Master Volume), R, volume: 0.390
* Format: 256k Log Swept Sine, 1 sweep at -21.0 dBFS with no timing reference
* Dated: Jul 17, 2025 11:19:02 AM
* REW Settings:
*  C-weighting compensation: Off
*  Target level: 75.0 dB
* Note: Fearless S8F R
* Measurement: R Fearless S8F
* Smoothing: 1/12 octave
* Frequency Step: 96 ppo
* Start Frequency: 0.36621094 Hz
*
* Freq(Hz) SPL(dB) Phase(degrees)
0.366211 91.544 169.3049
0.368865 91.542 169.2931
0.371538 91.539 169.2756
0.374230 91.535 169.2536
0.376942 91.531 169.2283
0.379673 91.526 169.2006
0.382424 91.521 169.1711
0.385196 91.516 169.1400
0.387987 91.510 169.1077
0.390798 91.505 169.0742
0.393630 91.500 169.0396
0.396483 91.494 169.0038
0.399356 91.489 168.9670
0.402250 91.483 168.9290
0.405165 91.478 168.8900
0.408101 91.472 168.8498
0.411058 91.467 168.8085
0.414037 91.461 168.7660
0.417037 91.455 168.7225
0.420059 91.449 168.6777
0.423103 91.444 168.6319
0.426169 91.438 168.5848
0.429257 91.432 168.5366
0.432368 91.426 168.4872
0.435501 91.420 168.4366
0.438656 91.414 168.3848
0.441835 91.408 168.3318
0.445037 91.402 168.2776
0.448262 91.396 168.2221
0.451510 91.390 168.1655
0.454782 91.384 168.1076
0.458077 91.377 168.0485
0.461397 91.371 167.9881
0.464740 91.365 167.9265
0.468108 91.358 167.8636
0.471500 91.352 167.7995
0.474917 91.345 167.7342
0.478358 91.339 167.6675
0.481825 91.332 167.5997
0.485316 91.326 167.5305
0.488833 91.319 167.4601
0.492375 91.312 167.3884
0.495943 91.305 167.3154
0.499537 91.299 167.2412
0.503157 91.292 167.1657
0.506803 91.285 167.0889
0.510475 91.278 167.0109
0.514175 91.271 166.9316
0.517900 91.264 166.8511
0.521653 91.257 166.7693
0.525434 91.249 166.6863
0.529241 91.242 166.6020
0.533076 91.235 166.5165
0.536939 91.228 166.4298
0.540830 91.220 166.3418
0.544749 91.213 166.2527
0.548696 91.205 166.1624
0.552673 91.198 166.0708
0.556677 91.190 165.9781
0.560711 91.183 165.8843
0.564774 91.175 165.7893
0.568867 91.167 165.6932
0.572989 91.159 165.5960
0.577141 91.151 165.4977
0.581324 91.143 165.3984
0.585536 91.135 165.2980
0.589779 91.127 165.1966
0.594053 91.119 165.0942
0.598358 91.111 164.9909
0.602694 91.103 164.8866
0.607061 91.095 164.7814
0.611460 91.086 164.6754
0.615891 91.078 164.5685
0.620354 91.069 164.4609
0.624849 91.061 164.3524
0.629377 91.052 164.2433
0.633938 91.044 164.1335
0.638532 91.035 164.0231
0.643159 91.026 163.9121
0.647819 91.017 163.8006
0.652514 91.008 163.6886
0.657242 90.999 163.5762
0.662005 90.990 163.4634
0.666802 90.981 163.3504
0.671634 90.972 163.2371
0.676501 90.963 163.1236
0.681403 90.953 163.0101
0.686341 90.944 162.8965
0.691314 90.935 162.7830
0.696324 90.925 162.6696
0.701370 90.915 162.5564
0.706452 90.906 162.4434
0.711571 90.896 162.3307
0.716728 90.886 162.2182
0.721921 90.875 162.1060
0.727153 90.865 161.9938
0.732422 90.853 161.8813
0.737729 90.842 161.7684
0.743075 90.829 161.6545
0.748460 90.817 161.5395
0.753883 90.803 161.4231
0.759346 90.790 161.3052
0.764849 90.776 161.1857
0.770391 90.762 161.0646
0.775974 90.748 160.9417
0.781597 90.733 160.8172
0.787261 90.719 160.6909
0.792966 90.704 160.5630
0.798712 90.688 160.4334
0.804500 90.673 160.3021
0.810329 90.657 160.1692
0.816201 90.642 160.0347
0.822116 90.626 159.8985
0.828073 90.609 159.7607
0.834074 90.593 159.6214
0.840118 90.576 159.4805
0.846206 90.559 159.3381
0.852338 90.542 159.1943
0.858514 90.524 159.0490
0.864735 90.507 158.9022
0.871001 90.489 158.7541
0.877313 90.471 158.6047
0.883670 90.452 158.4540
0.890074 90.434 158.3020
0.896524 90.415 158.1489
0.903020 90.396 157.9947
0.909564 90.377 157.8394
0.916155 90.357 157.6831
0.922794 90.337 157.5259
0.929481 90.317 157.3678
0.936216 90.297 157.2090
0.943000 90.277 157.0495
0.949834 90.256 156.8894
0.956717 90.235 156.7288
0.963649 90.214 156.5678
0.970632 90.193 156.4065
0.977666 90.171 156.2450
0.984750 90.150 156.0835
0.991886 90.128 155.9220
0.999074 90.106 155.7607
1.006314 90.083 155.5998
1.013606 90.061 155.4393
1.020951 90.038 155.2795
1.028349 90.015 155.1205
1.035801 89.992 154.9624
1.043307 89.969 154.8055
1.050867 89.945 154.6499
1.058482 89.921 154.4958
1.066152 89.897 154.3434
1.073878 89.873 154.1929
1.081660 89.849 154.0443
1.089498 89.824 153.8979
1.097393 89.800 153.7538
1.105345 89.774 153.6118
1.113355 89.749 153.4720
1.121423 89.723 153.3344
1.129549 89.697 153.1988
1.137734 89.671 153.0654
1.145979 89.644 152.9339
1.154283 89.617 152.8044
1.162647 89.589 152.6768
1.171072 89.561 152.5510
1.179558 89.533 152.4271
1.188106 89.504 152.3050
1.196715 89.475 152.1846
1.205387 89.446 152.0659
1.214122 89.416 151.9489
1.222920 89.386 151.8334
1.231782 89.356 151.7193
1.240708 89.325 151.6068
1.249699 89.294 151.4955
1.258754 89.263 151.3856
1.267876 89.232 151.2768
1.277063 89.200 151.1692
1.286318 89.168 151.0625
1.295639 89.136 150.9568
1.305027 89.104 150.8519
1.314484 89.071 150.7476
1.324009 89.039 150.6439
1.333604 89.006 150.5406
1.343268 88.973 150.4377
1.353002 88.940 150.3349
1.362806 88.907 150.2321
1.372681 88.874 150.1291
1.382628 88.840 150.0259
1.392647 88.807 149.9222
1.402739 88.774 149.8179
1.412904 88.741 149.7128
1.423142 88.708 149.6068
1.433455 88.674 149.5000
1.443843 88.641 149.3922
1.454305 88.608 149.2839
1.464844 88.575 149.1751
1.475459 88.542 149.0666
1.486150 88.509 148.9586
1.496920 88.475 148.8516
1.507767 88.441 148.7459
1.518693 88.407 148.6417
1.529698 88.373 148.5391
1.540783 88.339 148.4381
1.551948 88.304 148.3387
1.563194 88.269 148.2408
1.574521 88.234 148.1443
1.585931 88.199 148.0493
1.597423 88.164 147.9555
1.608999 88.129 147.8629
1.620658 88.094 147.7715
1.632402 88.059 147.6810
1.644232 88.024 147.5914
1.656146 87.989 147.5025
1.668147 87.954 147.4141
1.680235 87.920 147.3263
1.692411 87.886 147.2387
1.704675 87.852 147.1512
1.717028 87.818 147.0637
1.729470 87.785 146.9759
1.742003 87.752 146.8878
1.754626 87.719 146.7990
1.767341 87.687 146.7096
1.780147 87.656 146.6194
1.793047 87.625 146.5285
1.806040 87.595 146.4370
1.819128 87.566 146.3451
1.832310 87.537 146.2536
1.845587 87.509 146.1630
1.858961 87.481 146.0740
1.872432 87.454 145.9871
1.886001 87.428 145.9025
1.899667 87.402 145.8202
1.913433 87.376 145.7401
1.927299 87.352 145.6619
1.941265 87.327 145.5852
1.955332 87.303 145.5097
1.969501 87.280 145.4349
1.983773 87.258 145.3602
1.998148 87.236 145.2851
2.012627 87.215 145.2090
2.027212 87.194 145.1314
2.041902 87.175 145.0515
2.056698 87.156 144.9688
2.071602 87.138 144.8825
2.086614 87.120 144.7919
2.101734 87.104 144.6963
2.116964 87.088 144.5951
2.132304 87.074 144.4875
2.147756 87.060 144.3730
2.163320 87.047 144.2515
2.178996 87.036 144.1227
2.194786 87.025 143.9872
2.210690 87.016 143.8454
2.226710 87.008 143.6981
2.242845 87.001 143.5460
2.259098 86.995 143.3893
2.275468 86.991 143.2283
2.291957 86.988 143.0626
2.308566 86.986 142.8922
2.325295 86.985 142.7164
2.342145 86.985 142.5350
2.359117 86.987 142.3472
2.376212 86.990 142.1526
2.393431 86.994 141.9504
2.410775 86.998 141.7402
2.428244 87.004 141.5211
2.445840 87.011 141.2925
2.463564 87.018 141.0538
2.481416 87.027 140.8042
2.499397 87.036 140.5430
2.517509 87.046 140.2698
2.535752 87.057 139.9840
2.554127 87.069 139.6856
2.572635 87.081 139.3744
2.591277 87.095 139.0508
2.610055 87.110 138.7150
2.628968 87.126 138.3673
2.648019 87.144 138.0081
2.667208 87.162 137.6375
2.686535 87.182 137.2558
2.706003 87.203 136.8632
2.725612 87.225 136.4596
2.745363 87.248 136.0453
2.765257 87.272 135.6203
2.785295 87.296 135.1845
2.805478 87.322 134.7381
2.825808 87.348 134.2809
2.846285 87.375 133.8129
2.866910 87.402 133.3339
2.887685 87.430 132.8435
2.908611 87.459 132.3415
2.929688 87.488 131.8275
2.950917 87.517 131.3012
2.972301 87.548 130.7622
2.993839 87.579 130.2107
3.015534 87.611 129.6468
3.037386 87.644 129.0709
3.059396 87.677 128.4836
3.081565 87.712 127.8855
3.103896 87.747 127.2771
3.126388 87.782 126.6592
3.149043 87.819 126.0322
3.171862 87.855 125.3967
3.194847 87.893 124.7532
3.217998 87.931 124.1019
3.241317 87.969 123.4429
3.264805 88.007 122.7760
3.288463 88.046 122.1007
3.312293 88.086 121.4164
3.336295 88.126 120.7225
3.360471 88.166 120.0188
3.384822 88.207 119.3054
3.409350 88.248 118.5831
3.434056 88.290 117.8528
3.458940 88.332 117.1157
3.484005 88.375 116.3733
3.509252 88.418 115.6267
3.534681 88.462 114.8774
3.560295 88.506 114.1267
3.586094 88.551 113.3754
3.612081 88.596 112.6241
3.638255 88.641 111.8732
3.664620 88.686 111.1222
3.691175 88.732 110.3706
3.717923 88.778 109.6177
3.744864 88.825 108.8633
3.772001 88.872 108.1075
3.799335 88.919 107.3508
3.826866 88.967 106.5942
3.854597 89.015 105.8387
3.882529 89.063 105.0855
3.910664 89.112 104.3358
3.939002 89.162 103.5906
3.967546 89.211 102.8508
3.996296 89.261 102.1169
4.025255 89.312 101.3891
4.054423 89.363 100.6672
4.083804 89.414 99.9507
4.113396 89.466 99.2394
4.143204 89.518 98.5334
4.173227 89.571 97.8328
4.203468 89.624 97.1384
4.233928 89.677 96.4509
4.264609 89.731 95.7709
4.295512 89.786 95.0993
4.326639 89.841 94.4369
4.357992 89.897 93.7842
4.389572 89.953 93.1416
4.421380 90.010 92.5092
4.453419 90.068 91.8867
4.485691 90.126 91.2741
4.518196 90.185 90.6710
4.550936 90.244 90.0773
4.583914 90.304 89.4927
4.617131 90.365 88.9172
4.650589 90.427 88.3508
4.684289 90.489 87.7936
4.718233 90.552 87.2456
4.752424 90.616 86.7071
4.786862 90.680 86.1781
4.821549 90.745 85.6588
4.856488 90.812 85.1489
4.891680 90.878 84.6481
4.927127 90.946 84.1559
4.962831 91.014 83.6719
4.998794 91.083 83.1953
5.035017 91.153 82.7258
5.071503 91.223 82.2628
5.108253 91.294 81.8061
5.145270 91.365 81.3558
5.182555 91.437 80.9117
5.220110 91.509 80.4739
5.257937 91.582 80.0422
5.296038 91.656 79.6162
5.334415 91.730 79.1955
5.373071 91.804 78.7794
5.412006 91.878 78.3675
5.451224 91.952 77.9593
5.490725 92.026 77.5546
5.530514 92.101 77.1531
5.570590 92.175 76.7549
5.610957 92.249 76.3600
5.651616 92.323 75.9685
5.692570 92.397 75.5804
5.733821 92.470 75.1955
5.775370 92.543 74.8139
5.817221 92.615 74.4353
5.859375 92.686 74.0596
5.901834 92.757 73.6866
5.944602 92.827 73.3165
5.987679 92.896 72.9494
6.031068 92.965 72.5856
6.074771 93.032 72.2255
6.118792 93.099 71.8695
6.163131 93.165 71.5180
6.207792 93.229 71.1710
6.252776 93.292 70.8285
6.298086 93.355 70.4908
6.343725 93.416 70.1577
6.389694 93.476 69.8295
6.435996 93.534 69.5067
6.482634 93.592 69.1897
6.529610 93.649 68.8787
6.576926 93.704 68.5742
6.624585 93.759 68.2761
6.672590 93.812 67.9845
6.720942 93.865 67.6993
6.769645 93.916 67.4205
6.818700 93.967 67.1481
6.868111 94.017 66.8820
6.917881 94.066 66.6223
6.968010 94.114 66.3690
7.018504 94.161 66.1220
7.069362 94.208 65.8810
7.120590 94.254 65.6456
7.172189 94.300 65.4154
7.224161 94.345 65.1898
7.276511 94.389 64.9684
7.329239 94.433 64.7507
7.382350 94.477 64.5365
7.435845 94.520 64.3254
7.489729 94.563 64.1168
7.544002 94.606 63.9101
7.598669 94.647 63.7045
7.653732 94.689 63.4993
7.709194 94.730 63.2941
7.765058 94.770 63.0886
7.821327 94.810 62.8822
7.878004 94.850 62.6747
7.935091 94.888 62.4656
7.992592 94.926 62.2545
8.050510 94.963 62.0409
8.108847 95.000 61.8247
8.167607 95.035 61.6057
8.226793 95.069 61.3838
8.286408 95.103 61.1592
8.346454 95.135 60.9318
8.406936 95.166 60.7016
8.467856 95.196 60.4687
8.529218 95.225 60.2332
8.591024 95.253 59.9952
8.653278 95.279 59.7552
8.715983 95.304 59.5132
8.779143 95.328 59.2697
8.842760 95.351 59.0248
8.906839 95.373 58.7786
8.971381 95.394 58.5313
9.036392 95.413 58.2830
9.101873 95.432 58.0340
9.167829 95.450 57.7843
9.234263 95.467 57.5339
9.301178 95.483 57.2827
9.368578 95.499 57.0307
9.436467 95.514 56.7775
9.504847 95.529 56.5229
9.573723 95.544 56.2667
9.643099 95.558 56.0087
9.712976 95.571 55.7483
9.783361 95.585 55.4852
9.854255 95.599 55.2188
9.925663 95.612 54.9489
9.997588 95.625 54.6749
10.070035 95.639 54.3966
10.143007 95.652 54.1137
10.216507 95.665 53.8257
10.290540 95.679 53.5324
10.365109 95.692 53.2337
10.440219 95.705 52.9294
10.515873 95.718 52.6198
10.592076 95.731 52.3047
10.668830 95.744 51.9844
10.746141 95.757 51.6590
10.824012 95.769 51.3289
10.902447 95.782 50.9945
10.981451 95.795 50.6561
11.061027 95.807 50.3141
11.141180 95.820 49.9691
11.221913 95.832 49.6214
11.303232 95.845 49.2715
11.385140 95.858 48.9198
11.467641 95.871 48.5668
11.550741 95.885 48.2127
11.634442 95.899 47.8579
11.718750 95.913 47.5026
11.803669 95.928 47.1471
11.889203 95.943 46.7915
11.975357 95.959 46.4359
12.062136 95.976 46.0805
12.149543 95.994 45.7253
12.237583 96.012 45.3705
12.326262 96.030 45.0162
12.415583 96.050 44.6624
12.505552 96.070 44.3093
12.596172 96.091 43.9571
12.687449 96.112 43.6060
12.779387 96.134 43.2563
12.871992 96.157 42.9084
12.965268 96.179 42.5625
13.059220 96.203 42.2190
13.153852 96.226 41.8784
13.249170 96.250 41.5410
13.345179 96.274 41.2073
13.441884 96.299 40.8776
13.539289 96.323 40.5523
13.637401 96.348 40.2317
13.736223 96.373 39.9161
13.835761 96.397 39.6058
13.936021 96.422 39.3008
14.037007 96.447 39.0013
14.138725 96.472 38.7074
14.241180 96.497 38.4192
14.344377 96.522 38.1366
14.448323 96.546 37.8597
14.553021 96.570 37.5883
14.658478 96.594 37.3225
14.764700 96.618 37.0621
14.871691 96.641 36.8072
14.979457 96.664 36.5575
15.088005 96.686 36.3131
15.197339 96.708 36.0737
15.307465 96.728 35.8393
15.418389 96.749 35.6096
15.530117 96.768 35.3844
15.642655 96.787 35.1634
15.756008 96.805 34.9462
15.870182 96.823 34.7324
15.985184 96.840 34.5217
16.101019 96.855 34.3136
16.217694 96.870 34.1075
16.335214 96.885 33.9031
16.453586 96.898 33.6998
16.572815 96.910 33.4972
16.692909 96.922 33.2948
16.813872 96.932 33.0924
16.935713 96.942 32.8895
17.058436 96.951 32.6859
17.182048 96.958 32.4813
17.306556 96.965 32.2754
17.431967 96.971 32.0680
17.558286 96.976 31.8588
17.685521 96.980 31.6476
17.813677 96.984 31.4340
17.942762 96.987 31.2177
18.072783 96.990 30.9984
18.203746 96.992 30.7757
18.335658 96.993 30.5492
18.468526 96.994 30.3186
18.602356 96.995 30.0836
18.737156 96.996 29.8440
18.872934 96.997 29.5997
19.009695 96.998 29.3505
19.147447 96.998 29.0965
19.286197 96.999 28.8378
19.425953 96.999 28.5747
19.566721 97.000 28.3074
19.708510 97.001 28.0363
19.851326 97.002 27.7618
19.995177 97.003 27.4841
20.140070 97.005 27.2039
20.286013 97.008 26.9215
20.433014 97.011 26.6373
20.581080 97.014 26.3519
20.730219 97.018 26.0657
20.880439 97.022 25.7793
21.031747 97.027 25.4932
21.184152 97.033 25.2079
21.337661 97.039 24.9239
21.492282 97.046 24.6420
21.648024 97.054 24.3626
21.804895 97.062 24.0862
21.962902 97.070 23.8133
22.122054 97.079 23.5444
22.282360 97.088 23.2798
22.443827 97.098 23.0198
22.606464 97.107 22.7647
22.770280 97.117 22.5145
22.935283 97.128 22.2694
23.101481 97.138 22.0294
23.268884 97.148 21.7944
23.437500 97.158 21.5642
23.607338 97.168 21.3387
23.778406 97.177 21.1177
23.950714 97.186 20.9008
24.124271 97.194 20.6878
24.299086 97.202 20.4782
24.475167 97.209 20.2719
24.652524 97.216 20.0684
24.831166 97.222 19.8675
25.011103 97.226 19.6686
25.192344 97.230 19.4715
25.374898 97.233 19.2756
25.558775 97.236 19.0806
25.743984 97.237 18.8857
25.930536 97.238 18.6903
26.118439 97.238 18.4938
26.307704 97.237 18.2955
26.498341 97.236 18.0947
26.690359 97.235 17.8908
26.883768 97.233 17.6834
27.078579 97.230 17.4721
27.274801 97.227 17.2570
27.472446 97.224 17.0379
27.671522 97.220 16.8151
27.872042 97.216 16.5888
28.074014 97.212 16.3594
28.277450 97.209 16.1270
28.482360 97.205 15.8921
28.688755 97.202 15.6549
28.896645 97.199 15.4158
29.106042 97.197 15.1750
29.316957 97.195 14.9329
29.529400 97.193 14.6899
29.743382 97.192 14.4466
29.958915 97.192 14.2034
30.176009 97.192 13.9610
30.394677 97.192 13.7199
30.614929 97.193 13.4807
30.836778 97.195 13.2439
31.060234 97.197 13.0096
31.285309 97.199 12.7781
31.512015 97.201 12.5493
31.740364 97.204 12.3233
31.970368 97.206 12.0999
32.202039 97.209 11.8790
32.435388 97.211 11.6607
32.670428 97.213 11.4447
32.907171 97.214 11.2312
33.145630 97.215 11.0201
33.385817 97.215 10.8112
33.627745 97.215 10.6042
33.871425 97.214 10.3987
34.116871 97.212 10.1941
34.364096 97.210 9.9898
34.613113 97.208 9.7851
34.863934 97.204 9.5796
35.116572 97.201 9.3730
35.371041 97.196 9.1651
35.627354 97.191 8.9558
35.885525 97.186 8.7450
36.145566 97.180 8.5328
36.407492 97.175 8.3189
36.671316 97.169 8.1033
36.937051 97.163 7.8858
37.204712 97.157 7.6664
37.474313 97.152 7.4453
37.745867 97.146 7.2229
38.019389 97.140 6.9999
38.294893 97.134 6.7769
38.572394 97.129 6.5544
38.851905 97.123 6.3332
39.133442 97.118 6.1135
39.417019 97.113 5.8958
39.702651 97.108 5.6800
39.990353 97.103 5.4663
40.280140 97.098 5.2546
40.572026 97.094 5.0449
40.866028 97.089 4.8370
41.162160 97.084 4.6307
41.460438 97.079 4.4258
41.760877 97.074 4.2221
42.063494 97.068 4.0193
42.368303 97.063 3.8174
42.675322 97.057 3.6162
42.984565 97.050 3.4154
43.296048 97.044 3.2149
43.609789 97.038 3.0142
43.925804 97.031 2.8130
44.244108 97.024 2.6111
44.564719 97.017 2.4085
44.887654 97.010 2.2054
45.212928 97.003 2.0023
45.540560 96.995 1.7994
45.870565 96.988 1.5970
46.202962 96.981 1.3950
46.537768 96.973 1.1936
46.875000 96.966 0.9927
47.214676 96.958 0.7925
47.556813 96.950 0.5935
47.901429 96.943 0.3960
48.248542 96.935 0.1999
48.598171 96.927 0.0050
48.950334 96.919 -0.1896
49.305048 96.911 -0.3846
49.662333 96.903 -0.5806
50.022206 96.895 -0.7775
50.384688 96.886 -0.9750
50.749796 96.877 -1.1725
51.117550 96.867 -1.3693
51.487969 96.857 -1.5651
51.861072 96.847 -1.7595
52.236879 96.838 -1.9525
52.615409 96.828 -2.1441
52.996681 96.819 -2.3343
53.380717 96.809 -2.5233
53.767536 96.801 -2.7113
54.157158 96.792 -2.8985
54.549603 96.784 -3.0851
54.944892 96.777 -3.2713
55.343045 96.769 -3.4574
55.744084 96.762 -3.6439
56.148028 96.755 -3.8316
56.554900 96.749 -4.0215
56.964720 96.742 -4.2146
57.377510 96.735 -4.4113
57.793291 96.728 -4.6118
58.212085 96.719 -4.8157
58.633914 96.711 -5.0224
59.058799 96.701 -5.2311
59.486764 96.691 -5.4412
59.917829 96.680 -5.6519
60.352019 96.669 -5.8626
60.789354 96.657 -6.0722
61.229859 96.644 -6.2802
61.673556 96.632 -6.4861
62.120468 96.620 -6.6897
62.570618 96.607 -6.8912
63.024031 96.595 -7.0906
63.480729 96.583 -7.2879
63.940736 96.570 -7.4830
64.404077 96.557 -7.6758
64.870776 96.545 -7.8663
65.340856 96.532 -8.0547
65.814343 96.519 -8.2414
66.291261 96.505 -8.4267
66.771635 96.492 -8.6111
67.255489 96.478 -8.7950
67.742850 96.465 -8.9789
68.233743 96.451 -9.1632
68.728193 96.437 -9.3483
69.226226 96.424 -9.5342
69.727867 96.410 -9.7208
70.233144 96.396 -9.9077
70.742083 96.383 -10.0946
71.254709 96.369 -10.2812
71.771050 96.356 -10.4674
72.291132 96.343 -10.6530
72.814984 96.330 -10.8381
73.342631 96.317 -11.0229
73.874102 96.304 -11.2073
74.409424 96.291 -11.3914
74.948626 96.278 -11.5753
75.491734 96.265 -11.7590
76.038779 96.252 -11.9428
76.589787 96.240 -12.1273
77.144788 96.227 -12.3130
77.703811 96.215 -12.5006
78.266885 96.203 -12.6906
78.834039 96.190 -12.8839
79.405303 96.178 -13.0812
79.980706 96.166 -13.2838
80.560280 96.153 -13.4925
81.144053 96.140 -13.7077
81.732056 96.126 -13.9292
82.324320 96.111 -14.1559
82.920876 96.094 -14.3860
83.521755 96.075 -14.6166
84.126988 96.055 -14.8446
84.736607 96.033 -15.0667
85.350643 96.010 -15.2805
85.969129 95.987 -15.4845
86.592097 95.963 -15.6787
87.219579 95.939 -15.8641
87.851608 95.915 -16.0420
88.488217 95.892 -16.2141
89.129439 95.869 -16.3822
89.775308 95.846 -16.5474
90.425856 95.824 -16.7107
91.081119 95.802 -16.8726
91.741131 95.781 -17.0337
92.405925 95.760 -17.1946
93.075536 95.739 -17.3558
93.750000 95.718 -17.5177
94.429351 95.698 -17.6806
95.113625 95.678 -17.8440
95.802858 95.658 -18.0076
96.497085 95.637 -18.1705
97.196342 95.616 -18.3322
97.900667 95.594 -18.4922
98.610096 95.572 -18.6499
99.324665 95.550 -18.8049
100.044413 95.528 -18.9568
100.769376 95.505 -19.1051
101.499592 95.483 -19.2498
102.235100 95.461 -19.3916
102.975938 95.440 -19.5318
103.722144 95.419 -19.6724
104.473757 95.399 -19.8150
