* Measurement data measured by REW V5.30 beta 5
* Source: EXCL: Microphone (Realtek(R) Audio), MICROPHONE (Master Volume), L, volume: 0.250
* Format: 256k Log Swept Sine, 1 sweep at -13.0 dBFS with no timing reference
* Dated: Dec 15, 2023 12:06:40 AM
* REW Settings:
*  C-weighting compensation: Off
*  Target level: 75.0 dB
* Note: 
* Measurement: L Fir Audio Neon 4
* Smoothing: 1/24 octave
* Frequency Step: 96 ppo
* Start Frequency: 0.36621094 Hz
*
* Freq(Hz) SPL(dB) Phase(degrees)
0.366211 62.502 -6.7445
0.368865 62.521 -6.7014
0.371538 62.548 -6.6389
0.374230 62.578 -6.5677
0.376942 62.610 -6.4924
0.379673 62.643 -6.4148
0.382424 62.675 -6.3354
0.385196 62.708 -6.2545
0.387987 62.741 -6.1720
0.390798 62.775 -6.0879
0.393630 62.809 -6.0022
0.396483 62.842 -5.9150
0.399356 62.877 -5.8262
0.402250 62.911 -5.7357
0.405165 62.946 -5.6437
0.408101 62.981 -5.5500
0.411058 63.016 -5.4546
0.414037 63.051 -5.3577
0.417037 63.087 -5.2590
0.420059 63.123 -5.1587
0.423103 63.159 -5.0568
0.426169 63.196 -4.9531
0.429257 63.233 -4.8478
0.432367 63.270 -4.7408
0.435501 63.307 -4.6322
0.438656 63.344 -4.5218
0.441835 63.382 -4.4098
0.445037 63.420 -4.2960
0.448262 63.459 -4.1806
0.451510 63.497 -4.0635
0.454782 63.536 -3.9448
0.458077 63.575 -3.8243
0.461397 63.615 -3.7022
0.464740 63.655 -3.5785
0.468108 63.695 -3.4531
0.471500 63.735 -3.3261
0.474917 63.776 -3.1975
0.478358 63.817 -3.0672
0.481825 63.858 -2.9354
0.485316 63.900 -2.8020
0.488833 63.941 -2.6671
0.492375 63.984 -2.5307
0.495943 64.026 -2.3928
0.499537 64.069 -2.2534
0.503157 64.112 -2.1126
0.506803 64.155 -1.9704
0.510475 64.199 -1.8269
0.514174 64.243 -1.6820
0.517900 64.287 -1.5358
0.521653 64.332 -1.3884
0.525433 64.377 -1.2398
0.529241 64.422 -1.0901
0.533076 64.468 -0.9392
0.536939 64.514 -0.7873
0.540830 64.560 -0.6344
0.544749 64.607 -0.4806
0.548696 64.654 -0.3260
0.552673 64.701 -0.1705
0.556677 64.749 -0.0143
0.560711 64.797 0.1426
0.564774 64.845 0.3001
0.568867 64.894 0.4581
0.572989 64.943 0.6165
0.577141 64.992 0.7753
0.581324 65.042 0.9343
0.585536 65.092 1.0936
0.589779 65.143 1.2529
0.594053 65.194 1.4123
0.598358 65.245 1.5715
0.602694 65.297 1.7306
0.607061 65.348 1.8894
0.611460 65.401 2.0478
0.615891 65.454 2.2057
0.620354 65.507 2.3630
0.624849 65.560 2.5196
0.629377 65.614 2.6754
0.633938 65.668 2.8303
0.638532 65.723 2.9841
0.643159 65.778 3.1368
0.647819 65.834 3.2882
0.652514 65.889 3.4383
0.657242 65.946 3.5869
0.662005 66.002 3.7338
0.666802 66.059 3.8791
0.671634 66.117 4.0225
0.676501 66.175 4.1639
0.681403 66.233 4.3033
0.686341 66.292 4.4405
0.691314 66.351 4.5754
0.696324 66.411 4.7079
0.701369 66.471 4.8379
0.706452 66.531 4.9652
0.711571 66.592 5.0899
0.716727 66.654 5.2117
0.721921 66.717 5.3308
0.727153 66.782 5.4477
0.732422 66.851 5.5632
0.737729 66.927 5.6793
0.743075 67.008 5.7980
0.748460 67.092 5.9199
0.753883 67.178 6.0452
0.759346 67.267 6.1737
0.764849 67.357 6.3051
0.770391 67.449 6.4390
0.775974 67.542 6.5751
0.781597 67.638 6.7129
0.787261 67.735 6.8521
0.792965 67.833 6.9923
0.798712 67.934 7.1332
0.804499 68.036 7.2744
0.810329 68.140 7.4155
0.816201 68.246 7.5561
0.822116 68.353 7.6960
0.828073 68.462 7.8347
0.834073 68.573 7.9719
0.840118 68.685 8.1072
0.846205 68.798 8.2403
0.852337 68.914 8.3709
0.858514 69.030 8.4986
0.864735 69.149 8.6231
0.871001 69.269 8.7441
0.877313 69.390 8.8612
0.883670 69.512 8.9741
0.890074 69.636 9.0826
0.896523 69.762 9.1863
0.903020 69.889 9.2849
0.909564 70.016 9.3781
0.916155 70.146 9.4657
0.922793 70.276 9.5474
0.929480 70.407 9.6229
0.936216 70.540 9.6919
0.943000 70.673 9.7542
0.949833 70.808 9.8095
0.956716 70.943 9.8576
0.963649 71.079 9.8982
0.970632 71.216 9.9311
0.977666 71.354 9.9562
0.984750 71.492 9.9731
0.991886 71.631 9.9816
0.999074 71.771 9.9817
1.006313 71.910 9.9729
1.013605 72.050 9.9553
1.020950 72.191 9.9285
1.028349 72.331 9.8924
1.035801 72.472 9.8469
1.043306 72.612 9.7917
1.050867 72.752 9.7268
1.058482 72.892 9.6519
1.066152 73.032 9.5670
1.073878 73.171 9.4720
1.081659 73.310 9.3669
1.089498 73.448 9.2525
1.097393 73.586 9.1300
1.105345 73.723 9.0027
1.113355 73.861 8.8737
1.121422 74.000 8.7448
1.129549 74.139 8.6166
1.137734 74.279 8.4889
1.145978 74.419 8.3615
1.154283 74.560 8.2341
1.162647 74.702 8.1064
1.171072 74.845 7.9779
1.179558 74.988 7.8484
1.188106 75.132 7.7176
1.196715 75.277 7.5850
1.205387 75.422 7.4503
1.214122 75.567 7.3133
1.222920 75.713 7.1736
1.231781 75.860 7.0310
1.240708 76.007 6.8850
1.249698 76.155 6.7354
1.258754 76.303 6.5818
1.267875 76.451 6.4241
1.277063 76.600 6.2619
1.286317 76.750 6.0949
1.295638 76.899 5.9228
1.305027 77.049 5.7454
1.314484 77.199 5.5623
1.324009 77.349 5.3733
1.333603 77.500 5.1781
1.343267 77.650 4.9764
1.353001 77.801 4.7679
1.362805 77.952 4.5525
1.372681 78.103 4.3297
1.382628 78.254 4.0993
1.392647 78.404 3.8611
1.402739 78.555 3.6147
1.412904 78.705 3.3599
1.423142 78.855 3.0965
1.433455 79.005 2.8241
1.443842 79.155 2.5428
1.454305 79.304 2.2528
1.464843 79.453 1.9554
1.475458 79.602 1.6529
1.486150 79.750 1.3476
1.496919 79.898 1.0409
1.507766 80.045 0.7330
1.518692 80.193 0.4239
1.529697 80.339 0.1136
1.540782 80.486 -0.1982
1.551947 80.632 -0.5117
1.563193 80.778 -0.8271
1.574521 80.924 -1.1447
1.585931 81.069 -1.4647
1.597423 81.214 -1.7873
1.608998 81.359 -2.1127
1.620658 81.503 -2.4414
1.632402 81.647 -2.7734
1.644231 81.791 -3.1092
1.656146 81.934 -3.4489
1.668147 82.077 -3.7929
1.680235 82.220 -4.1414
1.692410 82.363 -4.4948
1.704674 82.505 -4.8533
1.717027 82.647 -5.2173
1.729469 82.789 -5.5870
1.742002 82.930 -5.9629
1.754625 83.072 -6.3452
1.767340 83.213 -6.7343
1.780147 83.354 -7.1306
1.793046 83.495 -7.5343
1.806040 83.635 -7.9458
1.819127 83.776 -8.3651
1.832309 83.916 -8.7922
1.845587 84.055 -9.2262
1.858961 84.194 -9.6662
1.872431 84.332 -10.1115
1.886000 84.470 -10.5615
1.899666 84.606 -11.0158
1.913432 84.742 -11.4740
1.927298 84.877 -11.9357
1.941264 85.012 -12.4007
1.955331 85.145 -12.8687
1.969500 85.278 -13.3394
1.983772 85.411 -13.8126
1.998147 85.542 -14.2883
2.012626 85.673 -14.7661
2.027211 85.804 -15.2461
2.041901 85.933 -15.7281
2.056697 86.062 -16.2121
2.071601 86.191 -16.6981
2.086613 86.319 -17.1861
2.101733 86.447 -17.6762
2.116963 86.574 -18.1684
2.132303 86.701 -18.6628
2.147755 86.827 -19.1596
2.163318 86.953 -19.6591
2.178995 87.079 -20.1617
2.194785 87.204 -20.6680
2.210689 87.328 -21.1792
2.226709 87.452 -21.6962
2.242844 87.574 -22.2191
2.259097 87.696 -22.7476
2.275467 87.816 -23.2810
2.291956 87.936 -23.8188
2.308565 88.054 -24.3602
2.325294 88.172 -24.9047
2.342144 88.288 -25.4516
2.359116 88.404 -26.0004
2.376211 88.519 -26.5507
2.393430 88.633 -27.1018
2.410774 88.746 -27.6534
2.428243 88.858 -28.2050
2.445839 88.970 -28.7562
2.463562 89.081 -29.3068
2.481415 89.191 -29.8563
2.499396 89.301 -30.4046
2.517508 89.410 -30.9514
2.535750 89.519 -31.4970
2.554126 89.627 -32.0420
2.572634 89.734 -32.5880
2.591276 89.840 -33.1375
2.610054 89.945 -33.6917
2.628967 90.049 -34.2508
2.648018 90.152 -34.8141
2.667206 90.254 -35.3809
2.686534 90.354 -35.9505
2.706002 90.453 -36.5220
2.725610 90.552 -37.0946
2.745361 90.649 -37.6675
2.765255 90.745 -38.2398
2.785294 90.841 -38.8109
2.805477 90.936 -39.3799
2.825807 91.030 -39.9460
2.846284 91.123 -40.5087
2.866909 91.216 -41.0672
2.887684 91.308 -41.6211
2.908609 91.400 -42.1703
2.929686 91.491 -42.7158
2.950916 91.581 -43.2601
2.972299 91.670 -43.8052
2.993838 91.758 -44.3522
3.015532 91.844 -44.9009
3.037384 91.930 -45.4510
3.059394 92.014 -46.0015
3.081564 92.097 -46.5520
3.103894 92.180 -47.1014
3.126386 92.261 -47.6491
3.149041 92.342 -48.1942
3.171861 92.422 -48.7358
3.194845 92.502 -49.2733
3.217996 92.581 -49.8056
3.241315 92.660 -50.3321
3.264803 92.738 -50.8523
3.288461 92.816 -51.3664
3.312291 92.894 -51.8753
3.336293 92.970 -52.3812
3.360469 93.046 -52.8850
3.384820 93.121 -53.3871
3.409348 93.195 -53.8874
3.434054 93.268 -54.3857
3.458938 93.341 -54.8815
3.484003 93.413 -55.3746
3.509250 93.484 -55.8645
3.534679 93.556 -56.3506
3.560293 93.626 -56.8326
3.586092 93.697 -57.3100
3.612079 93.768 -57.7823
3.638253 93.839 -58.2491
3.664618 93.910 -58.7104
3.691173 93.981 -59.1666
3.717921 94.051 -59.6183
3.744862 94.121 -60.0660
3.771999 94.191 -60.5101
3.799332 94.260 -60.9509
3.826864 94.329 -61.3886
3.854595 94.398 -61.8233
3.882527 94.467 -62.2554
3.910661 94.535 -62.6850
3.938999 94.604 -63.1121
3.967543 94.673 -63.5370
3.996294 94.743 -63.9595
4.025252 94.813 -64.3795
4.054421 94.883 -64.7967
4.083801 94.953 -65.2106
4.113394 95.023 -65.6214
4.143201 95.094 -66.0295
4.173225 95.164 -66.4353
4.203466 95.235 -66.8395
4.233926 95.305 -67.2427
4.264606 95.376 -67.6453
4.295509 95.447 -68.0480
4.326636 95.518 -68.4514
4.357989 95.589 -68.8558
4.389569 95.661 -69.2614
4.421378 95.732 -69.6678
4.453417 95.804 -70.0745
4.485688 95.876 -70.4813
4.518193 95.948 -70.8883
4.550934 96.021 -71.2957
4.583912 96.093 -71.7039
4.617129 96.165 -72.1131
4.650587 96.237 -72.5238
4.684287 96.309 -72.9363
4.718231 96.381 -73.3511
4.752421 96.453 -73.7684
4.786859 96.524 -74.1886
4.821547 96.595 -74.6116
4.856485 96.666 -75.0373
4.891677 96.737 -75.4653
4.927125 96.808 -75.8953
4.962829 96.878 -76.3269
4.998791 96.948 -76.7598
5.035015 97.017 -77.1938
5.071500 97.086 -77.6286
5.108251 97.154 -78.0644
5.145267 97.222 -78.5018
5.182552 97.288 -78.9416
5.220107 97.355 -79.3840
5.257934 97.420 -79.8286
5.296035 97.485 -80.2746
5.334412 97.550 -80.7212
5.373067 97.613 -81.1674
5.412003 97.676 -81.6124
5.451221 97.739 -82.0557
5.490722 97.800 -82.4972
5.530510 97.861 -82.9377
5.570587 97.921 -83.3781
5.610953 97.980 -83.8186
5.651613 98.039 -84.2586
5.692567 98.096 -84.6974
5.733818 98.153 -85.1342
5.775367 98.210 -85.5680
5.817218 98.266 -85.9981
5.859372 98.322 -86.4242
5.901831 98.377 -86.8469
5.944598 98.431 -87.2666
5.987675 98.485 -87.6838
6.031065 98.539 -88.0983
6.074768 98.592 -88.5100
6.118788 98.644 -88.9186
6.163127 98.697 -89.3238
6.207788 98.749 -89.7252
6.252772 98.802 -90.1228
6.298082 98.854 -90.5166
6.343721 98.906 -90.9069
6.389690 98.958 -91.2941
6.435992 99.009 -91.6788
6.482630 99.061 -92.0613
6.529606 99.113 -92.4420
6.576922 99.165 -92.8211
6.624581 99.217 -93.1983
6.672585 99.269 -93.5735
6.720938 99.321 -93.9468
6.769640 99.374 -94.3186
6.818696 99.426 -94.6897
6.868107 99.479 -95.0605
6.917876 99.531 -95.4317
6.968006 99.584 -95.8035
7.018499 99.636 -96.1759
7.069358 99.689 -96.5486
7.120586 99.741 -96.9217
7.172184 99.794 -97.2953
7.224157 99.846 -97.6696
7.276506 99.898 -98.0449
7.329235 99.950 -98.4214
7.382345 100.002 -98.7994
7.435841 100.053 -99.1788
7.489724 100.104 -99.5593
7.543997 100.155 -99.9405
7.598664 100.205 -100.3221
7.653728 100.255 -100.7037
7.709189 100.304 -101.0853
7.765053 100.353 -101.4674
7.821322 100.401 -101.8499
7.877998 100.449 -102.2325
7.935086 100.496 -102.6144
7.992587 100.543 -102.9951
8.050504 100.589 -103.3741
8.108841 100.635 -103.7516
8.167601 100.680 -104.1278
8.226787 100.725 -104.5027
8.286402 100.769 -104.8760
8.346449 100.813 -105.2472
8.406931 100.857 -105.6162
8.467851 100.900 -105.9828
8.529212 100.943 -106.3471
8.591018 100.986 -106.7094
8.653272 101.029 -107.0699
8.715977 101.071 -107.4286
8.779137 101.113 -107.7856
8.842754 101.156 -108.1410
8.906833 101.198 -108.4947
8.971375 101.240 -108.8470
9.036386 101.282 -109.1983
9.101867 101.324 -109.5490
9.167823 101.365 -109.8992
9.234257 101.407 -110.2492
9.301172 101.449 -110.5988
9.368572 101.490 -110.9481
9.436460 101.531 -111.2974
9.504841 101.572 -111.6469
9.573717 101.613 -111.9968
9.643092 101.653 -112.3469
9.712970 101.694 -112.6973
9.783354 101.733 -113.0476
9.854248 101.773 -113.3979
9.925656 101.812 -113.7479
9.997581 101.851 -114.0979
10.070028 101.889 -114.4477
10.143000 101.927 -114.7970
10.216500 101.964 -115.1453
10.290533 102.002 -115.4925
10.365103 102.038 -115.8388
10.440212 102.074 -116.1840
10.515866 102.110 -116.5279
10.592069 102.146 -116.8704
10.668823 102.181 -117.2114
10.746134 102.216 -117.5508
10.824005 102.251 -117.8889
10.902440 102.286 -118.2256
10.981443 102.320 -118.5610
11.061020 102.354 -118.8952
11.141172 102.388 -119.2281
11.221906 102.421 -119.5600
11.303225 102.455 -119.8911
11.385133 102.488 -120.2214
11.467634 102.521 -120.5510
11.550734 102.554 -120.8800
11.634435 102.587 -121.2084
11.718742 102.619 -121.5363
11.803661 102.651 -121.8637
11.889195 102.683 -122.1906
11.975349 102.714 -122.5169
12.062128 102.746 -122.8425
12.149535 102.777 -123.1673
12.237576 102.807 -123.4914
12.326254 102.838 -123.8145
12.415575 102.868 -124.1367
12.505544 102.897 -124.4577
12.596164 102.927 -124.7776
12.687441 102.956 -125.0963
12.779379 102.985 -125.4140
12.871984 103.014 -125.7305
12.965260 103.043 -126.0460
13.059211 103.071 -126.3604
13.153843 103.099 -126.6740
13.249161 103.127 -126.9868
13.345170 103.155 -127.2988
13.441875 103.183 -127.6102
13.539280 103.210 -127.9211
13.637391 103.238 -128.2314
13.736214 103.265 -128.5413
13.835752 103.292 -128.8506
13.936011 103.318 -129.1594
14.036998 103.344 -129.4676
14.138716 103.371 -129.7751
14.241171 103.396 -130.0818
14.344368 103.422 -130.3876
14.448313 103.447 -130.6924
14.553011 103.472 -130.9961
14.658468 103.497 -131.2987
14.764689 103.521 -131.6001
14.871680 103.546 -131.9004
14.979446 103.570 -132.1995
15.087994 103.594 -132.4975
15.197328 103.618 -132.7944
15.307454 103.641 -133.0903
15.418378 103.665 -133.3852
15.530106 103.688 -133.6793
15.642643 103.711 -133.9725
15.755996 103.734 -134.2650
15.870171 103.757 -134.5565
15.985172 103.780 -134.8472
16.101007 103.802 -135.1370
16.217682 103.824 -135.4257
16.335201 103.846 -135.7135
16.453573 103.868 -136.0001
16.572803 103.890 -136.2856
16.692898 103.911 -136.5700
16.813862 103.933 -136.8533
16.935701 103.954 -137.1357
17.058424 103.975 -137.4171
17.182035 103.996 -137.6978
17.306543 104.017 -137.9779
17.431953 104.038 -138.2575
17.558273 104.059 -138.5367
17.685509 104.079 -138.8156
17.813665 104.099 -139.0943
17.942751 104.119 -139.3725
18.072771 104.139 -139.6504
18.203733 104.159 -139.9276
18.335646 104.178 -140.2040
18.468513 104.197 -140.4794
18.602345 104.215 -140.7537
18.737144 104.234 -141.0266
18.872921 104.252 -141.2980
19.009682 104.270 -141.5678
19.147434 104.287 -141.8361
19.286184 104.305 -142.1029
19.425940 104.322 -142.3683
19.566708 104.340 -142.6325
19.708496 104.357 -142.8955
19.851313 104.374 -143.1575
19.995163 104.391 -143.4187
20.140057 104.408 -143.6790
20.285999 104.424 -143.9386
20.433001 104.441 -144.1975
20.581066 104.457 -144.4556
20.730206 104.473 -144.7128
20.880424 104.489 -144.9693
21.031733 104.505 -145.2249
21.184137 104.521 -145.4797
21.337646 104.536 -145.7337
21.492268 104.552 -145.9871
21.648010 104.567 -146.2397
21.804880 104.582 -146.4918
21.962887 104.597 -146.7433
22.122040 104.612 -146.9943
22.282345 104.627 -147.2447
22.443811 104.641 -147.4945
22.606449 104.655 -147.7436
22.770266 104.670 -147.9919
22.935268 104.683 -148.2393
23.101467 104.697 -148.4859
23.268869 104.711 -148.7314
23.437485 104.724 -148.9761
23.607323 104.737 -149.2198
23.778391 104.751 -149.4626
23.950699 104.764 -149.7047
24.124256 104.777 -149.9460
24.299070 104.789 -150.1866
24.475151 104.802 -150.4264
24.652508 104.814 -150.6654
24.831150 104.827 -150.9035
25.011087 104.839 -151.1406
25.192327 104.851 -151.3766
25.374882 104.863 -151.6114
25.558758 104.875 -151.8450
25.743967 104.887 -152.0775
25.930519 104.898 -152.3090
26.118422 104.910 -152.5398
26.307686 104.922 -152.7701
26.498322 104.933 -153.0000
26.690340 104.945 -153.2299
26.883749 104.956 -153.4597
27.078560 104.968 -153.6895
27.274782 104.979 -153.9190
27.472427 104.989 -154.1478
27.671503 105.000 -154.3755
27.872023 105.010 -154.6018
28.073996 105.020 -154.8264
28.277431 105.030 -155.0490
28.482342 105.040 -155.2700
28.688736 105.050 -155.4897
28.896626 105.060 -155.7087
29.106022 105.070 -155.9276
29.316936 105.080 -156.1470
29.529379 105.090 -156.3670
29.743361 105.100 -156.5877
29.958893 105.110 -156.8085
30.175987 105.119 -157.0289
30.394655 105.128 -157.2480
30.614908 105.137 -157.4656
30.836756 105.146 -157.6816
31.060211 105.155 -157.8963
31.285286 105.164 -158.1107
31.511992 105.174 -158.3257
31.740341 105.183 -158.5423
31.970345 105.192 -158.7609
32.202015 105.201 -158.9815
32.435364 105.210 -159.2031
32.670403 105.218 -159.4248
32.907146 105.226 -159.6452
33.145607 105.233 -159.8634
33.385796 105.240 -160.0794
33.627724 105.247 -160.2935
33.871403 105.255 -160.5071
34.116848 105.262 -160.7214
34.364071 105.270 -160.9372
34.613087 105.277 -161.1550
34.863907 105.284 -161.3740
35.116547 105.290 -161.5929
35.371017 105.296 -161.8102
35.627331 105.301 -162.0246
35.885502 105.306 -162.2357
36.145542 105.311 -162.4436
36.407467 105.316 -162.6494
36.671291 105.321 -162.8543
36.937027 105.326 -163.0591
37.204689 105.331 -163.2640
37.474289 105.336 -163.4684
37.745842 105.340 -163.6712
38.019363 105.344 -163.8715
38.294868 105.348 -164.0693
38.572369 105.352 -164.2650
38.851879 105.357 -164.4600
39.133415 105.361 -164.6556
39.416992 105.366 -164.8529
39.702625 105.371 -165.0520
39.990326 105.375 -165.2522
40.280113 105.379 -165.4525
40.571999 105.382 -165.6517
40.866001 105.386 -165.8495
41.162132 105.389 -166.0462
41.460411 105.393 -166.2424
41.760849 105.396 -166.4386
42.063465 105.399 -166.6350
42.368275 105.402 -166.8311
42.675293 105.405 -167.0260
42.984535 105.408 -167.2195
43.296021 105.410 -167.4115
43.609760 105.413 -167.6025
43.925774 105.416 -167.7929
44.244080 105.419 -167.9830
44.564690 105.422 -168.1725
44.887623 105.425 -168.3609
45.212898 105.428 -168.5484
45.540531 105.431 -168.7356
45.870537 105.434 -168.9241
46.202934 105.438 -169.1150
46.537739 105.441 -169.3085
46.874969 105.444 -169.5036
47.214645 105.446 -169.6982
47.556782 105.448 -169.8908
47.901398 105.449 -170.0811
48.248512 105.451 -170.2702
48.598141 105.452 -170.4595
48.950302 105.453 -170.6492
49.305016 105.454 -170.8375
49.662300 105.454 -171.0221
50.022175 105.454 -171.2016
50.384655 105.454 -171.3773
50.749763 105.456 -171.5535
51.117516 105.458 -171.7350
51.487934 105.460 -171.9243
51.861038 105.461 -172.1196
52.236843 105.461 -172.3148
52.615372 105.459 -172.5036
52.996643 105.457 -172.6820
53.380680 105.455 -172.8505
53.767498 105.455 -173.0135
54.157120 105.456 -173.1765
54.549564 105.458 -173.3436
54.944855 105.460 -173.5163
55.343006 105.462 -173.6940
55.744045 105.465 -173.8752
56.147991 105.467 -174.0590
56.554863 105.469 -174.2451
56.964684 105.471 -174.4341
57.377472 105.473 -174.6266
57.793251 105.475 -174.8234
58.212044 105.476 -175.0247
58.633873 105.476 -175.2291
59.058758 105.476 -175.4332
59.486721 105.473 -175.6321
59.917786 105.471 -175.8222
60.351974 105.468 -176.0036
60.789310 105.466 -176.1809
61.229816 105.465 -176.3586
61.673512 105.463 -176.5362
62.120422 105.460 -176.7080
62.570572 105.457 -176.8677
63.023983 105.456 -177.0172
63.480682 105.457 -177.1676
63.940689 105.461 -177.3329
64.404030 105.464 -177.5204
64.870728 105.465 -177.7270
65.340805 105.464 -177.9440
65.814293 105.459 -178.1617
66.291214 105.451 -178.3702
66.771591 105.442 -178.5597
67.255447 105.433 -178.7256
67.742805 105.427 -178.8768
68.233696 105.427 -179.0349
68.728142 105.428 -179.2197
69.226173 105.429 -179.4337
69.727814 105.427 -179.6616
70.233093 105.422 -179.8851
70.742035 105.417 179.9030
71.254662 105.412 179.6990
71.771004 105.407 179.4980
72.291084 105.402 179.2995
72.814934 105.398 179.1047
73.342583 105.393 178.9129
73.874054 105.389 178.7231
74.409378 105.384 178.5362
74.948578 105.380 178.3538
75.491684 105.376 178.1747
76.038727 105.372 177.9952
76.589737 105.368 177.8114
77.144737 105.365 177.6225
77.703758 105.361 177.4299
78.266830 105.356 177.2352
78.833984 105.352 177.0377
79.405251 105.347 176.8346
79.980652 105.343 176.6220
80.560226 105.339 176.3975
81.143997 105.333 176.1622
81.732002 105.325 175.9206
82.324265 105.316 175.6769
82.920822 105.305 175.4330
83.521698 105.293 175.1890
84.126930 105.278 174.9473
84.736549 105.262 174.7146
85.350586 105.243 174.4990
85.969070 105.223 174.3048
