* Measurement data measured by REW V5.31
* Source: EXCL: Microphone (USB Sound Device        ), MICROPHONE (Master Volume), L, volume: 0.390
* Format: 256k Log Swept Sine, 1 sweep at -10.0 dBFS with no timing reference
* Dated: Oct 7, 2024 11:38:41 PM
* REW Settings:
*  C-weighting compensation: Off
*  Target level: 75.0 dB
* Note: INAWAKEN DAWN Ms R
* Measurement: R INAWAKEN DAWN Ms
* Smoothing: 1/12 octave
* Frequency Step: 96 ppo
* Start Frequency: 0.36621094 Hz
*
* Freq(Hz)	SPL(dB)	Phase(degrees)
0.366211	90.210	-58.5999
0.368865	90.213	-58.6620
0.371538	90.219	-58.7550
0.374230	90.225	-58.8717
0.376942	90.232	-59.0059
0.379673	90.240	-59.1531
0.382424	90.248	-59.3104
0.385196	90.257	-59.4759
0.387987	90.265	-59.6486
0.390798	90.274	-59.8279
0.393630	90.282	-60.0136
0.396483	90.291	-60.2054
0.399356	90.300	-60.4034
0.402250	90.309	-60.6076
0.405165	90.318	-60.8178
0.408101	90.327	-61.0343
0.411058	90.336	-61.2569
0.414037	90.345	-61.4857
0.417037	90.354	-61.7208
0.420059	90.364	-61.9621
0.423103	90.373	-62.2098
0.426169	90.383	-62.4637
0.429257	90.392	-62.7239
0.432368	90.402	-62.9905
0.435501	90.411	-63.2634
0.438656	90.421	-63.5426
0.441835	90.431	-63.8281
0.445037	90.441	-64.1200
0.448262	90.451	-64.4182
0.451510	90.461	-64.7227
0.454782	90.471	-65.0335
0.458077	90.481	-65.3505
0.461397	90.491	-65.6739
0.464740	90.501	-66.0034
0.468108	90.512	-66.3391
0.471500	90.522	-66.6809
0.474917	90.533	-67.0289
0.478358	90.543	-67.3829
0.481825	90.554	-67.7429
0.485316	90.565	-68.1088
0.488833	90.576	-68.4806
0.492375	90.586	-68.8582
0.495943	90.597	-69.2416
0.499537	90.608	-69.6306
0.503157	90.620	-70.0251
0.506803	90.631	-70.4251
0.510475	90.642	-70.8305
0.514175	90.654	-71.2412
0.517900	90.665	-71.6570
0.521653	90.677	-72.0779
0.525434	90.688	-72.5037
0.529241	90.700	-72.9343
0.533076	90.712	-73.3696
0.536939	90.724	-73.8095
0.540830	90.736	-74.2537
0.544749	90.748	-74.7022
0.548696	90.760	-75.1548
0.552673	90.772	-75.6113
0.556677	90.784	-76.0717
0.560711	90.797	-76.5356
0.564774	90.809	-77.0030
0.568867	90.822	-77.4738
0.572989	90.835	-77.9476
0.577141	90.847	-78.4243
0.581324	90.860	-78.9039
0.585536	90.873	-79.3859
0.589779	90.886	-79.8704
0.594053	90.899	-80.3570
0.598358	90.913	-80.8457
0.602694	90.926	-81.3361
0.607061	90.940	-81.8282
0.611460	90.953	-82.3216
0.615891	90.967	-82.8163
0.620354	90.980	-83.3120
0.624849	90.994	-83.8085
0.629377	91.008	-84.3056
0.633938	91.022	-84.8031
0.638532	91.036	-85.3009
0.643159	91.051	-85.7987
0.647819	91.065	-86.2963
0.652514	91.079	-86.7935
0.657242	91.094	-87.2902
0.662005	91.109	-87.7862
0.666802	91.123	-88.2812
0.671634	91.138	-88.7752
0.676501	91.153	-89.2678
0.681403	91.168	-89.7590
0.686341	91.184	-90.2486
0.691314	91.199	-90.7364
0.696324	91.214	-91.2223
0.701370	91.229	-91.7063
0.706452	91.245	-92.1884
0.711571	91.260	-92.6686
0.716728	91.275	-93.1474
0.721921	91.289	-93.6253
0.727153	91.302	-94.1034
0.732422	91.313	-94.5831
0.737729	91.324	-95.0661
0.743075	91.333	-95.5540
0.748460	91.340	-96.0484
0.753883	91.347	-96.5501
0.759346	91.354	-97.0599
0.764849	91.360	-97.5780
0.770391	91.366	-98.1047
0.775974	91.372	-98.6398
0.781597	91.377	-99.1834
0.787261	91.382	-99.7354
0.792966	91.387	-100.2955
0.798712	91.392	-100.8637
0.804500	91.397	-101.4396
0.810329	91.402	-102.0232
0.816201	91.406	-102.6141
0.822116	91.410	-103.2122
0.828073	91.414	-103.8172
0.834074	91.417	-104.4288
0.840118	91.420	-105.0467
0.846206	91.423	-105.6707
0.852338	91.426	-106.3005
0.858514	91.428	-106.9357
0.864735	91.430	-107.5760
0.871001	91.431	-108.2211
0.877313	91.432	-108.8706
0.883670	91.432	-109.5242
0.890074	91.432	-110.1814
0.896524	91.431	-110.8420
0.903020	91.430	-111.5054
0.909564	91.428	-112.1713
0.916155	91.426	-112.8393
0.922794	91.423	-113.5089
0.929481	91.419	-114.1797
0.936216	91.414	-114.8513
0.943000	91.409	-115.5233
0.949834	91.403	-116.1951
0.956717	91.396	-116.8664
0.963649	91.389	-117.5366
0.970632	91.380	-118.2053
0.977666	91.370	-118.8720
0.984750	91.360	-119.5363
0.991886	91.348	-120.1977
0.999074	91.336	-120.8557
1.006314	91.322	-121.5097
1.013606	91.307	-122.1594
1.020951	91.291	-122.8043
1.028349	91.273	-123.4439
1.035801	91.255	-124.0776
1.043307	91.234	-124.7052
1.050867	91.213	-125.3262
1.058482	91.190	-125.9404
1.066152	91.166	-126.5476
1.073878	91.140	-127.1481
1.081660	91.113	-127.7425
1.089498	91.084	-128.3321
1.097393	91.055	-128.9188
1.105345	91.024	-129.5053
1.113355	90.993	-130.0944
1.121423	90.962	-130.6887
1.129549	90.930	-131.2901
1.137734	90.899	-131.9003
1.145979	90.866	-132.5202
1.154283	90.834	-133.1507
1.162647	90.801	-133.7924
1.171072	90.767	-134.4457
1.179558	90.733	-135.1109
1.188106	90.698	-135.7883
1.196715	90.662	-136.4781
1.205387	90.624	-137.1806
1.214122	90.585	-137.8959
1.222920	90.545	-138.6241
1.231782	90.503	-139.3652
1.240708	90.459	-140.1193
1.249699	90.412	-140.8862
1.258754	90.364	-141.6658
1.267876	90.312	-142.4579
1.277063	90.258	-143.2622
1.286318	90.201	-144.0782
1.295639	90.141	-144.9054
1.305027	90.076	-145.7433
1.314484	90.009	-146.5909
1.324009	89.936	-147.4475
1.333604	89.860	-148.3119
1.343268	89.779	-149.1830
1.353002	89.693	-150.0592
1.362806	89.601	-150.9390
1.372681	89.504	-151.8206
1.382628	89.401	-152.7019
1.392647	89.292	-153.5809
1.402739	89.176	-154.4553
1.412904	89.053	-155.3228
1.423142	88.921	-156.1811
1.433455	88.782	-157.0287
1.443843	88.633	-157.8647
1.454305	88.474	-158.6897
1.464844	88.302	-159.5059
1.475459	88.118	-160.3173
1.486150	87.918	-161.1285
1.496920	87.703	-161.9444
1.507767	87.471	-162.7689
1.518693	87.223	-163.6052
1.529698	86.959	-164.4561
1.540783	86.680	-165.3236
1.551948	86.387	-166.2097
1.563194	86.080	-167.1160
1.574521	85.762	-168.0441
1.585931	85.433	-168.9958
1.597423	85.094	-169.9725
1.608999	84.748	-170.9761
1.620658	84.395	-172.0081
1.632402	84.037	-173.0705
1.644232	83.677	-174.1649
1.656146	83.316	-175.2933
1.668147	82.956	-176.4576
1.680235	82.598	-177.6598
1.692411	82.246	-178.9019
1.704675	81.902	179.8141
1.717028	81.567	178.4860
1.729470	81.245	177.1115
1.742003	80.938	175.6884
1.754626	80.649	174.2141
1.767341	80.381	172.6851
1.780147	80.136	171.0970
1.793047	79.918	169.4430
1.806040	79.728	167.7119
1.819128	79.567	165.8854
1.832310	79.437	163.9339
1.845587	79.338	161.8121
1.858961	79.267	159.4538
1.872432	79.224	156.7651
1.886001	79.208	153.6115
1.899667	79.216	149.7943
1.913433	79.249	145.0091
1.927299	79.304	138.7775
1.941265	79.381	130.3456
1.955332	79.479	118.6157
1.969501	79.596	102.4766
1.983773	79.732	82.3423
1.998148	79.885	61.7800
2.012627	80.054	44.7893
2.027212	80.237	32.3106
2.041902	80.434	23.3516
2.056698	80.643	16.7639
2.071602	80.862	11.7329
2.086614	81.091	7.7389
2.101734	81.327	4.4534
2.116964	81.571	1.6639
2.132304	81.820	-0.7714
2.147756	82.076	-2.9508
2.163320	82.338	-4.9448
2.178996	82.607	-6.8055
2.194786	82.887	-8.5715
2.210690	83.179	-10.2706
2.226710	83.487	-11.9213
2.242845	83.812	-13.5337
2.259098	84.155	-15.1123
2.275468	84.516	-16.6581
2.291957	84.892	-18.1702
2.308566	85.282	-19.6474
2.325295	85.683	-21.0886
2.342145	86.093	-22.4931
2.359117	86.510	-23.8606
2.376212	86.931	-25.1914
2.393431	87.352	-26.4862
2.410775	87.772	-27.7462
2.428244	88.186	-28.9728
2.445840	88.592	-30.1682
2.463564	88.988	-31.3347
2.481416	89.370	-32.4753
2.499397	89.737	-33.5940
2.517509	90.085	-34.6956
2.535752	90.415	-35.7861
2.554127	90.725	-36.8728
2.572635	91.016	-37.9633
2.591277	91.290	-39.0645
2.610055	91.546	-40.1806
2.628968	91.788	-41.3129
2.648019	92.015	-42.4602
2.667208	92.230	-43.6192
2.686535	92.433	-44.7858
2.706003	92.625	-45.9554
2.725612	92.807	-47.1233
2.745363	92.980	-48.2850
2.765257	93.145	-49.4363
2.785295	93.303	-50.5734
2.805478	93.456	-51.6932
2.825808	93.604	-52.7933
2.846285	93.748	-53.8722
2.866910	93.889	-54.9296
2.887685	94.028	-55.9672
2.908611	94.164	-56.9883
2.929688	94.297	-57.9987
2.950917	94.426	-59.0049
2.972301	94.550	-60.0134
2.993839	94.670	-61.0283
3.015534	94.783	-62.0515
3.037386	94.891	-63.0825
3.059396	94.993	-64.1191
3.081565	95.089	-65.1583
3.103896	95.180	-66.1962
3.126388	95.266	-67.2284
3.149043	95.347	-68.2507
3.171862	95.423	-69.2589
3.194847	95.496	-70.2490
3.217998	95.565	-71.2181
3.241317	95.631	-72.1646
3.264805	95.693	-73.0882
3.288463	95.751	-73.9912
3.312293	95.806	-74.8776
3.336295	95.856	-75.7524
3.360471	95.901	-76.6198
3.384822	95.942	-77.4822
3.409350	95.977	-78.3402
3.434056	96.009	-79.1929
3.458940	96.035	-80.0378
3.484005	96.059	-80.8721
3.509252	96.078	-81.6916
3.534681	96.094	-82.4922
3.560295	96.108	-83.2695
3.586094	96.119	-84.0195
3.612081	96.128	-84.7386
3.638255	96.135	-85.4247
3.664620	96.139	-86.0771
3.691175	96.141	-86.6968
3.717923	96.139	-87.2856
3.744864	96.134	-87.8458
3.772001	96.126	-88.3790
3.799335	96.116	-88.8867
3.826866	96.103	-89.3694
3.854597	96.089	-89.8274
3.882529	96.075	-90.2603
3.910664	96.061	-90.6671
3.939002	96.047	-91.0466
3.967546	96.035	-91.3970
3.996296	96.025	-91.7161
4.025255	96.016	-92.0014
4.054423	96.010	-92.2510
4.083804	96.005	-92.4636
4.113396	96.001	-92.6398
4.143204	95.999	-92.7817
4.173227	95.999	-92.8928
4.203468	96.002	-92.9774
4.233928	96.007	-93.0407
4.264609	96.016	-93.0876
4.295512	96.030	-93.1229
4.326639	96.048	-93.1501
4.357992	96.071	-93.1714
4.389572	96.101	-93.1873
4.421380	96.136	-93.1967
4.453419	96.177	-93.1987
4.485691	96.225	-93.1937
4.518196	96.277	-93.1841
4.550936	96.335	-93.1744
4.583914	96.397	-93.1704
4.617131	96.464	-93.1784
4.650589	96.533	-93.2048
4.684289	96.607	-93.2554
4.718233	96.683	-93.3344
4.752424	96.762	-93.4438
4.786862	96.844	-93.5844
4.821549	96.930	-93.7547
4.856488	97.019	-93.9536
4.891680	97.110	-94.1801
4.927127	97.203	-94.4337
4.962831	97.298	-94.7151
4.998794	97.392	-95.0250
5.035017	97.486	-95.3649
5.071503	97.578	-95.7358
5.108253	97.669	-96.1395
5.145270	97.758	-96.5765
5.182555	97.844	-97.0469
5.220110	97.928	-97.5489
5.257937	98.011	-98.0798
5.296038	98.090	-98.6359
5.334415	98.167	-99.2133
5.373071	98.241	-99.8082
5.412006	98.310	-100.4178
5.451224	98.376	-101.0407
5.490725	98.438	-101.6763
5.530514	98.494	-102.3253
5.570590	98.547	-102.9877
5.610957	98.594	-103.6624
5.651616	98.638	-104.3463
5.692570	98.677	-105.0352
5.733821	98.712	-105.7242
5.775370	98.743	-106.4088
5.817221	98.770	-107.0853
5.859375	98.793	-107.7518
5.901834	98.811	-108.4081
5.944602	98.826	-109.0541
5.987679	98.837	-109.6895
6.031068	98.844	-110.3127
6.074771	98.849	-110.9214
6.118792	98.851	-111.5126
6.163131	98.852	-112.0828
6.207792	98.851	-112.6296
6.252776	98.848	-113.1513
6.298086	98.845	-113.6477
6.343725	98.841	-114.1195
6.389694	98.836	-114.5678
6.435996	98.832	-114.9941
6.482634	98.828	-115.3995
6.529610	98.827	-115.7847
6.576926	98.827	-116.1499
6.624585	98.830	-116.4955
6.672590	98.836	-116.8221
6.720942	98.845	-117.1319
6.769645	98.856	-117.4283
6.818700	98.871	-117.7156
6.868111	98.889	-117.9983
6.917881	98.911	-118.2802
6.968010	98.936	-118.5640
7.018504	98.965	-118.8514
7.069362	98.998	-119.1440
7.120590	99.035	-119.4442
7.172189	99.074	-119.7548
7.224161	99.115	-120.0793
7.276511	99.158	-120.4209
7.329239	99.203	-120.7817
7.382350	99.249	-121.1630
7.435845	99.297	-121.5645
7.489729	99.344	-121.9858
7.544002	99.392	-122.4263
7.598669	99.439	-122.8851
7.653732	99.485	-123.3618
7.709194	99.529	-123.8560
7.765058	99.571	-124.3668
7.821327	99.611	-124.8924
7.878004	99.649	-125.4300
7.935091	99.684	-125.9763
7.992592	99.716	-126.5281
8.050510	99.746	-127.0826
8.108847	99.772	-127.6381
8.167607	99.795	-128.1926
8.226793	99.816	-128.7438
8.286408	99.833	-129.2888
8.346454	99.849	-129.8247
8.406936	99.862	-130.3486
8.467856	99.873	-130.8588
8.529218	99.883	-131.3540
8.591024	99.891	-131.8339
8.653278	99.899	-132.2977
8.715983	99.906	-132.7451
8.779143	99.913	-133.1755
8.842760	99.921	-133.5892
8.906839	99.929	-133.9868
8.971381	99.938	-134.3698
9.036392	99.949	-134.7403
9.101873	99.961	-135.1004
9.167829	99.974	-135.4521
9.234263	99.990	-135.7971
9.301178	100.007	-136.1373
9.368578	100.026	-136.4752
9.436467	100.047	-136.8130
9.504847	100.068	-137.1531
9.573723	100.091	-137.4973
9.643099	100.114	-137.8464
9.712976	100.137	-138.2015
9.783361	100.158	-138.5630
9.854255	100.178	-138.9313
9.925663	100.195	-139.3064
9.997588	100.209	-139.6880
10.070035	100.220	-140.0753
10.143007	100.227	-140.4667
10.216507	100.232	-140.8610
10.290540	100.234	-141.2567
10.365109	100.233	-141.6525
10.440219	100.229	-142.0471
10.515873	100.223	-142.4387
10.592076	100.216	-142.8260
10.668830	100.207	-143.2076
10.746141	100.196	-143.5830
10.824012	100.185	-143.9515
10.902447	100.173	-144.3129
10.981451	100.160	-144.6672
11.061027	100.147	-145.0144
11.141180	100.133	-145.3552
11.221913	100.120	-145.6903
11.303232	100.106	-146.0209
11.385140	100.093	-146.3480
11.467641	100.079	-146.6724
11.550741	100.066	-146.9953
11.634442	100.053	-147.3176
11.718750	100.040	-147.6400
11.803669	100.027	-147.9634
11.889203	100.014	-148.2878
11.975357	100.001	-148.6134
12.062136	99.988	-148.9402
12.149543	99.975	-149.2678
12.237583	99.961	-149.5959
12.326262	99.946	-149.9240
12.415583	99.931	-150.2513
12.505552	99.915	-150.5776
12.596172	99.898	-150.9023
12.687449	99.881	-151.2253
12.779387	99.863	-151.5465
12.871992	99.845	-151.8661
12.965268	99.827	-152.1846
13.059220	99.809	-152.5024
13.153852	99.792	-152.8206
13.249170	99.774	-153.1400
13.345179	99.757	-153.4615
13.441884	99.741	-153.7861
13.539289	99.725	-154.1145
13.637401	99.709	-154.4473
13.736223	99.693	-154.7849
13.835761	99.676	-155.1271
13.936021	99.660	-155.4738
14.037007	99.642	-155.8243
14.138725	99.624	-156.1779
14.241180	99.605	-156.5333
14.344377	99.585	-156.8895
14.448323	99.564	-157.2454
14.553021	99.543	-157.6000
14.658478	99.521	-157.9524
14.764700	99.499	-158.3022
14.871691	99.478	-158.6493
14.979457	99.457	-158.9940
15.088005	99.436	-159.3367
15.197339	99.417	-159.6785
15.307465	99.398	-160.0204
15.418389	99.381	-160.3638
15.530117	99.364	-160.7098
15.642655	99.348	-161.0595
15.756008	99.333	-161.4136
15.870182	99.318	-161.7724
15.985184	99.303	-162.1359
16.101019	99.288	-162.5035
16.217694	99.273	-162.8743
16.335214	99.257	-163.2469
16.453586	99.241	-163.6199
16.572815	99.225	-163.9918
16.692909	99.209	-164.3610
16.813872	99.193	-164.7263
16.935713	99.177	-165.0868
17.058436	99.161	-165.4421
17.182048	99.147	-165.7920
17.306556	99.133	-166.1370
17.431967	99.120	-166.4778
17.558286	99.107	-166.8152
17.685521	99.095	-167.1503
17.813677	99.084	-167.4841
17.942762	99.074	-167.8171
18.072783	99.063	-168.1500
18.203746	99.053	-168.4826
18.335658	99.043	-168.8149
18.468526	99.033	-169.1462
18.602356	99.022	-169.4758
18.737156	99.011	-169.8031
18.872934	99.000	-170.1273
19.009695	98.989	-170.4478
19.147447	98.978	-170.7643
19.286197	98.967	-171.0768
19.425953	98.956	-171.3856
19.566721	98.944	-171.6910
19.708510	98.933	-171.9935
19.851326	98.921	-172.2937
19.995177	98.909	-172.5920
20.140070	98.897	-172.8887
20.286013	98.884	-173.1839
20.433014	98.871	-173.4777
20.581080	98.857	-173.7700
20.730219	98.843	-174.0607
20.880439	98.828	-174.3501
21.031747	98.814	-174.6382
21.184152	98.799	-174.9254
21.337661	98.784	-175.2124
21.492282	98.769	-175.4996
21.648024	98.754	-175.7878
21.804895	98.739	-176.0774
21.962902	98.723	-176.3687
22.122054	98.707	-176.6617
22.282360	98.691	-176.9562
22.443827	98.674	-177.2520
22.606464	98.657	-177.5485
22.770280	98.639	-177.8453
22.935283	98.622	-178.1425
23.101481	98.604	-178.4399
23.268884	98.586	-178.7380
23.437500	98.568	-179.0374
23.607338	98.550	-179.3386
23.778406	98.533	-179.6421
23.950714	98.515	-179.9482
24.124271	98.497	179.7431
24.299086	98.479	179.4323
24.475167	98.461	179.1201
24.652524	98.443	178.8074
24.831166	98.424	178.4954
25.011103	98.406	178.1845
25.192344	98.388	177.8755
25.374898	98.370	177.5686
25.558775	98.352	177.2635
25.743984	98.335	176.9601
25.930536	98.318	176.6580
26.118439	98.302	176.3569
26.307704	98.286	176.0569
26.498341	98.269	175.7581
26.690359	98.253	175.4612
26.883768	98.237	175.1666
27.078579	98.221	174.8747
27.274801	98.204	174.5860
27.472446	98.188	174.3007
27.671522	98.171	174.0186
27.872042	98.154	173.7396
28.074014	98.137	173.4637
28.277450	98.120	173.1905
28.482360	98.103	172.9200
28.688755	98.085	172.6519
28.896645	98.067	172.3862
29.106042	98.048	172.1224
29.316957	98.029	171.8601
29.529400	98.011	171.5989
29.743382	97.991	171.3380
29.958915	97.972	171.0771
30.176009	97.952	170.8159
30.394677	97.933	170.5544
30.614929	97.912	170.2927
30.836778	97.892	170.0309
31.060234	97.871	169.7688
31.285309	97.850	169.5063
31.512015	97.829	169.2430
31.740364	97.808	168.9781
31.970368	97.787	168.7114
32.202039	97.766	168.4424
32.435388	97.745	168.1712
32.670428	97.724	167.8982
32.907171	97.702	167.6238
33.145630	97.681	167.3486
33.385817	97.659	167.0731
33.627745	97.638	166.7972
33.871425	97.617	166.5212
34.116871	97.595	166.2453
34.364096	97.574	165.9697
34.613113	97.553	165.6948
34.863934	97.531	165.4214
35.116572	97.510	165.1501
35.371041	97.488	164.8815
35.627354	97.466	164.6159
35.885525	97.444	164.3535
36.145566	97.422	164.0941
36.407492	97.400	163.8376
36.671316	97.378	163.5837
36.937051	97.356	163.3323
37.204712	97.333	163.0832
37.474313	97.311	162.8364
37.745867	97.288	162.5916
38.019389	97.264	162.3487
38.294893	97.241	162.1074
38.572394	97.217	161.8672
38.851905	97.193	161.6282
39.133442	97.169	161.3898
39.417019	97.144	161.1519
39.702651	97.119	160.9143
39.990353	97.094	160.6769
40.280140	97.068	160.4398
40.572026	97.043	160.2032
40.866028	97.017	159.9673
41.162160	96.991	159.7320
41.460438	96.965	159.4972
41.760877	96.939	159.2626
42.063494	96.913	159.0276
42.368303	96.887	158.7922
42.675322	96.860	158.5567
42.984565	96.834	158.3214
43.296048	96.807	158.0873
43.609789	96.780	157.8550
43.925804	96.753	157.6252
44.244108	96.726	157.3982
44.564719	96.698	157.1738
44.887654	96.671	156.9517
45.212928	96.644	156.7313
45.540560	96.617	156.5121
45.870565	96.590	156.2934
46.202962	96.563	156.0752
46.537768	96.535	155.8574
46.875000	96.507	155.6406
47.214676	96.479	155.4250
47.556813	96.451	155.2112
47.901429	96.423	154.9993
48.248542	96.394	154.7897
48.598171	96.365	154.5823
48.950334	96.336	154.3772
49.305048	96.307	154.1743
49.662333	96.278	153.9735
50.022206	96.249	153.7745
50.384688	96.220	153.5768
50.749796	96.191	153.3801
51.117550	96.162	153.1839
51.487969	96.133	152.9882
51.861072	96.104	152.7933
52.236879	96.075	152.5999
52.615409	96.045	152.4087
52.996681	96.016	152.2202
53.380717	95.987	152.0345
53.767536	95.957	151.8512
54.157158	95.929	151.6696
54.549603	95.900	151.4889
54.944892	95.872	151.3085
55.343045	95.844	151.1280
55.744084	95.817	150.9468
56.148028	95.789	150.7642
56.554900	95.762	150.5797
56.964720	95.735	150.3929
57.377510	95.707	150.2041
57.793291	95.679	150.0135
58.212085	95.651	149.8217
58.633914	95.622	149.6292
59.058799	95.593	149.4361
59.486764	95.563	149.2430
59.917829	95.532	149.0510
60.352019	95.500	148.8608
60.789354	95.468	148.6736
61.229859	95.435	148.4897
61.673556	95.402	148.3092
62.120468	95.368	148.1318
62.570618	95.335	147.9570
63.024031	95.301	147.7847
63.480729	95.267	147.6147
63.940736	95.233	147.4471
64.404077	95.198	147.2817
64.870776	95.164	147.1185
65.340856	95.130	146.9572
65.814343	95.095	146.7977
66.291261	95.061	146.6398
66.771635	95.027	146.4835
67.255489	94.992	146.3287
67.742850	94.958	146.1756
68.233743	94.923	146.0243
68.728193	94.889	145.8750
69.226226	94.854	145.7275
69.727867	94.819	145.5817
70.233144	94.784	145.4373
70.742083	94.749	145.2943
71.254709	94.714	145.1523
71.771050	94.679	145.0117
72.291132	94.644	144.8725
72.814984	94.609	144.7350
73.342631	94.573	144.5996
73.874102	94.538	144.4664
74.409424	94.502	144.3361
74.948626	94.466	144.2091
75.491734	94.431	144.0856
76.038779	94.396	143.9645
76.589787	94.361	143.8442
77.144788	94.327	143.7227
77.703811	94.293	143.5984
78.266885	94.260	143.4705
78.834039	94.226	143.3386
79.405303	94.193	143.2025
79.980706	94.159	143.0618
80.560280	94.125	142.9160
81.144053	94.091	142.7649
81.732056	94.057	142.6086
82.324320	94.021	142.4478
82.920876	93.985	142.2844
83.521755	93.947	142.1208
84.126988	93.907	141.9604
