* Measurement data measured by REW V5.31
* Source: EXCL: Microphone (USB Sound Device        ), MICROPHONE (Master Volume), L, volume: 0.560
* Format: 256k Log Swept Sine, 1 sweep at -15.0 dBFS with no timing reference
* Dated: May 22, 2024 1:17:03 AM
* REW Settings:
*  C-weighting compensation: Off
*  Target level: 75.0 dB
* Note: Intuaura View Splendor II L
* Measurement: L Intuaura View Splendor II
* Smoothing: 1/12 octave
* Frequency Step: 96 ppo
* Start Frequency: 0.36621094 Hz
*
* Freq(Hz) SPL(dB) Phase(degrees)
0.366211 83.523 157.9496
0.368865 83.517 157.9262
0.371538 83.508 157.8911
0.374230 83.497 157.8469
0.376942 83.484 157.7961
0.379673 83.471 157.7402
0.382424 83.457 157.6805
0.385196 83.443 157.6174
0.387987 83.428 157.5515
0.390798 83.414 157.4828
0.393630 83.399 157.4117
0.396483 83.384 157.3379
0.399356 83.369 157.2617
0.402250 83.354 157.1828
0.405165 83.338 157.1015
0.408101 83.323 157.0175
0.411058 83.307 156.9310
0.414037 83.292 156.8418
0.417037 83.276 156.7500
0.420059 83.260 156.6555
0.423103 83.244 156.5583
0.426169 83.228 156.4583
0.429257 83.211 156.3556
0.432368 83.195 156.2501
0.435501 83.179 156.1418
0.438656 83.162 156.0307
0.441835 83.145 155.9167
0.445037 83.128 155.7998
0.448262 83.112 155.6801
0.451510 83.094 155.5574
0.454782 83.077 155.4318
0.458077 83.060 155.3032
0.461397 83.042 155.1716
0.464740 83.025 155.0370
0.468108 83.007 154.8995
0.471500 82.989 154.7588
0.474917 82.971 154.6151
0.478358 82.953 154.4684
0.481825 82.935 154.3185
0.485316 82.917 154.1655
0.488833 82.898 154.0094
0.492375 82.879 153.8502
0.495943 82.861 153.6879
0.499537 82.842 153.5224
0.503157 82.823 153.3537
0.506803 82.804 153.1819
0.510475 82.784 153.0069
0.514175 82.765 152.8288
0.517900 82.745 152.6474
0.521653 82.725 152.4629
0.525434 82.706 152.2753
0.529241 82.686 152.0844
0.533076 82.665 151.8904
0.536939 82.645 151.6933
0.540830 82.625 151.4930
0.544749 82.604 151.2896
0.548696 82.583 151.0831
0.552673 82.562 150.8734
0.556677 82.541 150.6608
0.560711 82.520 150.4451
0.564774 82.499 150.2263
0.568867 82.477 150.0047
0.572989 82.455 149.7800
0.577141 82.434 149.5525
0.581324 82.412 149.3221
0.585536 82.389 149.0889
0.589779 82.367 148.8529
0.594053 82.345 148.6142
0.598358 82.322 148.3729
0.602694 82.299 148.1290
0.607061 82.276 147.8825
0.611460 82.253 147.6337
0.615891 82.230 147.3825
0.620354 82.206 147.1290
0.624849 82.183 146.8734
0.629377 82.159 146.6157
0.633938 82.135 146.3560
0.638532 82.111 146.0945
0.643159 82.086 145.8312
0.647819 82.062 145.5663
0.652514 82.037 145.3000
0.657242 82.012 145.0323
0.662005 81.987 144.7634
0.666802 81.962 144.4935
0.671634 81.937 144.2227
0.676501 81.911 143.9513
0.681403 81.885 143.6793
0.686341 81.859 143.4070
0.691314 81.833 143.1346
0.696324 81.807 142.8623
0.701370 81.780 142.5902
0.706452 81.753 142.3185
0.711571 81.725 142.0472
0.716728 81.696 141.7763
0.721921 81.667 141.5056
0.727153 81.636 141.2345
0.732422 81.602 140.9622
0.737729 81.567 140.6879
0.743075 81.530 140.4104
0.748460 81.490 140.1287
0.753883 81.450 139.8421
0.759346 81.408 139.5502
0.764849 81.366 139.2525
0.770391 81.322 138.9487
0.775974 81.278 138.6389
0.781597 81.234 138.3226
0.787261 81.189 138.0000
0.792966 81.143 137.6709
0.798712 81.097 137.3351
0.804500 81.050 136.9927
0.810329 81.002 136.6435
0.816201 80.954 136.2876
0.822116 80.905 135.9247
0.828073 80.855 135.5550
0.834074 80.805 135.1782
0.840118 80.753 134.7944
0.846206 80.701 134.4036
0.852338 80.648 134.0057
0.858514 80.595 133.6006
0.864735 80.540 133.1883
0.871001 80.484 132.7689
0.877313 80.427 132.3423
0.883670 80.370 131.9086
0.890074 80.311 131.4677
0.896524 80.251 131.0197
0.903020 80.191 130.5647
0.909564 80.129 130.1026
0.916155 80.065 129.6336
0.922794 80.001 129.1578
0.929481 79.935 128.6753
0.936216 79.868 128.1862
0.943000 79.800 127.6907
0.949834 79.730 127.1889
0.956717 79.659 126.6810
0.963649 79.586 126.1673
0.970632 79.512 125.6481
0.977666 79.436 125.1235
0.984750 79.359 124.5939
0.991886 79.280 124.0598
0.999074 79.199 123.5213
1.006314 79.116 122.9790
1.013606 79.031 122.4334
1.020951 78.945 121.8849
1.028349 78.856 121.3341
1.035801 78.765 120.7815
1.043307 78.673 120.2278
1.050867 78.578 119.6737
1.058482 78.480 119.1197
1.066152 78.381 118.5665
1.073878 78.279 118.0147
1.081660 78.174 117.4646
1.089498 78.066 116.9163
1.097393 77.956 116.3695
1.105345 77.842 115.8235
1.113355 77.725 115.2775
1.121423 77.604 114.7303
1.129549 77.480 114.1809
1.137734 77.352 113.6285
1.145979 77.220 113.0723
1.154283 77.084 112.5114
1.162647 76.945 111.9453
1.171072 76.802 111.3731
1.179558 76.656 110.7942
1.188106 76.506 110.2077
1.196715 76.353 109.6129
1.205387 76.197 109.0089
1.214122 76.038 108.3949
1.222920 75.875 107.7699
1.231782 75.710 107.1330
1.240708 75.542 106.4830
1.249699 75.372 105.8190
1.258754 75.199 105.1396
1.267876 75.023 104.4437
1.277063 74.846 103.7299
1.286318 74.666 102.9969
1.295639 74.485 102.2432
1.305027 74.302 101.4673
1.314484 74.118 100.6674
1.324009 73.933 99.8421
1.333604 73.747 98.9894
1.343268 73.559 98.1075
1.353002 73.372 97.1946
1.362806 73.184 96.2487
1.372681 72.996 95.2677
1.382628 72.808 94.2498
1.392647 72.621 93.1929
1.402739 72.434 92.0950
1.412904 72.249 90.9543
1.423142 72.064 89.7691
1.433455 71.880 88.5376
1.443843 71.697 87.2581
1.454305 71.515 85.9289
1.464844 71.331 84.5476
1.475459 71.146 83.1113
1.486150 70.958 81.6161
1.496920 70.766 80.0571
1.507767 70.569 78.4282
1.518693 70.368 76.7228
1.529698 70.162 74.9334
1.540783 69.952 73.0518
1.551948 69.738 71.0691
1.563194 69.521 68.9757
1.574521 69.302 66.7617
1.585931 69.081 64.4165
1.597423 68.860 61.9296
1.608999 68.639 59.2901
1.620658 68.419 56.4882
1.632402 68.201 53.5148
1.644232 67.986 50.3627
1.656146 67.776 47.0278
1.668147 67.571 43.5095
1.680235 67.372 39.8123
1.692411 67.182 35.9467
1.704675 67.001 31.9302
1.717028 66.830 27.7873
1.729470 66.672 23.5496
1.742003 66.527 19.2544
1.754626 66.398 14.9429
1.767341 66.286 10.6575
1.780147 66.192 6.4387
1.793047 66.119 2.3220
1.806040 66.069 -1.6646
1.819128 66.043 -5.5029
1.832310 66.042 -9.1847
1.845587 66.070 -12.7107
1.858961 66.125 -16.0868
1.872432 66.209 -19.3207
1.886001 66.320 -22.4199
1.899667 66.457 -25.3904
1.913433 66.619 -28.2375
1.927299 66.805 -30.9649
1.941265 67.011 -33.5762
1.955332 67.237 -36.0742
1.969501 67.479 -38.4617
1.983773 67.735 -40.7409
1.998148 68.002 -42.9143
2.012627 68.280 -44.9839
2.027212 68.563 -46.9518
2.041902 68.851 -48.8198
2.056698 69.139 -50.5898
2.071602 69.427 -52.2635
2.086614 69.709 -53.8425
2.101734 69.985 -55.3285
2.116964 70.251 -56.7235
2.132304 70.505 -58.0299
2.147756 70.744 -59.2508
2.163320 70.968 -60.3909
2.178996 71.175 -61.4563
2.194786 71.367 -62.4555
2.210690 71.544 -63.3983
2.226710 71.709 -64.2947
2.242845 71.863 -65.1533
2.259098 72.007 -65.9803
2.275468 72.144 -66.7799
2.291957 72.273 -67.5544
2.308566 72.395 -68.3050
2.325295 72.512 -69.0319
2.342145 72.622 -69.7345
2.359117 72.728 -70.4118
2.376212 72.829 -71.0627
2.393431 72.925 -71.6854
2.410775 73.018 -72.2780
2.428244 73.108 -72.8385
2.445840 73.195 -73.3646
2.463564 73.280 -73.8539
2.481416 73.363 -74.3042
2.499397 73.444 -74.7132
2.517509 73.524 -75.0793
2.535752 73.602 -75.4014
2.554127 73.679 -75.6795
2.572635 73.753 -75.9146
2.591277 73.824 -76.1087
2.610055 73.891 -76.2640
2.628968 73.954 -76.3829
2.648019 74.012 -76.4675
2.667208 74.067 -76.5195
2.686535 74.118 -76.5405
2.706003 74.167 -76.5316
2.725612 74.213 -76.4943
2.745363 74.258 -76.4294
2.765257 74.302 -76.3382
2.785295 74.346 -76.2218
2.805478 74.391 -76.0810
2.825808 74.438 -75.9170
2.846285 74.487 -75.7303
2.866910 74.540 -75.5216
2.887685 74.597 -75.2907
2.908611 74.658 -75.0367
2.929688 74.723 -74.7584
2.950917 74.791 -74.4538
2.972301 74.864 -74.1217
2.993839 74.939 -73.7619
3.015534 75.017 -73.3759
3.037386 75.098 -72.9663
3.059396 75.181 -72.5367
3.081565 75.267 -72.0915
3.103896 75.356 -71.6355
3.126388 75.448 -71.1735
3.149043 75.542 -70.7105
3.171862 75.640 -70.2515
3.194847 75.741 -69.8010
3.217998 75.845 -69.3626
3.241317 75.953 -68.9392
3.264805 76.064 -68.5320
3.288463 76.180 -68.1407
3.312293 76.301 -67.7636
3.336295 76.426 -67.3984
3.360471 76.556 -67.0437
3.384822 76.691 -66.6996
3.409350 76.829 -66.3674
3.434056 76.971 -66.0495
3.458940 77.116 -65.7490
3.484005 77.263 -65.4691
3.509252 77.411 -65.2131
3.534681 77.560 -64.9844
3.560295 77.709 -64.7856
3.586094 77.857 -64.6193
3.612081 78.005 -64.4871
3.638255 78.151 -64.3898
3.664620 78.295 -64.3272
3.691175 78.439 -64.2980
3.717923 78.582 -64.3002
3.744864 78.724 -64.3315
3.772001 78.866 -64.3896
3.799335 79.007 -64.4724
3.826866 79.146 -64.5777
3.854597 79.284 -64.7039
3.882529 79.420 -64.8493
3.910664 79.554 -65.0125
3.939002 79.685 -65.1927
3.967546 79.812 -65.3895
3.996296 79.936 -65.6028
4.025255 80.057 -65.8331
4.054423 80.174 -66.0811
4.083804 80.287 -66.3472
4.113396 80.396 -66.6306
4.143204 80.502 -66.9300
4.173227 80.604 -67.2430
4.203468 80.703 -67.5669
4.233928 80.799 -67.8987
4.264609 80.891 -68.2355
4.295512 80.979 -68.5748
4.326639 81.065 -68.9148
4.357992 81.147 -69.2545
4.389572 81.225 -69.5939
4.421380 81.300 -69.9340
4.453419 81.370 -70.2757
4.485691 81.437 -70.6194
4.518196 81.501 -70.9645
4.550936 81.560 -71.3092
4.583914 81.617 -71.6515
4.617131 81.671 -71.9885
4.650589 81.722 -72.3176
4.684289 81.771 -72.6362
4.718233 81.818 -72.9424
4.752424 81.863 -73.2352
4.786862 81.906 -73.5144
4.821549 81.946 -73.7806
4.856488 81.985 -74.0344
4.891680 82.021 -74.2765
4.927127 82.056 -74.5070
4.962831 82.090 -74.7260
4.998794 82.123 -74.9332
5.035017 82.155 -75.1279
5.071503 82.188 -75.3095
5.108253 82.222 -75.4774
5.145270 82.256 -75.6309
5.182555 82.291 -75.7701
5.220110 82.326 -75.8957
5.257937 82.362 -76.0091
5.296038 82.399 -76.1126
5.334415 82.437 -76.2084
5.373071 82.476 -76.2991
5.412006 82.518 -76.3869
5.451224 82.561 -76.4732
5.490725 82.607 -76.5591
5.530514 82.654 -76.6447
5.570590 82.705 -76.7305
5.610957 82.757 -76.8175
5.651616 82.812 -76.9075
5.692570 82.869 -77.0032
5.733821 82.927 -77.1073
5.775370 82.987 -77.2226
5.817221 83.048 -77.3512
5.859375 83.112 -77.4946
5.901834 83.176 -77.6533
5.944602 83.242 -77.8273
5.987679 83.309 -78.0167
6.031068 83.377 -78.2218
6.074771 83.446 -78.4431
6.118792 83.515 -78.6813
6.163131 83.583 -78.9372
6.207792 83.651 -79.2116
6.252776 83.719 -79.5046
6.298086 83.786 -79.8161
6.343725 83.852 -80.1451
6.389694 83.917 -80.4902
6.435996 83.981 -80.8498
6.482634 84.044 -81.2221
6.529610 84.105 -81.6057
6.576926 84.164 -81.9998
6.624585 84.222 -82.4037
6.672590 84.278 -82.8170
6.720942 84.331 -83.2384
6.769645 84.383 -83.6664
6.818700 84.434 -84.0988
6.868111 84.483 -84.5333
6.917881 84.530 -84.9682
6.968010 84.575 -85.4021
7.018504 84.620 -85.8343
7.069362 84.662 -86.2645
7.120590 84.704 -86.6917
7.172189 84.745 -87.1152
7.224161 84.785 -87.5335
7.276511 84.826 -87.9458
7.329239 84.866 -88.3510
7.382350 84.906 -88.7488
7.435845 84.946 -89.1395
7.489729 84.987 -89.5234
7.544002 85.028 -89.9012
7.598669 85.070 -90.2735
7.653732 85.114 -90.6408
7.709194 85.159 -91.0035
7.765058 85.205 -91.3621
7.821327 85.253 -91.7175
7.878004 85.303 -92.0708
7.935091 85.354 -92.4236
7.992592 85.407 -92.7772
8.050510 85.461 -93.1328
8.108847 85.518 -93.4913
8.167607 85.575 -93.8533
8.226793 85.635 -94.2194
8.286408 85.695 -94.5903
8.346454 85.757 -94.9670
8.406936 85.819 -95.3501
8.467856 85.883 -95.7398
8.529218 85.947 -96.1362
8.591024 86.011 -96.5390
8.653278 86.076 -96.9475
8.715983 86.141 -97.3614
8.779143 86.205 -97.7801
8.842760 86.270 -98.2031
8.906839 86.334 -98.6295
8.971381 86.397 -99.0585
9.036392 86.460 -99.4888
9.101873 86.523 -99.9191
9.167829 86.585 -100.3485
9.234263 86.646 -100.7761
9.301178 86.707 -101.2010
9.368578 86.767 -101.6224
9.436467 86.827 -102.0395
9.504847 86.886 -102.4513
9.573723 86.945 -102.8573
9.643099 87.003 -103.2573
9.712976 87.059 -103.6510
9.783361 87.115 -104.0385
9.854255 87.168 -104.4196
9.925663 87.220 -104.7945
9.997588 87.269 -105.1635
10.070035 87.317 -105.5268
10.143007 87.363 -105.8851
10.216507 87.407 -106.2388
10.290540 87.450 -106.5885
10.365109 87.493 -106.9345
10.440219 87.534 -107.2774
10.515873 87.575 -107.6176
10.592076 87.616 -107.9555
10.668830 87.656 -108.2914
10.746141 87.696 -108.6256
10.824012 87.736 -108.9582
10.902447 87.776 -109.2891
10.981451 87.815 -109.6184
11.061027 87.853 -109.9461
11.141180 87.891 -110.2720
11.221913 87.928 -110.5961
11.303232 87.965 -110.9181
11.385140 88.001 -111.2380
11.467641 88.036 -111.5555
11.550741 88.071 -111.8708
11.634442 88.106 -112.1839
11.718750 88.140 -112.4947
11.803669 88.173 -112.8033
11.889203 88.207 -113.1101
11.975357 88.240 -113.4151
12.062136 88.273 -113.7188
12.149543 88.306 -114.0215
12.237583 88.339 -114.3233
12.326262 88.371 -114.6247
12.415583 88.403 -114.9260
12.505552 88.434 -115.2274
12.596172 88.464 -115.5291
12.687449 88.493 -115.8312
12.779387 88.522 -116.1340
12.871992 88.550 -116.4373
12.965268 88.577 -116.7413
13.059220 88.603 -117.0459
13.153852 88.629 -117.3511
13.249170 88.654 -117.6569
13.345179 88.679 -117.9633
13.441884 88.704 -118.2704
13.539289 88.728 -118.5782
13.637401 88.752 -118.8870
13.736223 88.776 -119.1971
13.835761 88.800 -119.5086
13.936021 88.823 -119.8221
14.037007 88.846 -120.1378
14.138725 88.868 -120.4561
14.241180 88.890 -120.7776
14.344377 88.912 -121.1024
14.448323 88.934 -121.4308
14.553021 88.955 -121.7631
14.658478 88.976 -122.0992
14.764700 88.997 -122.4392
14.871691 89.017 -122.7828
14.979457 89.037 -123.1300
15.088005 89.058 -123.4802
15.197339 89.078 -123.8334
15.307465 89.097 -124.1889
15.418389 89.117 -124.5465
15.530117 89.137 -124.9060
15.642655 89.156 -125.2670
15.756008 89.176 -125.6294
15.870182 89.196 -125.9931
15.985184 89.216 -126.3582
16.101019 89.236 -126.7247
16.217694 89.257 -127.0926
16.335214 89.277 -127.4622
16.453586 89.299 -127.8333
16.572815 89.320 -128.2062
16.692909 89.343 -128.5806
16.813872 89.365 -128.9564
16.935713 89.389 -129.3332
17.058436 89.412 -129.7108
17.182048 89.436 -130.0885
17.306556 89.461 -130.4660
17.431967 89.485 -130.8425
17.558286 89.509 -131.2176
17.685521 89.534 -131.5907
17.813677 89.558 -131.9615
17.942762 89.582 -132.3297
18.072783 89.607 -132.6948
18.203746 89.631 -133.0567
18.335658 89.656 -133.4154
18.468526 89.680 -133.7707
18.602356 89.705 -134.1226
18.737156 89.730 -134.4710
18.872934 89.754 -134.8159
19.009695 89.779 -135.1571
19.147447 89.804 -135.4946
19.286197 89.829 -135.8284
19.425953 89.854 -136.1583
19.566721 89.878 -136.4846
19.708510 89.902 -136.8073
19.851326 89.926 -137.1266
19.995177 89.949 -137.4430
20.140070 89.972 -137.7568
20.286013 89.995 -138.0685
20.433014 90.017 -138.3786
20.581080 90.039 -138.6874
20.730219 90.060 -138.9953
20.880439 90.080 -139.3026
21.031747 90.100 -139.6093
21.184152 90.119 -139.9155
21.337661 90.138 -140.2210
21.492282 90.156 -140.5258
21.648024 90.174 -140.8298
21.804895 90.191 -141.1330
21.962902 90.207 -141.4356
22.122054 90.223 -141.7378
22.282360 90.239 -142.0401
22.443827 90.254 -142.3429
22.606464 90.269 -142.6469
22.770280 90.283 -142.9526
22.935283 90.297 -143.2606
23.101481 90.311 -143.5713
23.268884 90.325 -143.8850
23.437500 90.338 -144.2018
23.607338 90.351 -144.5218
23.778406 90.363 -144.8448
23.950714 90.375 -145.1706
24.124271 90.387 -145.4989
24.299086 90.398 -145.8293
24.475167 90.409 -146.1616
24.652524 90.420 -146.4954
24.831166 90.430 -146.8302
25.011103 90.441 -147.1656
25.192344 90.452 -147.5011
25.374898 90.462 -147.8364
25.558775 90.473 -148.1710
25.743984 90.484 -148.5045
25.930536 90.495 -148.8364
26.118439 90.506 -149.1665
26.307704 90.517 -149.4948
26.498341 90.529 -149.8209
26.690359 90.540 -150.1450
26.883768 90.552 -150.4669
27.078579 90.564 -150.7868
27.274801 90.576 -151.1046
27.472446 90.588 -151.4202
27.671522 90.599 -151.7335
27.872042 90.611 -152.0443
28.074014 90.622 -152.3525
28.277450 90.633 -152.6578
28.482360 90.643 -152.9601
28.688755 90.653 -153.2594
28.896645 90.662 -153.5556
29.106042 90.671 -153.8489
29.316957 90.679 -154.1395
29.529400 90.687 -154.4277
29.743382 90.695 -154.7140
29.958915 90.703 -154.9989
30.176009 90.710 -155.2829
30.394677 90.717 -155.5666
30.614929 90.724 -155.8505
30.836778 90.731 -156.1350
31.060234 90.737 -156.4206
31.285309 90.743 -156.7076
31.512015 90.748 -156.9963
31.740364 90.754 -157.2868
31.970368 90.758 -157.5793
32.202039 90.763 -157.8736
32.435388 90.767 -158.1697
32.670428 90.771 -158.4674
32.907171 90.774 -158.7662
33.145630 90.777 -159.0657
33.385817 90.780 -159.3657
33.627745 90.783 -159.6657
33.871425 90.786 -159.9655
34.116871 90.789 -160.2651
34.364096 90.792 -160.5643
34.613113 90.795 -160.8631
34.863934 90.797 -161.1611
35.116572 90.800 -161.4580
35.371041 90.803 -161.7534
35.627354 90.805 -162.0470
35.885525 90.808 -162.3384
36.145566 90.810 -162.6277
36.407492 90.812 -162.9152
36.671316 90.814 -163.2013
36.937051 90.816 -163.4862
37.204712 90.818 -163.7701
37.474313 90.819 -164.0528
37.745867 90.820 -164.3337
38.019389 90.820 -164.6124
38.294893 90.820 -164.8885
38.572394 90.819 -165.1621
38.851905 90.818 -165.4337
39.133442 90.817 -165.7040
39.417019 90.816 -165.9738
39.702651 90.814 -166.2433
39.990353 90.812 -166.5121
40.280140 90.810 -166.7796
40.572026 90.807 -167.0450
40.866028 90.804 -167.3079
41.162160 90.800 -167.5687
41.460438 90.798 -167.8286
41.760877 90.795 -168.0892
42.063494 90.793 -168.3519
42.368303 90.790 -168.6173
42.675322 90.787 -168.8850
42.984565 90.784 -169.1536
43.296048 90.779 -169.4214
43.609789 90.774 -169.6870
43.925804 90.769 -169.9498
44.244108 90.764 -170.2101
44.564719 90.759 -170.4689
44.887654 90.754 -170.7272
45.212928 90.749 -170.9855
45.540560 90.743 -171.2439
45.870565 90.738 -171.5016
46.202962 90.732 -171.7580
46.537768 90.725 -172.0126
46.875000 90.719 -172.2654
47.214676 90.713 -172.5169
47.556813 90.707 -172.7677
47.901429 90.701 -173.0184
48.248542 90.695 -173.2693
48.598171 90.689 -173.5204
48.950334 90.682 -173.7714
49.305048 90.675 -174.0217
49.662333 90.668 -174.2707
50.022206 90.661 -174.5176
50.384688 90.652 -174.7614
50.749796 90.644 -175.0010
51.117550 90.635 -175.2357
51.487969 90.626 -175.4655
51.861072 90.617 -175.6912
52.236879 90.609 -175.9146
52.615409 90.602 -176.1382
52.996681 90.594 -176.3639
53.380717 90.587 -176.5926
53.767536 90.580 -176.8238
54.157158 90.572 -177.0563
54.549603 90.564 -177.2890
54.944892 90.556 -177.5215
55.343045 90.548 -177.7546
55.744084 90.541 -177.9891
56.148028 90.533 -178.2252
56.554900 90.525 -178.4626
56.964720 90.517 -178.7006
57.377510 90.509 -178.9387
57.793291 90.501 -179.1772
58.212085 90.493 -179.4170
58.633914 90.484 -179.6588
59.058799 90.475 -179.9026
59.486764 90.465 179.8524
59.917829 90.454 179.6071
60.352019 90.443 179.3616
60.789354 90.430 179.1160
61.229859 90.416 178.8706
61.673556 90.401 178.6268
62.120468 90.385 178.3872
62.570618 90.369 178.1542
63.024031 90.352 177.9286
63.480729 90.337 177.7087
63.940736 90.322 177.4917
64.404077 90.308 177.2752
64.870776 90.294 177.0583
65.340856 90.282 176.8413
65.814343 90.269 176.6245
66.291261 90.257 176.4077
66.771635 90.245 176.1910
67.255489 90.233 175.9750
67.742850 90.220 175.7610
68.233743 90.206 175.5496
68.728193 90.191 175.3407
69.226226 90.175 175.1333
69.727867 90.159 174.9265
70.233144 90.141 174.7195
70.742083 90.123 174.5118
71.254709 90.103 174.3029
71.771050 90.084 174.0927
72.291132 90.064 173.8803
72.814984 90.045 173.6638
73.342631 90.027 173.4406
73.874102 90.010 173.2082
74.409424 89.994 172.9653
74.948626 89.978 172.7127
75.491734 89.961 172.4553
76.038779 89.942 172.2036
76.589787 89.922 171.9714
77.144788 89.902 171.7687
77.703811 89.885 171.5946
78.266885 89.871 171.4364
78.834039 89.861 171.2773
79.405303 89.852 171.1052
79.980706 89.843 170.9165
80.560280 89.831 170.7138
81.144053 89.818 170.5009
81.732056 89.801 170.2802
82.324320 89.782 170.0527
82.920876 89.761 169.8192
83.521755 89.737 169.5811
84.126988 89.711 169.3419
84.736607 89.683 169.1054
85.350643 89.654 168.8749
85.969129 89.625 168.6526
86.592097 89.596 168.4398
