* Measurement data measured by REW V5.31.3
* Source: EXCL: Microphone (USB Sound Device        ), MICROPHONE (Master Volume), R, volume: 0.390
* Format: 256k Log Swept Sine, 1 sweep at -17.0 dBFS with no timing reference
* Dated: Jul 2, 2025 11:53:40 PM
* REW Settings:
*  C-weighting compensation: Off
*  Target level: 75.0 dB
* Note: ISN Neo 3 L
* Measurement: ISN Audio Neo 3
* Smoothing: 1/12 octave
* Frequency Step: 96 ppo
* Start Frequency: 0.36621094 Hz
*
* Freq(Hz) SPL(dB) Phase(degrees)
0.366211 94.235 158.8870
0.368865 94.229 158.8651
0.371538 94.220 158.8322
0.374230 94.209 158.7909
0.376942 94.196 158.7433
0.379673 94.183 158.6909
0.382424 94.169 158.6348
0.385196 94.155 158.5757
0.387987 94.140 158.5139
0.390798 94.125 158.4495
0.393630 94.110 158.3827
0.396483 94.095 158.3135
0.399356 94.080 158.2419
0.402250 94.065 158.1679
0.405165 94.049 158.0915
0.408101 94.034 158.0126
0.411058 94.018 157.9313
0.414037 94.003 157.8475
0.417037 93.987 157.7612
0.420059 93.971 157.6724
0.423103 93.955 157.5811
0.426169 93.938 157.4871
0.429257 93.922 157.3906
0.432368 93.906 157.2914
0.435501 93.889 157.1896
0.438656 93.873 157.0851
0.441835 93.856 156.9780
0.445037 93.839 156.8681
0.448262 93.822 156.7555
0.451510 93.805 156.6402
0.454782 93.787 156.5220
0.458077 93.770 156.4012
0.461397 93.752 156.2775
0.464740 93.735 156.1510
0.468108 93.717 156.0216
0.471500 93.699 155.8894
0.474917 93.681 155.7543
0.478358 93.663 155.6164
0.481825 93.644 155.4755
0.485316 93.626 155.3318
0.488833 93.607 155.1851
0.492375 93.589 155.0355
0.495943 93.570 154.8829
0.499537 93.551 154.7274
0.503157 93.532 154.5690
0.506803 93.513 154.4076
0.510475 93.493 154.2433
0.514175 93.474 154.0760
0.517900 93.454 153.9057
0.521653 93.434 153.7325
0.525434 93.414 153.5563
0.529241 93.394 153.3772
0.533076 93.374 153.1951
0.536939 93.353 153.0102
0.540830 93.333 152.8223
0.544749 93.312 152.6315
0.548696 93.291 152.4379
0.552673 93.270 152.2414
0.556677 93.249 152.0420
0.560711 93.228 151.8399
0.564774 93.206 151.6350
0.568867 93.185 151.4273
0.572989 93.163 151.2170
0.577141 93.141 151.0040
0.581324 93.119 150.7883
0.585536 93.097 150.5701
0.589779 93.074 150.3494
0.594053 93.052 150.1263
0.598358 93.029 149.9007
0.602694 93.006 149.6728
0.607061 92.983 149.4427
0.611460 92.960 149.2103
0.615891 92.936 148.9759
0.620354 92.913 148.7395
0.624849 92.889 148.5011
0.629377 92.865 148.2610
0.633938 92.841 148.0191
0.638532 92.817 147.7756
0.643159 92.792 147.5307
0.647819 92.768 147.2844
0.652514 92.743 147.0369
0.657242 92.718 146.7883
0.662005 92.693 146.5388
0.666802 92.667 146.2886
0.671634 92.642 146.0378
0.676501 92.616 145.7865
0.681403 92.590 145.5350
0.686341 92.564 145.2835
0.691314 92.538 145.0322
0.696324 92.511 144.7812
0.701370 92.484 144.5307
0.706452 92.457 144.2808
0.711571 92.429 144.0318
0.716728 92.401 143.7834
0.721921 92.371 143.5355
0.727153 92.339 143.2877
0.732422 92.306 143.0392
0.737729 92.270 142.7890
0.743075 92.233 142.5363
0.748460 92.193 142.2799
0.753883 92.152 142.0194
0.759346 92.111 141.7542
0.764849 92.068 141.4839
0.770391 92.025 141.2084
0.775974 91.981 140.9275
0.781597 91.937 140.6410
0.787261 91.892 140.3490
0.792966 91.846 140.0512
0.798712 91.800 139.7477
0.804500 91.754 139.4384
0.810329 91.707 139.1232
0.816201 91.659 138.8021
0.822116 91.611 138.4750
0.828073 91.561 138.1419
0.834074 91.512 137.8028
0.840118 91.461 137.4577
0.846206 91.409 137.1064
0.852338 91.357 136.7490
0.858514 91.304 136.3856
0.864735 91.250 136.0160
0.871001 91.195 135.6403
0.877313 91.139 135.2585
0.883670 91.081 134.8706
0.890074 91.023 134.4767
0.896524 90.964 134.0768
0.903020 90.903 133.6711
0.909564 90.841 133.2594
0.916155 90.778 132.8421
0.922794 90.714 132.4191
0.929481 90.648 131.9906
0.936216 90.580 131.5567
0.943000 90.512 131.1177
0.949834 90.441 130.6737
0.956717 90.369 130.2249
0.963649 90.295 129.7716
0.970632 90.220 129.3141
0.977666 90.142 128.8526
0.984750 90.063 128.3875
0.991886 89.981 127.9191
0.999074 89.898 127.4479
1.006314 89.812 126.9742
1.013606 89.725 126.4987
1.020951 89.635 126.0218
1.028349 89.542 125.5441
1.035801 89.447 125.0662
1.043307 89.350 124.5888
1.050867 89.250 124.1125
1.058482 89.147 123.6381
1.066152 89.041 123.1663
1.073878 88.932 122.6977
1.081660 88.821 122.2329
1.089498 88.706 121.7720
1.097393 88.589 121.3152
1.105345 88.468 120.8619
1.113355 88.345 120.4117
1.121423 88.218 119.9637
1.129549 88.088 119.5173
1.137734 87.956 119.0720
1.145979 87.820 118.6272
1.154283 87.682 118.1824
1.162647 87.540 117.7372
1.171072 87.396 117.2912
1.179558 87.248 116.8440
1.188106 87.097 116.3950
1.196715 86.943 115.9438
1.205387 86.786 115.4899
1.214122 86.626 115.0328
1.222920 86.463 114.5720
1.231782 86.296 114.1069
1.240708 86.126 113.6368
1.249699 85.952 113.1612
1.258754 85.775 112.6793
1.267876 85.595 112.1903
1.277063 85.411 111.6935
1.286318 85.224 111.1880
1.295639 85.033 110.6729
1.305027 84.839 110.1473
1.314484 84.642 109.6102
1.324009 84.440 109.0603
1.333604 84.235 108.4966
1.343268 84.026 107.9178
1.353002 83.814 107.3226
1.362806 83.598 106.7095
1.372681 83.378 106.0771
1.382628 83.154 105.4239
1.392647 82.927 104.7482
1.402739 82.695 104.0483
1.412904 82.459 103.3227
1.423142 82.219 102.5698
1.433455 81.974 101.7880
1.443843 81.723 100.9761
1.454305 81.464 100.1331
1.464844 81.197 99.2580
1.475459 80.918 98.3498
1.486150 80.625 97.4069
1.496920 80.317 96.4264
1.507767 79.993 95.4046
1.518693 79.652 94.3359
1.529698 79.295 93.2137
1.540783 78.923 92.0294
1.551948 78.536 90.7728
1.563194 78.137 89.4313
1.574521 77.726 87.9896
1.585931 77.306 86.4289
1.597423 76.878 84.7260
1.608999 76.445 82.8518
1.620658 76.008 80.7700
1.632402 75.570 78.4344
1.644232 75.133 75.7861
1.656146 74.700 72.7498
1.668147 74.274 69.2288
1.680235 73.857 65.1006
1.692411 73.452 60.2125
1.704675 73.063 54.3847
1.717028 72.694 47.4272
1.729470 72.347 39.1895
1.742003 72.027 29.6538
1.754626 71.738 19.0568
1.767341 71.484 7.9443
1.780147 71.271 -2.9540
1.793047 71.102 -12.9927
1.806040 70.983 -21.8134
1.819128 70.918 -29.3537
1.832310 70.910 -35.7361
1.845587 70.962 -41.1535
1.858961 71.076 -45.7980
1.872432 71.250 -49.8311
1.886001 71.482 -53.3786
1.899667 71.769 -56.5351
1.913433 72.107 -59.3720
1.927299 72.492 -61.9430
1.941265 72.917 -64.2892
1.955332 73.378 -66.4427
1.969501 73.870 -68.4284
1.983773 74.387 -70.2665
1.998148 74.923 -71.9729
2.012627 75.474 -73.5607
2.027212 76.032 -75.0406
2.041902 76.594 -76.4212
2.056698 77.152 -77.7097
2.071602 77.702 -78.9122
2.086614 78.237 -80.0339
2.101734 78.754 -81.0790
2.116964 79.246 -82.0520
2.132304 79.709 -82.9570
2.147756 80.140 -83.7988
2.163320 80.536 -84.5833
2.178996 80.896 -85.3182
2.194786 81.221 -86.0129
2.210690 81.514 -86.6780
2.226710 81.777 -87.3237
2.242845 82.015 -87.9580
2.259098 82.231 -88.5858
2.275468 82.426 -89.2098
2.291957 82.602 -89.8304
2.308566 82.761 -90.4470
2.325295 82.905 -91.0579
2.342145 83.034 -91.6609
2.359117 83.151 -92.2536
2.376212 83.256 -92.8333
2.393431 83.351 -93.3970
2.410775 83.437 -93.9417
2.428244 83.517 -94.4643
2.445840 83.591 -94.9615
2.463564 83.662 -95.4304
2.481416 83.730 -95.8680
2.499397 83.798 -96.2719
2.517509 83.865 -96.6402
2.535752 83.932 -96.9727
2.554127 84.000 -97.2702
2.572635 84.066 -97.5353
2.591277 84.129 -97.7716
2.610055 84.188 -97.9827
2.628968 84.241 -98.1714
2.648019 84.289 -98.3395
2.667208 84.331 -98.4881
2.686535 84.367 -98.6174
2.706003 84.398 -98.7272
2.725612 84.425 -98.8168
2.745363 84.448 -98.8855
2.765257 84.469 -98.9322
2.785295 84.487 -98.9557
2.805478 84.505 -98.9547
2.825808 84.522 -98.9278
2.846285 84.540 -98.8736
2.866910 84.560 -98.7904
2.887685 84.582 -98.6765
2.908611 84.605 -98.5302
2.929688 84.631 -98.3499
2.950917 84.658 -98.1341
2.972301 84.685 -97.8822
2.993839 84.713 -97.5943
3.015534 84.741 -97.2716
3.037386 84.769 -96.9162
3.059396 84.798 -96.5308
3.081565 84.827 -96.1185
3.103896 84.857 -95.6831
3.126388 84.890 -95.2284
3.149043 84.925 -94.7586
3.171862 84.963 -94.2776
3.194847 85.005 -93.7896
3.217998 85.051 -93.2978
3.241317 85.102 -92.8048
3.264805 85.160 -92.3120
3.288463 85.223 -91.8188
3.312293 85.293 -91.3238
3.336295 85.368 -90.8250
3.360471 85.451 -90.3216
3.384822 85.538 -89.8149
3.409350 85.631 -89.3078
3.434056 85.729 -88.8046
3.458940 85.831 -88.3106
3.484005 85.937 -87.8313
3.509252 86.045 -87.3726
3.534681 86.156 -86.9398
3.560295 86.268 -86.5382
3.586094 86.382 -86.1720
3.612081 86.497 -85.8443
3.638255 86.613 -85.5567
3.664620 86.729 -85.3092
3.691175 86.847 -85.1003
3.717923 86.967 -84.9276
3.744864 87.089 -84.7890
3.772001 87.212 -84.6824
3.799335 87.336 -84.6066
3.826866 87.461 -84.5604
3.854597 87.585 -84.5432
3.882529 87.708 -84.5544
3.910664 87.830 -84.5938
3.939002 87.949 -84.6614
3.967546 88.065 -84.7574
3.996296 88.178 -84.8824
4.025255 88.287 -85.0369
4.054423 88.392 -85.2215
4.083804 88.494 -85.4360
4.113396 88.592 -85.6793
4.143204 88.687 -85.9492
4.173227 88.778 -86.2429
4.203468 88.866 -86.5569
4.233928 88.950 -86.8879
4.264609 89.030 -87.2326
4.295512 89.106 -87.5883
4.326639 89.178 -87.9530
4.357992 89.245 -88.3261
4.389572 89.308 -88.7080
4.421380 89.366 -89.0999
4.453419 89.418 -89.5032
4.485691 89.466 -89.9181
4.518196 89.509 -90.3434
4.550936 89.547 -90.7765
4.583914 89.581 -91.2139
4.617131 89.611 -91.6517
4.650589 89.637 -92.0857
4.684289 89.659 -92.5125
4.718233 89.677 -92.9293
4.752424 89.692 -93.3350
4.786862 89.702 -93.7295
4.821549 89.709 -94.1138
4.856488 89.711 -94.4886
4.891680 89.710 -94.8540
4.927127 89.706 -95.2094
4.962831 89.699 -95.5533
4.998794 89.689 -95.8837
5.035017 89.678 -96.1984
5.071503 89.666 -96.4951
5.108253 89.653 -96.7718
5.145270 89.639 -97.0274
5.182555 89.624 -97.2615
5.220110 89.608 -97.4746
5.257937 89.592 -97.6682
5.296038 89.576 -97.8442
5.334415 89.560 -98.0046
5.373071 89.545 -98.1516
5.412006 89.532 -98.2868
5.451224 89.522 -98.4111
5.490725 89.514 -98.5250
5.530514 89.509 -98.6283
5.570590 89.507 -98.7215
5.610957 89.508 -98.8064
5.651616 89.512 -98.8859
5.692570 89.519 -98.9642
5.733821 89.529 -99.0460
5.775370 89.542 -99.1358
5.817221 89.558 -99.2371
5.859375 89.578 -99.3523
5.901834 89.602 -99.4826
5.944602 89.628 -99.6287
5.987679 89.658 -99.7915
6.031068 89.691 -99.9726
6.074771 89.726 -100.1746
6.118792 89.763 -100.3999
6.163131 89.801 -100.6514
6.207792 89.840 -100.9309
6.252776 89.880 -101.2398
6.298086 89.920 -101.5779
6.343725 89.961 -101.9445
6.389694 90.002 -102.3380
6.435996 90.042 -102.7567
6.482634 90.081 -103.1992
6.529610 90.120 -103.6642
6.576926 90.156 -104.1512
6.624585 90.191 -104.6598
6.672590 90.223 -105.1892
6.720942 90.254 -105.7377
6.769645 90.282 -106.3023
6.818700 90.308 -106.8796
6.868111 90.331 -107.4659
6.917881 90.353 -108.0583
6.968010 90.372 -108.6546
7.018504 90.388 -109.2537
7.069362 90.403 -109.8543
7.120590 90.415 -110.4546
7.172189 90.425 -111.0517
7.224161 90.434 -111.6427
7.276511 90.442 -112.2246
7.329239 90.449 -112.7951
7.382350 90.456 -113.3528
7.435845 90.462 -113.8973
7.489729 90.469 -114.4283
7.544002 90.475 -114.9455
7.598669 90.483 -115.4484
7.653732 90.493 -115.9366
7.709194 90.504 -116.4096
7.765058 90.517 -116.8675
7.821327 90.533 -117.3113
7.878004 90.552 -117.7426
7.935091 90.573 -118.1636
7.992592 90.598 -118.5762
8.050510 90.625 -118.9822
8.108847 90.657 -119.3829
8.167607 90.691 -119.7796
8.226793 90.729 -120.1740
8.286408 90.770 -120.5681
8.346454 90.814 -120.9643
8.406936 90.861 -121.3644
8.467856 90.910 -121.7697
8.529218 90.961 -122.1807
8.591024 91.014 -122.5977
8.653278 91.068 -123.0208
8.715983 91.124 -123.4502
8.779143 91.180 -123.8859
8.842760 91.236 -124.3275
8.906839 91.293 -124.7741
8.971381 91.349 -125.2245
9.036392 91.405 -125.6769
9.101873 91.460 -126.1294
9.167829 91.514 -126.5806
9.234263 91.566 -127.0290
9.301178 91.618 -127.4731
9.368578 91.668 -127.9109
9.436467 91.718 -128.3407
9.504847 91.766 -128.7605
9.573723 91.812 -129.1690
9.643099 91.858 -129.5652
9.712976 91.903 -129.9484
9.783361 91.947 -130.3179
9.854255 91.991 -130.6730
9.925663 92.034 -131.0135
9.997588 92.077 -131.3394
10.070035 92.119 -131.6511
10.143007 92.162 -131.9493
10.216507 92.204 -132.2347
10.290540 92.247 -132.5083
10.365109 92.290 -132.7707
10.440219 92.333 -133.0230
10.515873 92.375 -133.2664
10.592076 92.418 -133.5019
10.668830 92.461 -133.7305
10.746141 92.503 -133.9531
10.824012 92.545 -134.1702
10.902447 92.587 -134.3825
10.981451 92.628 -134.5906
11.061027 92.669 -134.7950
11.141180 92.708 -134.9958
11.221913 92.747 -135.1933
11.303232 92.784 -135.3876
11.385140 92.821 -135.5789
11.467641 92.857 -135.7673
11.550741 92.891 -135.9532
11.634442 92.925 -136.1368
11.718750 92.957 -136.3185
11.803669 92.989 -136.4987
11.889203 93.019 -136.6779
11.975357 93.049 -136.8569
12.062136 93.077 -137.0363
12.149543 93.104 -137.2170
12.237583 93.131 -137.3995
12.326262 93.156 -137.5846
12.415583 93.180 -137.7728
12.505552 93.202 -137.9649
12.596172 93.223 -138.1610
12.687449 93.243 -138.3614
12.779387 93.261 -138.5661
12.871992 93.278 -138.7751
12.965268 93.293 -138.9883
13.059220 93.306 -139.2052
13.153852 93.318 -139.4255
13.249170 93.328 -139.6488
13.345179 93.337 -139.8748
13.441884 93.345 -140.1034
13.539289 93.352 -140.3345
13.637401 93.358 -140.5680
13.736223 93.363 -140.8044
13.835761 93.367 -141.0443
13.936021 93.372 -141.2882
14.037007 93.376 -141.5371
14.138725 93.380 -141.7918
14.241180 93.385 -142.0534
14.344377 93.389 -142.3227
14.448323 93.394 -142.6007
14.553021 93.398 -142.8878
14.658478 93.403 -143.1844
14.764700 93.408 -143.4906
14.871691 93.412 -143.8060
14.979457 93.417 -144.1302
15.088005 93.421 -144.4623
15.197339 93.426 -144.8012
15.307465 93.430 -145.1458
15.418389 93.435 -145.4947
15.530117 93.439 -145.8468
15.642655 93.444 -146.2010
15.756008 93.450 -146.5565
15.870182 93.456 -146.9124
15.985184 93.463 -147.2685
16.101019 93.472 -147.6245
16.217694 93.482 -147.9804
16.335214 93.493 -148.3364
16.453586 93.506 -148.6926
16.572815 93.520 -149.0491
16.692909 93.535 -149.4060
16.813872 93.551 -149.7630
16.935713 93.569 -150.1196
17.058436 93.587 -150.4751
17.182048 93.606 -150.8285
17.306556 93.625 -151.1786
17.431967 93.645 -151.5242
17.558286 93.666 -151.8640
17.685521 93.686 -152.1967
17.813677 93.707 -152.5214
17.942762 93.729 -152.8374
18.072783 93.751 -153.1442
18.203746 93.773 -153.4417
18.335658 93.795 -153.7300
18.468526 93.818 -154.0096
18.602356 93.842 -154.2809
18.737156 93.865 -154.5446
18.872934 93.889 -154.8013
19.009695 93.912 -155.0515
19.147447 93.934 -155.2956
19.286197 93.957 -155.5339
19.425953 93.978 -155.7666
19.566721 93.999 -155.9937
19.708510 94.018 -156.2153
19.851326 94.036 -156.4316
19.995177 94.054 -156.6428
20.140070 94.070 -156.8492
20.286013 94.084 -157.0513
20.433014 94.098 -157.2497
20.581080 94.110 -157.4449
20.730219 94.121 -157.6376
20.880439 94.131 -157.8287
21.031747 94.139 -158.0187
21.184152 94.147 -158.2084
21.337661 94.153 -158.3985
21.492282 94.158 -158.5898
21.648024 94.162 -158.7831
21.804895 94.165 -158.9794
21.962902 94.168 -159.1798
22.122054 94.170 -159.3854
22.282360 94.171 -159.5974
22.443827 94.172 -159.8166
22.606464 94.172 -160.0438
22.770280 94.172 -160.2793
22.935283 94.171 -160.5233
23.101481 94.170 -160.7751
23.268884 94.168 -161.0342
23.437500 94.165 -161.2995
23.607338 94.163 -161.5698
23.778406 94.160 -161.8442
23.950714 94.158 -162.1219
24.124271 94.156 -162.4023
24.299086 94.155 -162.6852
24.475167 94.155 -162.9705
24.652524 94.156 -163.2583
24.831166 94.158 -163.5488
25.011103 94.161 -163.8418
25.192344 94.165 -164.1367
25.374898 94.170 -164.4328
25.558775 94.176 -164.7289
25.743984 94.182 -165.0235
25.930536 94.189 -165.3152
26.118439 94.197 -165.6026
26.307704 94.205 -165.8846
26.498341 94.213 -166.1603
26.690359 94.223 -166.4293
26.883768 94.232 -166.6914
27.078579 94.242 -166.9468
27.274801 94.253 -167.1958
27.472446 94.263 -167.4386
27.671522 94.274 -167.6755
27.872042 94.284 -167.9068
28.074014 94.293 -168.1326
28.277450 94.303 -168.3531
28.482360 94.311 -168.5685
28.688755 94.318 -168.7791
28.896645 94.325 -168.9854
29.106042 94.331 -169.1878
29.316957 94.336 -169.3872
29.529400 94.340 -169.5844
29.743382 94.343 -169.7808
29.958915 94.345 -169.9774
30.176009 94.347 -170.1757
30.394677 94.348 -170.3769
30.614929 94.348 -170.5820
30.836778 94.347 -170.7919
31.060234 94.346 -171.0069
31.285309 94.344 -171.2270
31.512015 94.341 -171.4520
31.740364 94.338 -171.6813
31.970368 94.335 -171.9144
32.202039 94.331 -172.1511
32.435388 94.328 -172.3910
32.670428 94.324 -172.6342
32.907171 94.322 -172.8808
33.145630 94.320 -173.1309
33.385817 94.318 -173.3844
33.627745 94.317 -173.6410
33.871425 94.317 -173.9002
34.116871 94.317 -174.1611
34.364096 94.317 -174.4227
34.613113 94.318 -174.6838
34.863934 94.319 -174.9433
35.116572 94.320 -175.2000
35.371041 94.321 -175.4528
35.627354 94.322 -175.7012
35.885525 94.324 -175.9447
36.145566 94.325 -176.1831
36.407492 94.326 -176.4168
36.671316 94.327 -176.6463
36.937051 94.328 -176.8724
37.204712 94.328 -177.0958
37.474313 94.328 -177.3173
37.745867 94.327 -177.5374
38.019389 94.326 -177.7562
38.294893 94.323 -177.9736
38.572394 94.320 -178.1895
38.851905 94.316 -178.4037
39.133442 94.311 -178.6164
39.417019 94.307 -178.8281
39.702651 94.301 -179.0399
39.990353 94.296 -179.2531
40.280140 94.291 -179.4689
40.572026 94.286 -179.6881
40.866028 94.280 -179.9105
41.162160 94.275 179.8649
41.460438 94.269 179.6395
41.760877 94.263 179.4146
42.063494 94.257 179.1907
42.368303 94.252 178.9677
42.675322 94.248 178.7442
42.984565 94.244 178.5188
43.296048 94.241 178.2903
43.609789 94.237 178.0584
43.925804 94.234 177.8245
44.244108 94.229 177.5903
44.564719 94.224 177.3582
44.887654 94.219 177.1303
45.212928 94.213 176.9074
45.540560 94.207 176.6894
45.870565 94.201 176.4752
46.202962 94.196 176.2633
46.537768 94.190 176.0524
46.875000 94.185 175.8415
47.214676 94.180 175.6304
47.556813 94.174 175.4191
47.901429 94.169 175.2074
48.248542 94.164 174.9950
48.598171 94.159 174.7812
48.950334 94.154 174.5656
49.305048 94.149 174.3481
49.662333 94.144 174.1296
50.022206 94.138 173.9110
50.384688 94.132 173.6934
50.749796 94.126 173.4774
51.117550 94.120 173.2631
51.487969 94.113 173.0507
51.861072 94.106 172.8405
52.236879 94.098 172.6334
52.615409 94.091 172.4298
52.996681 94.083 172.2296
53.380717 94.075 172.0317
53.767536 94.068 171.8344
54.157158 94.061 171.6362
54.549603 94.054 171.4370
54.944892 94.047 171.2369
55.343045 94.040 171.0367
55.744084 94.034 170.8360
56.148028 94.028 170.6334
56.554900 94.023 170.4272
56.964720 94.019 170.2161
57.377510 94.015 169.9998
57.793291 94.010 169.7787
58.212085 94.006 169.5536
58.633914 94.000 169.3253
59.058799 93.994 169.0947
59.486764 93.988 168.8634
59.917829 93.980 168.6334
60.352019 93.971 168.4063
60.789354 93.961 168.1825
61.229859 93.951 167.9611
61.673556 93.941 167.7408
62.120468 93.930 167.5209
62.570618 93.918 167.3014
63.024031 93.906 167.0828
63.480729 93.894 166.8652
63.940736 93.882 166.6479
64.404077 93.870 166.4306
64.870776 93.858 166.2128
65.340856 93.846 165.9950
65.814343 93.835 165.7781
66.291261 93.823 165.5629
66.771635 93.812 165.3494
67.255489 93.801 165.1373
67.742850 93.790 164.9261
68.233743 93.779 164.7153
68.728193 93.769 164.5051
69.226226 93.757 164.2957
69.727867 93.746 164.0878
70.233144 93.734 163.8816
70.742083 93.722 163.6774
71.254709 93.711 163.4752
71.771050 93.699 163.2742
72.291132 93.688 163.0729
72.814984 93.677 162.8696
73.342631 93.667 162.6631
73.874102 93.657 162.4534
74.409424 93.647 162.2411
74.948626 93.636 162.0273
75.491734 93.625 161.8135
76.038779 93.614 161.6013
76.589787 93.603 161.3916
77.144788 93.592 161.1835
77.703811 93.581 160.9742
78.266885 93.571 160.7603
78.834039 93.561 160.5394
79.405303 93.550 160.3115
79.980706 93.539 160.0779
80.560280 93.527 159.8398
81.144053 93.515 159.5972
81.732056 93.502 159.3498
82.324320 93.488 159.0979
82.920876 93.473 158.8433
83.521755 93.456 158.5889
84.126988 93.438 158.3373
84.736607 93.419 158.0910
85.350643 93.398 157.8516
85.969129 93.377 157.6197
86.592097 93.355 157.3954
