* Measurement data measured by REW V5.31.3
* Source: EXCL: Microphone (USB Sound Device        ), MICROPHONE (Master Volume), R, volume: 0.390
* Format: 256k Log Swept Sine, 1 sweep at -15.0 dBFS with no timing reference
* Dated: Jun 23, 2025 12:06:28 AM
* REW Settings:
*  C-weighting compensation: Off
*  Target level: 75.0 dB
* Note: Kefine Quatio Silver L
* Measurement: Kefine Quatio Silver L
* Smoothing: 1/12 octave
* Frequency Step: 96 ppo
* Start Frequency: 0.36621094 Hz
*
* Freq(Hz) SPL(dB) Phase(degrees)
0.366211 93.624 159.3847
0.368865 93.618 159.3631
0.371538 93.610 159.3307
0.374230 93.599 159.2901
0.376942 93.587 159.2433
0.379673 93.574 159.1918
0.382424 93.561 159.1367
0.385196 93.547 159.0786
0.387987 93.533 159.0179
0.390798 93.519 158.9547
0.393630 93.505 158.8891
0.396483 93.490 158.8212
0.399356 93.476 158.7509
0.402250 93.461 158.6784
0.405165 93.447 158.6035
0.408101 93.432 158.5262
0.411058 93.417 158.4465
0.414037 93.402 158.3644
0.417037 93.387 158.2799
0.420059 93.371 158.1929
0.423103 93.356 158.1034
0.426169 93.340 158.0115
0.429257 93.325 157.9170
0.432368 93.309 157.8199
0.435501 93.293 157.7203
0.438656 93.277 157.6181
0.441835 93.261 157.5133
0.445037 93.245 157.4059
0.448262 93.229 157.2958
0.451510 93.212 157.1831
0.454782 93.196 157.0676
0.458077 93.179 156.9495
0.461397 93.163 156.8286
0.464740 93.146 156.7050
0.468108 93.129 156.5787
0.471500 93.111 156.4496
0.474917 93.094 156.3176
0.478358 93.077 156.1829
0.481825 93.059 156.0454
0.485316 93.042 155.9051
0.488833 93.024 155.7619
0.492375 93.006 155.6159
0.495943 92.988 155.4671
0.499537 92.970 155.3154
0.503157 92.952 155.1608
0.506803 92.933 155.0033
0.510475 92.915 154.8430
0.514175 92.896 154.6799
0.517900 92.877 154.5138
0.521653 92.858 154.3449
0.525434 92.839 154.1732
0.529241 92.820 153.9986
0.533076 92.800 153.8211
0.536939 92.781 153.6409
0.540830 92.761 153.4577
0.544749 92.741 153.2718
0.548696 92.721 153.0831
0.552673 92.701 152.8917
0.556677 92.681 152.6975
0.560711 92.661 152.5006
0.564774 92.640 152.3010
0.568867 92.620 152.0987
0.572989 92.599 151.8938
0.577141 92.578 151.6864
0.581324 92.557 151.4764
0.585536 92.535 151.2639
0.589779 92.514 151.0490
0.594053 92.492 150.8317
0.598358 92.471 150.6121
0.602694 92.449 150.3902
0.607061 92.427 150.1662
0.611460 92.404 149.9400
0.615891 92.382 149.7118
0.620354 92.359 149.4816
0.624849 92.337 149.2496
0.629377 92.314 149.0158
0.633938 92.291 148.7803
0.638532 92.268 148.5433
0.643159 92.244 148.3048
0.647819 92.221 148.0650
0.652514 92.197 147.8241
0.657242 92.173 147.5820
0.662005 92.149 147.3391
0.666802 92.125 147.0954
0.671634 92.100 146.8511
0.676501 92.076 146.6063
0.681403 92.051 146.3613
0.686341 92.026 146.1163
0.691314 92.001 145.8713
0.696324 91.975 145.6266
0.701370 91.950 145.3824
0.706452 91.924 145.1388
0.711571 91.897 144.8958
0.716728 91.870 144.6535
0.721921 91.841 144.4115
0.727153 91.811 144.1696
0.732422 91.780 143.9270
0.737729 91.746 143.6828
0.743075 91.710 143.4359
0.748460 91.672 143.1857
0.753883 91.633 142.9314
0.759346 91.594 142.6726
0.764849 91.553 142.4090
0.770391 91.512 142.1402
0.775974 91.470 141.8663
0.781597 91.428 141.5871
0.787261 91.385 141.3026
0.792966 91.341 141.0125
0.798712 91.297 140.7170
0.804500 91.253 140.4159
0.810329 91.208 140.1092
0.816201 91.162 139.7969
0.822116 91.115 139.4789
0.828073 91.068 139.1552
0.834074 91.020 138.8258
0.840118 90.972 138.4906
0.846206 90.922 138.1496
0.852338 90.872 137.8029
0.858514 90.821 137.4503
0.864735 90.769 137.0920
0.871001 90.717 136.7280
0.877313 90.663 136.3582
0.883670 90.608 135.9826
0.890074 90.553 135.6015
0.896524 90.496 135.2147
0.903020 90.438 134.8224
0.909564 90.379 134.4246
0.916155 90.319 134.0214
0.922794 90.258 133.6131
0.929481 90.195 133.1996
0.936216 90.131 132.7811
0.943000 90.066 132.3578
0.949834 89.999 131.9299
0.956717 89.931 131.4977
0.963649 89.862 131.0612
0.970632 89.790 130.6209
0.977666 89.718 130.1769
0.984750 89.643 129.7297
0.991886 89.567 129.2795
0.999074 89.489 128.8268
1.006314 89.409 128.3719
1.013606 89.327 127.9154
1.020951 89.243 127.4577
1.028349 89.157 126.9994
1.035801 89.069 126.5409
1.043307 88.979 126.0831
1.050867 88.887 125.6264
1.058482 88.792 125.1717
1.066152 88.695 124.7194
1.073878 88.595 124.2702
1.081660 88.494 123.8246
1.089498 88.390 123.3828
1.097393 88.284 122.9449
1.105345 88.177 122.5104
1.113355 88.068 122.0788
1.121423 87.958 121.6495
1.129549 87.847 121.2220
1.137734 87.735 120.7955
1.145979 87.622 120.3698
1.154283 87.509 119.9444
1.162647 87.394 119.5188
1.171072 87.277 119.0929
1.179558 87.160 118.6660
1.188106 87.040 118.2380
1.196715 86.919 117.8083
1.205387 86.795 117.3766
1.214122 86.670 116.9424
1.222920 86.541 116.5053
1.231782 86.410 116.0647
1.240708 86.276 115.6203
1.249699 86.139 115.1714
1.258754 85.999 114.7175
1.267876 85.854 114.2579
1.277063 85.706 113.7921
1.286318 85.553 113.3193
1.295639 85.396 112.8389
1.305027 85.233 112.3500
1.314484 85.066 111.8519
1.324009 84.893 111.3438
1.333604 84.714 110.8246
1.343268 84.528 110.2936
1.353002 84.336 109.7496
1.362806 84.138 109.1917
1.372681 83.931 108.6188
1.382628 83.717 108.0298
1.392647 83.495 107.4235
1.402739 83.264 106.7988
1.412904 83.024 106.1547
1.423142 82.773 105.4901
1.433455 82.512 104.8042
1.443843 82.238 104.0965
1.454305 81.950 103.3666
1.464844 81.645 102.6146
1.475459 81.321 101.8405
1.486150 80.975 101.0440
1.496920 80.604 100.2244
1.507767 80.209 99.3798
1.518693 79.788 98.5079
1.529698 79.343 97.6053
1.540783 78.873 96.6679
1.551948 78.381 95.6908
1.563194 77.869 94.6683
1.574521 77.338 93.5934
1.585931 76.791 92.4579
1.597423 76.229 91.2522
1.608999 75.656 89.9647
1.620658 75.075 88.5812
1.632402 74.488 87.0851
1.644232 73.898 85.4556
1.656146 73.308 83.6676
1.668147 72.723 81.6899
1.680235 72.146 79.4839
1.692411 71.581 77.0014
1.704675 71.033 74.1824
1.717028 70.505 70.9521
1.729470 70.004 67.2184
1.742003 69.534 62.8701
1.754626 69.101 57.7788
1.767341 68.712 51.8091
1.780147 68.372 44.8422
1.793047 68.089 36.8227
1.806040 67.869 27.8217
1.819128 67.717 18.0898
1.832310 67.638 8.0483
1.845587 67.635 -1.8122
1.858961 67.708 -11.0707
1.872432 67.857 -19.4672
1.886001 68.077 -26.9083
1.899667 68.366 -33.4195
1.913433 68.716 -39.0896
1.927299 69.123 -44.0292
1.941265 69.580 -48.3473
1.955332 70.081 -52.1414
1.969501 70.619 -55.4945
1.983773 71.187 -58.4749
1.998148 71.779 -61.1387
2.012627 72.388 -63.5310
2.027212 73.008 -65.6888
2.041902 73.631 -67.6416
2.056698 74.252 -69.4139
2.071602 74.863 -71.0255
2.086614 75.459 -72.4929
2.101734 76.032 -73.8297
2.116964 76.579 -75.0479
2.132304 77.093 -76.1582
2.147756 77.571 -77.1709
2.163320 78.010 -78.0970
2.178996 78.409 -78.9483
2.194786 78.770 -79.7383
2.210690 79.096 -80.4813
2.226710 79.390 -81.1907
2.242845 79.658 -81.8766
2.259098 79.901 -82.5462
2.275468 80.124 -83.2030
2.291957 80.327 -83.8486
2.308566 80.512 -84.4828
2.325295 80.682 -85.1045
2.342145 80.837 -85.7118
2.359117 80.978 -86.3026
2.376212 81.108 -86.8743
2.393431 81.227 -87.4241
2.410775 81.338 -87.9493
2.428244 81.441 -88.4467
2.445840 81.539 -88.9134
2.463564 81.633 -89.3463
2.481416 81.724 -89.7425
2.499397 81.814 -90.0998
2.517509 81.904 -90.4165
2.535752 81.993 -90.6920
2.554127 82.082 -90.9276
2.572635 82.169 -91.1258
2.591277 82.253 -91.2902
2.610055 82.332 -91.4246
2.628968 82.404 -91.5317
2.648019 82.470 -91.6138
2.667208 82.530 -91.6720
2.686535 82.583 -91.7069
2.706003 82.631 -91.7186
2.725612 82.675 -91.7069
2.745363 82.715 -91.6714
2.765257 82.752 -91.6116
2.785295 82.787 -91.5269
2.805478 82.822 -91.4165
2.825808 82.857 -91.2796
2.846285 82.894 -91.1155
2.866910 82.933 -90.9232
2.887685 82.975 -90.7014
2.908611 83.020 -90.4490
2.929688 83.068 -90.1642
2.950917 83.119 -89.8458
2.972301 83.171 -89.4930
2.993839 83.225 -89.1062
3.015534 83.279 -88.6867
3.037386 83.335 -88.2372
3.059396 83.392 -87.7608
3.081565 83.450 -87.2614
3.103896 83.510 -86.7435
3.126388 83.572 -86.2116
3.149043 83.637 -85.6703
3.171862 83.705 -85.1246
3.194847 83.777 -84.5787
3.217998 83.853 -84.0365
3.241317 83.934 -83.5008
3.264805 84.021 -82.9731
3.288463 84.113 -82.4531
3.312293 84.211 -81.9392
3.336295 84.315 -81.4294
3.360471 84.424 -80.9227
3.384822 84.540 -80.4202
3.409350 84.660 -79.9243
3.434056 84.785 -79.4388
3.458940 84.914 -78.9683
3.484005 85.045 -78.5178
3.509252 85.179 -78.0921
3.534681 85.315 -77.6959
3.560295 85.451 -77.3336
3.586094 85.588 -77.0085
3.612081 85.724 -76.7232
3.638255 85.861 -76.4787
3.664620 85.997 -76.2749
3.691175 86.134 -76.1099
3.717923 86.270 -75.9814
3.744864 86.408 -75.8870
3.772001 86.546 -75.8243
3.799335 86.683 -75.7915
3.826866 86.821 -75.7870
3.854597 86.957 -75.8095
3.882529 87.092 -75.8579
3.910664 87.225 -75.9315
3.939002 87.355 -76.0298
3.967546 87.481 -76.1527
3.996296 87.604 -76.3004
4.025255 87.723 -76.4733
4.054423 87.838 -76.6720
4.083804 87.949 -76.8965
4.113396 88.056 -77.1457
4.143204 88.160 -77.4177
4.173227 88.259 -77.7098
4.203468 88.355 -78.0190
4.233928 88.448 -78.3419
4.264609 88.536 -78.6756
4.295512 88.621 -79.0172
4.326639 88.702 -79.3650
4.357992 88.778 -79.7181
4.389572 88.850 -80.0768
4.421380 88.917 -80.4422
4.453419 88.980 -80.8154
4.485691 89.038 -81.1967
4.518196 89.092 -81.5851
4.550936 89.141 -81.9785
4.583914 89.186 -82.3739
4.617131 89.228 -82.7677
4.650589 89.266 -83.1566
4.684289 89.301 -83.5374
4.718233 89.333 -83.9077
4.752424 89.361 -84.2665
4.786862 89.387 -84.6137
4.821549 89.409 -84.9501
4.856488 89.427 -85.2763
4.891680 89.443 -85.5928
4.927127 89.456 -85.8991
4.962831 89.467 -86.1947
4.998794 89.476 -86.4781
5.035017 89.484 -86.7478
5.071503 89.491 -87.0025
5.108253 89.498 -87.2407
5.145270 89.505 -87.4616
5.182555 89.511 -87.6650
5.220110 89.517 -87.8515
5.257937 89.524 -88.0226
5.296038 89.530 -88.1804
5.334415 89.537 -88.3272
5.373071 89.545 -88.4653
5.412006 89.555 -88.5965
5.451224 89.567 -88.7221
5.490725 89.581 -88.8429
5.530514 89.598 -88.9589
5.570590 89.618 -89.0706
5.610957 89.640 -89.1794
5.651616 89.665 -89.2879
5.692570 89.692 -89.3995
5.733821 89.721 -89.5179
5.775370 89.753 -89.6469
5.817221 89.787 -89.7893
5.859375 89.823 -89.9470
5.901834 89.862 -90.1211
5.944602 89.904 -90.3117
5.987679 89.948 -90.5195
6.031068 89.993 -90.7454
6.074771 90.040 -90.9910
6.118792 90.088 -91.2580
6.163131 90.136 -91.5481
6.207792 90.184 -91.8629
6.252776 90.233 -92.2030
6.298086 90.281 -92.5683
6.343725 90.330 -92.9580
6.389694 90.378 -93.3707
6.435996 90.425 -93.8046
6.482634 90.471 -94.2581
6.529610 90.515 -94.7300
6.576926 90.558 -95.2197
6.624585 90.599 -95.7265
6.672590 90.638 -96.2499
6.720942 90.675 -96.7885
6.769645 90.710 -97.3399
6.818700 90.744 -97.9013
6.868111 90.775 -98.4698
6.917881 90.804 -99.0427
6.968010 90.831 -99.6186
7.018504 90.857 -100.1963
7.069362 90.880 -100.7750
7.120590 90.902 -101.3534
7.172189 90.923 -101.9295
7.224161 90.942 -102.5011
7.276511 90.962 -103.0660
7.329239 90.980 -103.6225
7.382350 90.999 -104.1698
7.435845 91.017 -104.7077
7.489729 91.036 -105.2362
7.544002 91.055 -105.7553
7.598669 91.076 -106.2652
7.653732 91.097 -106.7655
7.709194 91.121 -107.2564
7.765058 91.147 -107.7380
7.821327 91.174 -108.2112
7.878004 91.204 -108.6774
7.935091 91.236 -109.1382
7.992592 91.271 -109.5955
8.050510 91.308 -110.0504
8.108847 91.348 -110.5042
8.167607 91.391 -110.9576
8.226793 91.436 -111.4118
8.286408 91.483 -111.8681
8.346454 91.532 -112.3282
8.406936 91.584 -112.7931
8.467856 91.637 -113.2637
8.529218 91.692 -113.7401
8.591024 91.747 -114.2223
8.653278 91.804 -114.7101
8.715983 91.862 -115.2031
8.779143 91.919 -115.7011
8.842760 91.977 -116.2037
8.906839 92.035 -116.7098
8.971381 92.092 -117.2184
9.036392 92.149 -117.7277
9.101873 92.205 -118.2362
9.167829 92.260 -118.7426
9.234263 92.315 -119.2455
9.301178 92.368 -119.7438
9.368578 92.421 -120.2360
9.436467 92.473 -120.7205
9.504847 92.523 -121.1960
9.573723 92.573 -121.6613
9.643099 92.623 -122.1159
9.712976 92.671 -122.5591
9.783361 92.720 -122.9906
9.854255 92.767 -123.4100
9.925663 92.815 -123.8171
9.997588 92.863 -124.2123
10.070035 92.910 -124.5958
10.143007 92.958 -124.9685
10.216507 93.005 -125.3310
10.290540 93.053 -125.6841
10.365109 93.101 -126.0287
10.440219 93.149 -126.3654
10.515873 93.197 -126.6954
10.592076 93.245 -127.0195
10.668830 93.292 -127.3386
10.746141 93.340 -127.6533
10.824012 93.387 -127.9642
10.902447 93.433 -128.2717
10.981451 93.478 -128.5761
11.061027 93.523 -128.8779
11.141180 93.567 -129.1771
11.221913 93.610 -129.4737
11.303232 93.651 -129.7678
11.385140 93.692 -130.0593
11.467641 93.731 -130.3482
11.550741 93.769 -130.6344
11.634442 93.806 -130.9182
11.718750 93.841 -131.1995
11.803669 93.875 -131.4784
11.889203 93.908 -131.7554
11.975357 93.940 -132.0306
12.062136 93.970 -132.3047
12.149543 94.000 -132.5779
12.237583 94.028 -132.8509
12.326262 94.055 -133.1240
12.415583 94.080 -133.3980
12.505552 94.105 -133.6731
12.596172 94.128 -133.9499
12.687449 94.150 -134.2287
12.779387 94.170 -134.5096
12.871992 94.189 -134.7930
12.965268 94.207 -135.0789
13.059220 94.224 -135.3673
13.153852 94.239 -135.6583
13.249170 94.253 -135.9518
13.345179 94.266 -136.2477
13.441884 94.278 -136.5463
13.539289 94.288 -136.8475
13.637401 94.298 -137.1517
13.736223 94.307 -137.4591
13.835761 94.316 -137.7701
13.936021 94.324 -138.0854
14.037007 94.332 -138.4056
14.138725 94.340 -138.7312
14.241180 94.347 -139.0630
14.344377 94.354 -139.4016
14.448323 94.361 -139.7475
14.553021 94.368 -140.1011
14.658478 94.375 -140.4624
14.764700 94.381 -140.8316
14.871691 94.388 -141.2084
14.979457 94.394 -141.5923
15.088005 94.400 -141.9827
15.197339 94.405 -142.3787
15.307465 94.411 -142.7794
15.418389 94.417 -143.1839
15.530117 94.422 -143.5913
15.642655 94.428 -144.0007
15.756008 94.434 -144.4114
15.870182 94.441 -144.8228
15.985184 94.449 -145.2347
16.101019 94.457 -145.6469
16.217694 94.467 -146.0592
16.335214 94.477 -146.4719
16.453586 94.489 -146.8851
16.572815 94.501 -147.2989
16.692909 94.515 -147.7134
16.813872 94.530 -148.1284
16.935713 94.545 -148.5438
17.058436 94.562 -148.9590
17.182048 94.578 -149.3732
17.306556 94.595 -149.7857
17.431967 94.612 -150.1954
17.558286 94.630 -150.6012
17.685521 94.647 -151.0019
17.813677 94.665 -151.3964
17.942762 94.682 -151.7839
18.072783 94.700 -152.1635
18.203746 94.717 -152.5347
18.335658 94.735 -152.8972
18.468526 94.752 -153.2509
18.602356 94.770 -153.5958
18.737156 94.787 -153.9323
18.872934 94.804 -154.2608
19.009695 94.821 -154.5816
19.147447 94.838 -154.8954
19.286197 94.854 -155.2026
19.425953 94.870 -155.5039
19.566721 94.885 -155.7996
19.708510 94.899 -156.0905
19.851326 94.913 -156.3770
19.995177 94.925 -156.6596
20.140070 94.937 -156.9389
20.286013 94.947 -157.2155
20.433014 94.956 -157.4897
20.581080 94.964 -157.7622
20.730219 94.970 -158.0332
20.880439 94.976 -158.3032
21.031747 94.979 -158.5724
21.184152 94.982 -158.8412
21.337661 94.983 -159.1100
21.492282 94.983 -159.3791
21.648024 94.982 -159.6491
21.804895 94.980 -159.9207
21.962902 94.977 -160.1947
22.122054 94.973 -160.4719
22.282360 94.969 -160.7532
22.443827 94.964 -161.0395
22.606464 94.958 -161.3314
22.770280 94.952 -161.6294
22.935283 94.946 -161.9335
23.101481 94.939 -162.2437
23.268884 94.932 -162.5594
23.437500 94.924 -162.8801
23.607338 94.917 -163.2050
23.778406 94.909 -163.5336
23.950714 94.901 -163.8651
24.124271 94.894 -164.1993
24.299086 94.888 -164.5359
24.475167 94.882 -164.8750
24.652524 94.878 -165.2164
24.831166 94.873 -165.5602
25.011103 94.870 -165.9059
25.192344 94.868 -166.2533
25.374898 94.866 -166.6012
25.558775 94.865 -166.9488
25.743984 94.864 -167.2947
25.930536 94.863 -167.6377
26.118439 94.863 -167.9766
26.307704 94.863 -168.3106
26.498341 94.864 -168.6390
26.690359 94.865 -168.9615
26.883768 94.866 -169.2782
27.078579 94.868 -169.5892
27.274801 94.869 -169.8946
27.472446 94.870 -170.1946
27.671522 94.871 -170.4890
27.872042 94.872 -170.7777
28.074014 94.871 -171.0604
28.277450 94.870 -171.3367
28.482360 94.868 -171.6066
28.688755 94.865 -171.8701
28.896645 94.861 -172.1278
29.106042 94.857 -172.3805
29.316957 94.851 -172.6295
29.529400 94.846 -172.8763
29.743382 94.839 -173.1224
29.958915 94.832 -173.3694
30.176009 94.825 -173.6188
30.394677 94.816 -173.8713
30.614929 94.807 -174.1277
30.836778 94.797 -174.3881
31.060234 94.786 -174.6525
31.285309 94.774 -174.9206
31.512015 94.762 -175.1924
31.740364 94.750 -175.4678
31.970368 94.737 -175.7469
32.202039 94.724 -176.0300
32.435388 94.711 -176.3171
32.670428 94.698 -176.6082
32.907171 94.685 -176.9029
33.145630 94.672 -177.2002
33.385817 94.659 -177.4992
33.627745 94.647 -177.7983
33.871425 94.634 -178.0963
34.116871 94.622 -178.3923
34.364096 94.610 -178.6854
34.613113 94.598 -178.9755
34.863934 94.587 -179.2625
35.116572 94.577 -179.5463
35.371041 94.566 -179.8270
35.627354 94.556 179.8958
35.885525 94.545 179.6224
36.145566 94.534 179.3531
36.407492 94.523 179.0885
36.671316 94.511 178.8285
36.937051 94.499 178.5729
37.204712 94.487 178.3214
37.474313 94.474 178.0733
37.745867 94.460 177.8282
38.019389 94.445 177.5859
38.294893 94.430 177.3459
38.572394 94.415 177.1080
38.851905 94.399 176.8717
39.133442 94.382 176.6362
39.417019 94.365 176.4007
39.702651 94.348 176.1642
39.990353 94.330 175.9261
40.280140 94.313 175.6862
40.572026 94.294 175.4447
40.866028 94.276 175.2026
41.162160 94.257 174.9605
41.460438 94.238 174.7191
41.760877 94.220 174.4782
42.063494 94.202 174.2376
42.368303 94.183 173.9966
42.675322 94.165 173.7553
42.984565 94.147 173.5140
43.296048 94.129 173.2740
43.609789 94.110 173.0365
43.925804 94.091 172.8023
44.244108 94.072 172.5715
44.564719 94.053 172.3434
44.887654 94.034 172.1172
45.212928 94.014 171.8921
45.540560 93.995 171.6685
45.870565 93.974 171.4473
46.202962 93.954 171.2295
46.537768 93.933 171.0156
46.875000 93.911 170.8050
47.214676 93.891 170.5966
47.556813 93.870 170.3889
47.901429 93.849 170.1807
48.248542 93.829 169.9719
48.598171 93.808 169.7624
48.950334 93.788 169.5526
49.305048 93.767 169.3430
49.662333 93.746 169.1335
50.022206 93.725 168.9244
50.384688 93.704 168.7161
50.749796 93.682 168.5092
51.117550 93.660 168.3047
51.487969 93.638 168.1034
51.861072 93.615 167.9056
52.236879 93.591 167.7117
52.615409 93.568 167.5211
52.996681 93.544 167.3334
53.380717 93.521 167.1479
53.767536 93.497 166.9635
54.157158 93.474 166.7795
54.549603 93.450 166.5951
54.944892 93.427 166.4099
55.343045 93.404 166.2236
55.744084 93.381 166.0360
56.148028 93.358 165.8470
56.554900 93.335 165.6562
56.964720 93.313 165.4636
57.377510 93.291 165.2689
57.793291 93.269 165.0725
58.212085 93.246 164.8752
58.633914 93.224 164.6780
59.058799 93.200 164.4819
59.486764 93.176 164.2878
59.917829 93.152 164.0964
60.352019 93.126 163.9081
60.789354 93.100 163.7232
61.229859 93.073 163.5417
61.673556 93.046 163.3633
62.120468 93.017 163.1876
62.570618 92.989 163.0142
63.024031 92.960 162.8428
63.480729 92.930 162.6732
63.940736 92.901 162.5052
64.404077 92.872 162.3383
64.870776 92.843 162.1721
65.340856 92.813 162.0068
65.814343 92.785 161.8428
66.291261 92.756 161.6807
66.771635 92.727 161.5213
67.255489 92.698 161.3650
67.742850 92.670 161.2120
68.233743 92.641 161.0624
68.728193 92.612 160.9159
69.226226 92.583 160.7722
69.727867 92.554 160.6308
70.233144 92.525 160.4914
70.742083 92.496 160.3536
71.254709 92.466 160.2166
71.771050 92.437 160.0795
72.291132 92.407 159.9415
72.814984 92.378 159.8022
73.342631 92.348 159.6625
73.874102 92.319 159.5238
74.409424 92.289 159.3871
74.948626 92.259 159.2531
75.491734 92.230 159.1217
76.038779 92.201 158.9925
76.589787 92.173 158.8649
77.144788 92.144 158.7382
77.703811 92.116 158.6111
78.266885 92.089 158.4821
78.834039 92.061 158.3500
79.405303 92.033 158.2143
79.980706 92.004 158.0745
80.560280 91.976 157.9303
81.144053 91.946 157.7809
81.732056 91.916 157.6263
82.324320 91.884 157.4673
82.920876 91.851 157.3062
83.521755 91.816 157.1458
84.126988 91.780 156.9891
84.736607 91.742 156.8391
85.350643 91.702 156.6978
85.969129 91.662 156.5666
86.592097 91.621 156.4453
87.219579 91.580 156.3334
