* Measurement data measured by REW V5.31
* Source: EXCL: Microphone (USB Sound Device        ), MICROPHONE (Master Volume), L, volume: 0.390
* Format: 256k Log Swept Sine, 1 sweep at -4.0 dBFS with no timing reference
* Dated: Jul 21, 2024 11:49:49 PM
* REW Settings:
*  C-weighting compensation: Off
*  Target level: 75.0 dB
* Note: Kefine Delci AE Silver L
* Measurement: L Kefine Delci AE Silver
* Smoothing: 1/12 octave
* Frequency Step: 96 ppo
* Start Frequency: 0.36621094 Hz
*
* Freq(Hz) SPL(dB) Phase(degrees)
0.366211 84.907 -65.2613
0.368865 84.913 -65.3270
0.371538 84.921 -65.4254
0.374230 84.931 -65.5487
0.376942 84.942 -65.6906
0.379673 84.955 -65.8462
0.382424 84.967 -66.0122
0.385196 84.981 -66.1869
0.387987 84.994 -66.3691
0.390798 85.007 -66.5581
0.393630 85.021 -66.7536
0.396483 85.035 -66.9556
0.399356 85.048 -67.1638
0.402250 85.062 -67.3783
0.405165 85.076 -67.5992
0.408101 85.091 -67.8263
0.411058 85.105 -68.0598
0.414037 85.119 -68.2996
0.417037 85.134 -68.5457
0.420059 85.148 -68.7981
0.423103 85.163 -69.0569
0.426169 85.178 -69.3221
0.429257 85.192 -69.5935
0.432368 85.207 -69.8713
0.435501 85.222 -70.1555
0.438656 85.238 -70.4459
0.441835 85.253 -70.7426
0.445037 85.268 -71.0455
0.448262 85.284 -71.3547
0.451510 85.300 -71.6701
0.454782 85.315 -71.9917
0.458077 85.331 -72.3193
0.461397 85.347 -72.6530
0.464740 85.363 -72.9928
0.468108 85.379 -73.3384
0.471500 85.396 -73.6900
0.474917 85.412 -74.0474
0.478358 85.429 -74.4106
0.481825 85.445 -74.7794
0.485316 85.462 -75.1538
0.488833 85.479 -75.5337
0.492375 85.496 -75.9189
0.495943 85.513 -76.3095
0.499537 85.531 -76.7053
0.503157 85.548 -77.1062
0.506803 85.566 -77.5120
0.510475 85.583 -77.9227
0.514175 85.601 -78.3382
0.517900 85.619 -78.7582
0.521653 85.637 -79.1826
0.525434 85.655 -79.6114
0.529241 85.674 -80.0444
0.533076 85.692 -80.4813
0.536939 85.711 -80.9222
0.540830 85.730 -81.3667
0.544749 85.748 -81.8148
0.548696 85.767 -82.2663
0.552673 85.787 -82.7210
0.556677 85.806 -83.1788
0.560711 85.825 -83.6394
0.564774 85.845 -84.1027
0.568867 85.865 -84.5686
0.572989 85.884 -85.0367
0.577141 85.904 -85.5070
0.581324 85.925 -85.9793
0.585536 85.945 -86.4534
0.589779 85.965 -86.9290
0.594053 85.986 -87.4061
0.598358 86.007 -87.8844
0.602694 86.028 -88.3637
0.607061 86.049 -88.8438
0.611460 86.070 -89.3246
0.615891 86.091 -89.8059
0.620354 86.113 -90.2875
0.624849 86.134 -90.7691
0.629377 86.156 -91.2507
0.633938 86.178 -91.7321
0.638532 86.200 -92.2130
0.643159 86.222 -92.6933
0.647819 86.245 -93.1728
0.652514 86.267 -93.6514
0.657242 86.290 -94.1289
0.662005 86.313 -94.6052
0.666802 86.336 -95.0800
0.671634 86.359 -95.5533
0.676501 86.383 -96.0249
0.681403 86.406 -96.4946
0.686341 86.430 -96.9624
0.691314 86.454 -97.4281
0.696324 86.478 -97.8917
0.701370 86.502 -98.3531
0.706452 86.526 -98.8123
0.711571 86.550 -99.2696
0.716728 86.573 -99.7253
0.721921 86.595 -100.1800
0.727153 86.616 -100.6348
0.732422 86.635 -101.0910
0.737729 86.653 -101.5503
0.743075 86.668 -102.0145
0.748460 86.682 -102.4847
0.753883 86.694 -102.9620
0.759346 86.706 -103.4470
0.764849 86.717 -103.9400
0.770391 86.728 -104.4410
0.775974 86.739 -104.9502
0.781597 86.749 -105.4673
0.787261 86.760 -105.9923
0.792966 86.769 -106.5250
0.798712 86.779 -107.0652
0.804500 86.788 -107.6126
0.810329 86.797 -108.1672
0.816201 86.806 -108.7286
0.822116 86.814 -109.2965
0.828073 86.822 -109.8708
0.834074 86.830 -110.4511
0.840118 86.837 -111.0373
0.846206 86.844 -111.6288
0.852338 86.850 -112.2256
0.858514 86.856 -112.8272
0.864735 86.861 -113.4334
0.871001 86.866 -114.0437
0.877313 86.870 -114.6579
0.883670 86.874 -115.2755
0.890074 86.876 -115.8963
0.896524 86.879 -116.5198
0.903020 86.880 -117.1457
0.909564 86.881 -117.7736
0.916155 86.881 -118.4030
0.922794 86.880 -119.0335
0.929481 86.878 -119.6648
0.936216 86.876 -120.2964
0.943000 86.872 -120.9280
0.949834 86.868 -121.5589
0.956717 86.862 -122.1889
0.963649 86.855 -122.8175
0.970632 86.848 -123.4442
0.977666 86.839 -124.0686
0.984750 86.829 -124.6903
0.991886 86.818 -125.3087
0.999074 86.805 -125.9234
1.006314 86.791 -126.5340
1.013606 86.776 -127.1400
1.020951 86.759 -127.7409
1.028349 86.741 -128.3362
1.035801 86.721 -128.9256
1.043307 86.699 -129.5086
1.050867 86.676 -130.0849
1.058482 86.651 -130.6541
1.066152 86.625 -131.2162
1.073878 86.597 -131.7715
1.081660 86.567 -132.3205
1.089498 86.536 -132.8647
1.097393 86.504 -133.4062
1.105345 86.472 -133.9474
1.113355 86.440 -134.4915
1.121423 86.408 -135.0410
1.129549 86.377 -135.5980
1.137734 86.346 -136.1640
1.145979 86.316 -136.7402
1.154283 86.286 -137.3272
1.162647 86.256 -137.9257
1.171072 86.226 -138.5360
1.179558 86.196 -139.1584
1.188106 86.166 -139.7933
1.196715 86.134 -140.4408
1.205387 86.102 -141.1010
1.214122 86.068 -141.7742
1.222920 86.032 -142.4603
1.231782 85.994 -143.1594
1.240708 85.954 -143.8715
1.249699 85.911 -144.5965
1.258754 85.864 -145.3341
1.267876 85.814 -146.0842
1.277063 85.760 -146.8464
1.286318 85.702 -147.6203
1.295639 85.638 -148.4052
1.305027 85.569 -149.2005
1.314484 85.495 -150.0055
1.324009 85.414 -150.8191
1.333604 85.326 -151.6402
1.343268 85.231 -152.4674
1.353002 85.128 -153.2993
1.362806 85.016 -154.1342
1.372681 84.896 -154.9701
1.382628 84.766 -155.8048
1.392647 84.625 -156.6360
1.402739 84.474 -157.4612
1.412904 84.310 -158.2778
1.423142 84.134 -159.0834
1.433455 83.944 -159.8761
1.443843 83.738 -160.6548
1.454305 83.515 -161.4200
1.464844 83.272 -162.1741
1.475459 83.005 -162.9211
1.486150 82.713 -163.6663
1.496920 82.394 -164.4147
1.507767 82.045 -165.1706
1.518693 81.668 -165.9378
1.529698 81.264 -166.7191
1.540783 80.832 -167.5170
1.551948 80.375 -168.3337
1.563194 79.895 -169.1713
1.574521 79.393 -170.0318
1.585931 78.873 -170.9175
1.597423 78.336 -171.8305
1.608999 77.786 -172.7734
1.620658 77.225 -173.7490
1.632402 76.657 -174.7601
1.644232 76.084 -175.8101
1.656146 75.510 -176.9028
1.668147 74.939 -178.0423
1.680235 74.375 -179.2337
1.692411 73.822 179.5175
1.704675 73.285 178.2047
1.717028 72.769 176.8197
1.729470 72.279 175.3529
1.742003 71.821 173.7919
1.754626 71.401 172.1208
1.767341 71.026 170.3181
1.780147 70.702 168.3533
1.793047 70.436 166.1807
1.806040 70.234 163.7288
1.819128 70.102 160.8787
1.832310 70.044 157.4240
1.845587 70.062 152.9882
1.858961 70.155 146.8447
1.872432 70.321 137.4913
1.886001 70.558 121.7349
1.899667 70.861 94.7149
1.913433 71.224 60.6200
1.927299 71.643 35.5985
1.941265 72.111 21.2330
1.955332 72.623 12.6553
1.969501 73.172 7.0165
1.983773 73.753 2.9835
1.998148 74.360 -0.0980
2.012627 74.987 -2.5765
2.027212 75.626 -4.6523
2.041902 76.273 -6.4485
2.056698 76.921 -8.0443
2.071602 77.564 -9.4937
2.086614 78.196 -10.8347
2.101734 78.812 -12.0952
2.116964 79.407 -13.2966
2.132304 79.976 -14.4556
2.147756 80.516 -15.5861
2.163320 81.025 -16.6994
2.178996 81.504 -17.8054
2.194786 81.955 -18.9121
2.210690 82.380 -20.0250
2.226710 82.785 -21.1469
2.242845 83.174 -22.2778
2.259098 83.549 -23.4154
2.275468 83.913 -24.5560
2.291957 84.266 -25.6958
2.308566 84.609 -26.8308
2.325295 84.944 -27.9577
2.342145 85.269 -29.0736
2.359117 85.587 -30.1761
2.376212 85.897 -31.2639
2.393431 86.199 -32.3354
2.410775 86.493 -33.3903
2.428244 86.781 -34.4282
2.445840 87.063 -35.4495
2.463564 87.338 -36.4550
2.481416 87.607 -37.4460
2.499397 87.870 -38.4249
2.517509 88.128 -39.3948
2.535752 88.378 -40.3600
2.554127 88.623 -41.3259
2.572635 88.859 -42.2985
2.591277 89.087 -43.2828
2.610055 89.306 -44.2827
2.628968 89.515 -45.2987
2.648019 89.715 -46.3299
2.667208 89.906 -47.3735
2.686535 90.088 -48.4258
2.706003 90.261 -49.4828
2.725612 90.427 -50.5405
2.745363 90.586 -51.5948
2.765257 90.738 -52.6420
2.785295 90.885 -53.6786
2.805478 91.026 -54.7015
2.825808 91.164 -55.7086
2.846285 91.298 -56.6982
2.866910 91.429 -57.6698
2.887685 91.557 -58.6246
2.908611 91.683 -59.5653
2.929688 91.805 -60.4966
2.950917 91.924 -61.4243
2.972301 92.039 -62.3538
2.993839 92.148 -63.2887
3.015534 92.253 -64.2306
3.037386 92.352 -65.1790
3.059396 92.446 -66.1321
3.081565 92.535 -67.0870
3.103896 92.619 -68.0402
3.126388 92.699 -68.9879
3.149043 92.774 -69.9261
3.171862 92.846 -70.8512
3.194847 92.914 -71.7593
3.217998 92.979 -72.6478
3.241317 93.040 -73.5147
3.264805 93.098 -74.3600
3.288463 93.153 -75.1851
3.312293 93.205 -75.9937
3.336295 93.252 -76.7896
3.360471 93.295 -77.5767
3.384822 93.334 -78.3570
3.409350 93.368 -79.1311
3.434056 93.398 -79.8981
3.458940 93.425 -80.6561
3.484005 93.448 -81.4023
3.509252 93.468 -82.1334
3.534681 93.485 -82.8458
3.560295 93.501 -83.5358
3.586094 93.514 -84.1995
3.612081 93.525 -84.8340
3.638255 93.535 -85.4371
3.664620 93.543 -86.0082
3.691175 93.548 -86.5475
3.717923 93.551 -87.0568
3.744864 93.552 -87.5375
3.772001 93.550 -87.9914
3.799335 93.545 -88.4198
3.826866 93.540 -88.8235
3.854597 93.533 -89.2030
3.882529 93.527 -89.5584
3.910664 93.521 -89.8895
3.939002 93.516 -90.1954
3.967546 93.513 -90.4752
3.996296 93.512 -90.7269
4.025255 93.514 -90.9488
4.054423 93.518 -91.1389
4.083804 93.524 -91.2961
4.113396 93.532 -91.4211
4.143204 93.541 -91.5158
4.173227 93.554 -91.5836
4.203468 93.568 -91.6289
4.233928 93.586 -91.6565
4.264609 93.608 -91.6715
4.295512 93.633 -91.6785
4.326639 93.663 -91.6811
4.357992 93.698 -91.6816
4.389572 93.738 -91.6807
4.421380 93.784 -91.6776
4.453419 93.835 -91.6714
4.485691 93.891 -91.6622
4.518196 93.953 -91.6523
4.550936 94.019 -91.6453
4.583914 94.089 -91.6459
4.617131 94.162 -91.6597
4.650589 94.239 -91.6920
4.684289 94.318 -91.7477
4.718233 94.400 -91.8301
4.752424 94.483 -91.9415
4.786862 94.570 -92.0820
4.821549 94.658 -92.2506
4.856488 94.749 -92.4460
4.891680 94.842 -92.6672
4.927127 94.936 -92.9135
4.962831 95.031 -93.1846
4.998794 95.126 -93.4810
5.035017 95.219 -93.8033
5.071503 95.311 -94.1526
5.108253 95.402 -94.5297
5.145270 95.489 -94.9353
5.182555 95.575 -95.3694
5.220110 95.659 -95.8306
5.257937 95.740 -96.3164
5.296038 95.818 -96.8233
5.334415 95.894 -97.3477
5.373071 95.966 -97.8859
5.412006 96.036 -98.4351
5.451224 96.101 -98.9936
5.490725 96.162 -99.5609
5.530514 96.219 -100.1373
5.570590 96.272 -100.7229
5.610957 96.320 -101.3167
5.651616 96.365 -101.9159
5.692570 96.406 -102.5169
5.733821 96.443 -103.1154
5.775370 96.477 -103.7073
5.817221 96.507 -104.2893
5.859375 96.533 -104.8596
5.901834 96.556 -105.4176
5.944602 96.576 -105.9634
5.987679 96.593 -106.4968
6.031068 96.607 -107.0167
6.074771 96.618 -107.5215
6.118792 96.628 -108.0086
6.163131 96.637 -108.4758
6.207792 96.645 -108.9209
6.252776 96.652 -109.3428
6.298086 96.659 -109.7414
6.343725 96.666 -110.1174
6.389694 96.673 -110.4723
6.435996 96.680 -110.8080
6.482634 96.689 -111.1260
6.529610 96.700 -111.4277
6.576926 96.713 -111.7139
6.624585 96.729 -111.9852
6.672590 96.748 -112.2426
6.720942 96.769 -112.4879
6.769645 96.793 -112.7244
6.818700 96.820 -112.9561
6.868111 96.851 -113.1871
6.917881 96.884 -113.4209
6.968010 96.920 -113.6600
7.018504 96.960 -113.9059
7.069362 97.002 -114.1599
7.120590 97.047 -114.4236
7.172189 97.094 -114.6993
7.224161 97.143 -114.9894
7.276511 97.193 -115.2963
7.329239 97.243 -115.6215
7.382350 97.295 -115.9658
7.435845 97.346 -116.3289
7.489729 97.398 -116.7098
7.544002 97.448 -117.1075
7.598669 97.498 -117.5208
7.653732 97.547 -117.9487
7.709194 97.593 -118.3906
7.765058 97.637 -118.8455
7.821327 97.679 -119.3115
7.878004 97.719 -119.7863
7.935091 97.756 -120.2666
7.992592 97.791 -120.7496
8.050510 97.823 -121.2327
8.108847 97.852 -121.7142
8.167607 97.879 -122.1925
8.226793 97.903 -122.6658
8.286408 97.925 -123.1320
8.346454 97.945 -123.5884
8.406936 97.964 -124.0333
8.467856 97.981 -124.4652
8.529218 97.997 -124.8834
8.591024 98.012 -125.2878
8.653278 98.028 -125.6786
8.715983 98.043 -126.0558
8.779143 98.058 -126.4196
8.842760 98.075 -126.7705
8.906839 98.092 -127.1095
8.971381 98.110 -127.4382
9.036392 98.130 -127.7587
9.101873 98.151 -128.0731
9.167829 98.174 -128.3834
9.234263 98.198 -128.6912
9.301178 98.224 -128.9982
9.368578 98.251 -129.3060
9.436467 98.279 -129.6167
9.504847 98.308 -129.9320
9.573723 98.337 -130.2531
9.643099 98.367 -130.5805
9.712976 98.395 -130.9147
9.783361 98.423 -131.2554
9.854255 98.447 -131.6028
9.925663 98.469 -131.9564
9.997588 98.488 -132.3156
10.070035 98.504 -132.6792
10.143007 98.516 -133.0459
10.216507 98.525 -133.4142
10.290540 98.532 -133.7827
10.365109 98.536 -134.1503
10.440219 98.538 -134.5156
10.515873 98.538 -134.8774
10.592076 98.536 -135.2346
10.668830 98.533 -135.5862
10.746141 98.530 -135.9319
10.824012 98.525 -136.2713
10.902447 98.521 -136.6047
10.981451 98.515 -136.9321
11.061027 98.510 -137.2540
11.141180 98.505 -137.5712
11.221913 98.500 -137.8843
11.303232 98.495 -138.1946
11.385140 98.491 -138.5031
11.467641 98.486 -138.8105
11.550741 98.482 -139.1177
11.634442 98.478 -139.4253
11.718750 98.474 -139.7341
11.803669 98.470 -140.0443
11.889203 98.466 -140.3560
11.975357 98.462 -140.6690
12.062136 98.458 -140.9830
12.149543 98.454 -141.2977
12.237583 98.449 -141.6124
12.326262 98.444 -141.9266
12.415583 98.438 -142.2396
12.505552 98.431 -142.5509
12.596172 98.424 -142.8600
12.687449 98.417 -143.1670
12.779387 98.409 -143.4716
12.871992 98.401 -143.7740
12.965268 98.393 -144.0748
13.059220 98.385 -144.3743
13.153852 98.378 -144.6734
13.249170 98.370 -144.9728
13.345179 98.364 -145.2734
13.441884 98.357 -145.5758
13.539289 98.351 -145.8807
13.637401 98.345 -146.1885
13.736223 98.340 -146.4994
13.835761 98.333 -146.8134
13.936021 98.327 -147.1299
14.037007 98.320 -147.4487
14.138725 98.312 -147.7689
14.241180 98.304 -148.0896
14.344377 98.294 -148.4100
14.448323 98.285 -148.7291
14.553021 98.274 -149.0464
14.658478 98.264 -149.3613
14.764700 98.253 -149.6735
14.871691 98.243 -149.9830
14.979457 98.233 -150.2903
15.088005 98.224 -150.5959
15.197339 98.215 -150.9008
15.307465 98.207 -151.2057
15.418389 98.200 -151.5117
15.530117 98.193 -151.8198
15.642655 98.186 -152.1307
15.756008 98.180 -152.4448
15.870182 98.174 -152.7623
15.985184 98.167 -153.0830
16.101019 98.161 -153.4064
16.217694 98.154 -153.7317
16.335214 98.147 -154.0577
16.453586 98.139 -154.3836
16.572815 98.131 -154.7081
16.692909 98.122 -155.0302
16.813872 98.114 -155.3492
16.935713 98.106 -155.6647
17.058436 98.099 -155.9763
17.182048 98.092 -156.2843
17.306556 98.085 -156.5891
17.431967 98.079 -156.8911
17.558286 98.073 -157.1911
17.685521 98.068 -157.4897
17.813677 98.063 -157.7874
17.942762 98.058 -158.0844
18.072783 98.053 -158.3810
18.203746 98.048 -158.6770
18.335658 98.042 -158.9722
18.468526 98.037 -159.2660
18.602356 98.032 -159.5581
18.737156 98.026 -159.8481
18.872934 98.021 -160.1359
19.009695 98.015 -160.4213
19.147447 98.010 -160.7045
19.286197 98.005 -160.9858
19.425953 98.000 -161.2657
19.566721 97.995 -161.5444
19.708510 97.990 -161.8223
19.851326 97.984 -162.0994
19.995177 97.978 -162.3759
20.140070 97.971 -162.6512
20.286013 97.964 -162.9250
20.433014 97.956 -163.1967
20.581080 97.948 -163.4659
20.730219 97.939 -163.7322
20.880439 97.931 -163.9955
21.031747 97.922 -164.2563
21.184152 97.913 -164.5150
21.337661 97.905 -164.7725
21.492282 97.897 -165.0298
21.648024 97.890 -165.2880
21.804895 97.882 -165.5479
21.962902 97.875 -165.8099
22.122054 97.867 -166.0745
22.282360 97.859 -166.3413
22.443827 97.851 -166.6097
22.606464 97.842 -166.8792
22.770280 97.832 -167.1488
22.935283 97.822 -167.4180
23.101481 97.812 -167.6863
23.268884 97.802 -167.9536
23.437500 97.791 -168.2202
23.607338 97.781 -168.4864
23.778406 97.771 -168.7529
23.950714 97.760 -169.0201
24.124271 97.750 -169.2885
24.299086 97.740 -169.5582
24.475167 97.729 -169.8291
24.652524 97.718 -170.1010
24.831166 97.708 -170.3732
25.011103 97.697 -170.6455
25.192344 97.686 -170.9174
25.374898 97.676 -171.1888
25.558775 97.665 -171.4595
25.743984 97.654 -171.7297
25.930536 97.644 -171.9993
26.118439 97.633 -172.2683
26.307704 97.623 -172.5367
26.498341 97.612 -172.8041
26.690359 97.601 -173.0701
26.883768 97.590 -173.3340
27.078579 97.578 -173.5955
27.274801 97.567 -173.8539
27.472446 97.555 -174.1092
27.671522 97.543 -174.3610
27.872042 97.530 -174.6096
28.074014 97.518 -174.8550
28.277450 97.506 -175.0977
28.482360 97.494 -175.3383
28.688755 97.481 -175.5773
28.896645 97.469 -175.8151
29.106042 97.456 -176.0524
29.316957 97.444 -176.2896
29.529400 97.431 -176.5267
29.743382 97.418 -176.7637
29.958915 97.405 -177.0004
30.176009 97.391 -177.2361
30.394677 97.378 -177.4705
30.614929 97.364 -177.7034
30.836778 97.351 -177.9348
31.060234 97.337 -178.1652
31.285309 97.324 -178.3958
31.512015 97.311 -178.6276
31.740364 97.299 -178.8620
31.970368 97.286 -179.0999
32.202039 97.274 -179.3414
32.435388 97.261 -179.5863
32.670428 97.248 -179.8338
32.907171 97.234 179.9174
33.145630 97.220 179.6683
33.385817 97.206 179.4198
33.627745 97.192 179.1724
33.871425 97.177 178.9259
34.116871 97.163 178.6802
34.364096 97.149 178.4347
34.613113 97.135 178.1895
34.863934 97.120 177.9443
35.116572 97.106 177.7000
35.371041 97.091 177.4567
35.627354 97.076 177.2155
35.885525 97.060 176.9767
36.145566 97.045 176.7406
36.407492 97.029 176.5074
36.671316 97.013 176.2768
36.937051 96.997 176.0483
37.204712 96.981 175.8217
37.474313 96.964 175.5966
37.745867 96.948 175.3727
38.019389 96.931 175.1501
38.294893 96.915 174.9289
38.572394 96.898 174.7090
38.851905 96.881 174.4902
39.133442 96.863 174.2724
39.417019 96.846 174.0553
39.702651 96.828 173.8387
39.990353 96.811 173.6227
40.280140 96.793 173.4075
40.572026 96.774 173.1934
40.866028 96.756 172.9809
41.162160 96.738 172.7699
41.460438 96.720 172.5601
41.760877 96.702 172.3508
42.063494 96.684 172.1415
42.368303 96.666 171.9318
42.675322 96.648 171.7214
42.984565 96.629 171.5105
43.296048 96.611 171.2992
43.609789 96.592 171.0880
43.925804 96.572 170.8771
44.244108 96.553 170.6674
44.564719 96.533 170.4592
44.887654 96.512 170.2531
45.212928 96.492 170.0494
45.540560 96.471 169.8479
45.870565 96.451 169.6481
46.202962 96.430 169.4490
46.537768 96.410 169.2502
46.875000 96.389 169.0511
47.214676 96.368 168.8519
47.556813 96.348 168.6530
47.901429 96.327 168.4548
48.248542 96.306 168.2579
48.598171 96.285 168.0622
48.950334 96.264 167.8679
49.305048 96.243 167.6749
49.662333 96.222 167.4836
50.022206 96.201 167.2941
50.384688 96.180 167.1068
50.749796 96.159 166.9215
51.117550 96.138 166.7385
51.487969 96.116 166.5574
51.861072 96.095 166.3782
52.236879 96.074 166.2007
52.615409 96.053 166.0248
52.996681 96.032 165.8500
53.380717 96.011 165.6758
53.767536 95.990 165.5018
54.157158 95.969 165.3279
54.549603 95.948 165.1544
54.944892 95.926 164.9816
55.343045 95.905 164.8094
55.744084 95.885 164.6375
56.148028 95.864 164.4645
56.554900 95.844 164.2894
56.964720 95.823 164.1115
57.377510 95.803 163.9306
57.793291 95.782 163.7474
58.212085 95.761 163.5627
58.633914 95.739 163.3775
59.058799 95.717 163.1926
59.486764 95.694 163.0087
59.917829 95.671 162.8261
60.352019 95.648 162.6451
60.789354 95.623 162.4658
61.229859 95.599 162.2886
61.673556 95.573 162.1138
62.120468 95.548 161.9421
62.570618 95.522 161.7739
63.024031 95.495 161.6094
63.480729 95.469 161.4484
63.940736 95.442 161.2905
64.404077 95.416 161.1349
64.870776 95.389 160.9805
65.340856 95.363 160.8265
65.814343 95.336 160.6730
66.291261 95.309 160.5201
66.771635 95.282 160.3687
67.255489 95.255 160.2194
67.742850 95.228 160.0727
68.233743 95.200 159.9285
68.728193 95.173 159.7864
69.226226 95.146 159.6454
69.727867 95.119 159.5040
70.233144 95.093 159.3611
70.742083 95.066 159.2162
71.254709 95.039 159.0703
71.771050 95.011 158.9249
72.291132 94.984 158.7817
72.814984 94.956 158.6417
73.342631 94.927 158.5054
73.874102 94.899 158.3725
74.409424 94.872 158.2426
74.948626 94.844 158.1151
75.491734 94.817 157.9893
76.038779 94.790 157.8646
76.589787 94.764 157.7404
77.144788 94.737 157.6157
77.703811 94.711 157.4896
78.266885 94.685 157.3611
78.834039 94.660 157.2293
79.405303 94.634 157.0932
79.980706 94.608 156.9520
80.560280 94.581 156.8053
81.144053 94.555 156.6526
81.732056 94.527 156.4944
82.324320 94.498 156.3318
82.920876 94.468 156.1669
83.521755 94.437 156.0021
