* Measurement data measured by REW V5.31
* Source: EXCL: Microphone (USB Sound Device        ), MICROPHONE (Master Volume), L, volume: 0.560
* Format: 256k Log Swept Sine, 1 sweep at 0.0 dBFS with no timing reference
* Dated: Apr 28, 2024 12:36:58 PM
* REW Settings:
*  C-weighting compensation: Off
*  Target level: 75.0 dB
* Note: Delci
* Measurement: L Apr 28
* Smoothing: 1/12 octave
* Frequency Step: 96 ppo
* Start Frequency: 0.36621094 Hz
*
* Freq(Hz) SPL(dB) Phase(degrees)
0.366211 93.126 -61.1693
0.368865 93.131 -61.2331
0.371538 93.139 -61.3286
0.374230 93.148 -61.4483
0.376942 93.158 -61.5860
0.379673 93.169 -61.7368
0.382424 93.180 -61.8979
0.385196 93.192 -62.0672
0.387987 93.204 -62.2436
0.390798 93.216 -62.4267
0.393630 93.228 -62.6161
0.396483 93.240 -62.8116
0.399356 93.253 -63.0131
0.402250 93.265 -63.2208
0.405165 93.278 -63.4345
0.408101 93.291 -63.6542
0.411058 93.303 -63.8800
0.414037 93.316 -64.1120
0.417037 93.329 -64.3500
0.420059 93.342 -64.5942
0.423103 93.355 -64.8445
0.426169 93.368 -65.1010
0.429257 93.382 -65.3636
0.432368 93.395 -65.6323
0.435501 93.409 -65.9072
0.438656 93.422 -66.1882
0.441835 93.436 -66.4754
0.445037 93.450 -66.7686
0.448262 93.464 -67.0680
0.451510 93.478 -67.3734
0.454782 93.492 -67.6848
0.458077 93.506 -68.0023
0.461397 93.520 -68.3257
0.464740 93.535 -68.6550
0.468108 93.549 -68.9902
0.471500 93.564 -69.3312
0.474917 93.579 -69.6780
0.478358 93.593 -70.0305
0.481825 93.608 -70.3886
0.485316 93.623 -70.7524
0.488833 93.639 -71.1216
0.492375 93.654 -71.4962
0.495943 93.669 -71.8762
0.499537 93.685 -72.2613
0.503157 93.700 -72.6517
0.506803 93.716 -73.0471
0.510475 93.732 -73.4474
0.514175 93.748 -73.8525
0.517900 93.764 -74.2623
0.521653 93.780 -74.6768
0.525434 93.796 -75.0957
0.529241 93.813 -75.5189
0.533076 93.829 -75.9463
0.536939 93.846 -76.3778
0.540830 93.863 -76.8131
0.544749 93.880 -77.2523
0.548696 93.897 -77.6951
0.552673 93.914 -78.1413
0.556677 93.931 -78.5908
0.560711 93.949 -79.0434
0.564774 93.966 -79.4991
0.568867 93.984 -79.9575
0.572989 94.002 -80.4185
0.577141 94.019 -80.8821
0.581324 94.037 -81.3479
0.585536 94.056 -81.8158
0.589779 94.074 -82.2856
0.594053 94.092 -82.7572
0.598358 94.111 -83.2303
0.602694 94.130 -83.7048
0.607061 94.148 -84.1806
0.611460 94.167 -84.6573
0.615891 94.186 -85.1349
0.620354 94.206 -85.6131
0.624849 94.225 -86.0918
0.629377 94.245 -86.5708
0.633938 94.264 -87.0499
0.638532 94.284 -87.5290
0.643159 94.304 -88.0078
0.647819 94.324 -88.4862
0.652514 94.344 -88.9640
0.657242 94.365 -89.4411
0.662005 94.385 -89.9173
0.666802 94.406 -90.3924
0.671634 94.427 -90.8662
0.676501 94.448 -91.3387
0.681403 94.469 -91.8097
0.686341 94.490 -92.2790
0.691314 94.512 -92.7466
0.696324 94.533 -93.2123
0.701370 94.555 -93.6760
0.706452 94.576 -94.1379
0.711571 94.598 -94.5980
0.716728 94.618 -95.0567
0.721921 94.639 -95.5146
0.727153 94.658 -95.9725
0.732422 94.676 -96.4319
0.737729 94.692 -96.8942
0.743075 94.707 -97.3610
0.748460 94.721 -97.8337
0.753883 94.734 -98.3130
0.759346 94.746 -98.7995
0.764849 94.758 -99.2935
0.770391 94.770 -99.7951
0.775974 94.781 -100.3044
0.781597 94.792 -100.8211
0.787261 94.803 -101.3452
0.792966 94.814 -101.8765
0.798712 94.825 -102.4148
0.804500 94.835 -102.9599
0.810329 94.845 -103.5116
0.816201 94.855 -104.0696
0.822116 94.865 -104.6338
0.828073 94.874 -105.2039
0.834074 94.884 -105.7795
0.840118 94.892 -106.3605
0.846206 94.901 -106.9466
0.852338 94.909 -107.5374
0.858514 94.917 -108.1327
0.864735 94.925 -108.7321
0.871001 94.932 -109.3354
0.877313 94.938 -109.9421
0.883670 94.944 -110.5520
0.890074 94.950 -111.1647
0.896524 94.955 -111.7798
0.903020 94.960 -112.3970
0.909564 94.964 -113.0159
0.916155 94.968 -113.6361
0.922794 94.971 -114.2573
0.929481 94.973 -114.8791
0.936216 94.975 -115.5010
0.943000 94.976 -116.1226
0.949834 94.977 -116.7437
0.956717 94.976 -117.3636
0.963649 94.975 -117.9822
0.970632 94.973 -118.5988
0.977666 94.970 -119.2132
0.984750 94.966 -119.8248
0.991886 94.962 -120.4333
0.999074 94.956 -121.0383
1.006314 94.950 -121.6392
1.013606 94.942 -122.2358
1.020951 94.934 -122.8276
1.028349 94.924 -123.4141
1.035801 94.913 -123.9949
1.043307 94.901 -124.5697
1.050867 94.887 -125.1382
1.058482 94.873 -125.7001
1.066152 94.857 -126.2553
1.073878 94.840 -126.8040
1.081660 94.822 -127.3468
1.089498 94.802 -127.8848
1.097393 94.782 -128.4197
1.105345 94.760 -128.9540
1.113355 94.738 -129.4899
1.121423 94.716 -130.0298
1.129549 94.692 -130.5754
1.137734 94.669 -131.1281
1.145979 94.645 -131.6885
1.154283 94.620 -132.2575
1.162647 94.595 -132.8353
1.171072 94.569 -133.4222
1.179558 94.542 -134.0185
1.188106 94.514 -134.6243
1.196715 94.485 -135.2397
1.205387 94.455 -135.8647
1.214122 94.424 -136.4994
1.222920 94.391 -137.1436
1.231782 94.356 -137.7974
1.240708 94.320 -138.4605
1.249699 94.282 -139.1327
1.258754 94.242 -139.8139
1.267876 94.200 -140.5036
1.277063 94.155 -141.2014
1.286318 94.107 -141.9068
1.295639 94.057 -142.6192
1.305027 94.004 -143.3380
1.314484 93.948 -144.0623
1.324009 93.888 -144.7912
1.333604 93.825 -145.5235
1.343268 93.758 -146.2582
1.353002 93.688 -146.9939
1.362806 93.613 -147.7291
1.372681 93.533 -148.4621
1.382628 93.449 -149.1912
1.392647 93.360 -149.9143
1.402739 93.266 -150.6294
1.412904 93.166 -151.3345
1.423142 93.060 -152.0276
1.433455 92.948 -152.7072
1.443843 92.829 -153.3723
1.454305 92.702 -154.0231
1.464844 92.568 -154.6610
1.475459 92.424 -155.2887
1.486150 92.272 -155.9094
1.496920 92.109 -156.5263
1.507767 91.936 -157.1420
1.518693 91.752 -157.7581
1.529698 91.559 -158.3762
1.540783 91.357 -158.9968
1.551948 91.145 -159.6206
1.563194 90.924 -160.2477
1.574521 90.696 -160.8783
1.585931 90.459 -161.5124
1.597423 90.217 -162.1496
1.608999 89.967 -162.7897
1.620658 89.713 -163.4322
1.632402 89.454 -164.0764
1.644232 89.191 -164.7213
1.656146 88.925 -165.3658
1.668147 88.657 -166.0086
1.680235 88.388 -166.6478
1.692411 88.119 -167.2814
1.704675 87.851 -167.9066
1.717028 87.585 -168.5202
1.729470 87.321 -169.1186
1.742003 87.062 -169.6971
1.754626 86.809 -170.2504
1.767341 86.562 -170.7720
1.780147 86.322 -171.2547
1.793047 86.090 -171.6901
1.806040 85.866 -172.0690
1.819128 85.650 -172.3814
1.832310 85.440 -172.6165
1.845587 85.234 -172.7627
1.858961 85.030 -172.8060
1.872432 84.826 -172.7287
1.886001 84.622 -172.5071
1.899667 84.417 -172.1089
1.913433 84.211 -171.4889
1.927299 84.006 -170.5831
1.941265 83.803 -169.2991
1.955332 83.603 -167.5000
1.969501 83.408 -164.9775
1.983773 83.219 -161.4054
1.998148 83.039 -156.2630
2.012627 82.869 -148.7278
2.027212 82.713 -137.6330
2.041902 82.571 -121.9676
2.056698 82.447 -102.7109
2.071602 82.342 -83.9715
2.086614 82.261 -69.3455
2.101734 82.206 -59.1952
2.116964 82.179 -52.3749
2.132304 82.185 -47.7791
2.147756 82.227 -44.6566
2.163320 82.310 -42.5340
2.178996 82.436 -41.1117
2.194786 82.611 -40.1945
2.210690 82.838 -39.6502
2.226710 83.117 -39.3861
2.242845 83.450 -39.3353
2.259098 83.834 -39.4486
2.275468 84.264 -39.6892
2.291957 84.737 -40.0290
2.308566 85.246 -40.4465
2.325295 85.785 -40.9251
2.342145 86.349 -41.4520
2.359117 86.932 -42.0172
2.376212 87.525 -42.6131
2.393431 88.125 -43.2337
2.410775 88.723 -43.8746
2.428244 89.314 -44.5326
2.445840 89.892 -45.2056
2.463564 90.451 -45.8923
2.481416 90.986 -46.5925
2.499397 91.493 -47.3069
2.517509 91.968 -48.0374
2.535752 92.409 -48.7869
2.554127 92.816 -49.5591
2.572635 93.190 -50.3581
2.591277 93.535 -51.1870
2.610055 93.853 -52.0468
2.628968 94.148 -52.9361
2.648019 94.421 -53.8515
2.667208 94.675 -54.7885
2.686535 94.912 -55.7418
2.706003 95.134 -56.7061
2.725612 95.341 -57.6766
2.745363 95.536 -58.6484
2.765257 95.721 -59.6174
2.785295 95.897 -60.5800
2.805478 96.065 -61.5334
2.825808 96.229 -62.4752
2.846285 96.389 -63.4044
2.866910 96.546 -64.3208
2.887685 96.701 -65.2262
2.908611 96.855 -66.1240
2.929688 97.007 -67.0194
2.950917 97.156 -67.9183
2.972301 97.301 -68.8263
2.993839 97.440 -69.7467
3.015534 97.573 -70.6805
3.037386 97.700 -71.6264
3.059396 97.819 -72.5820
3.081565 97.933 -73.5436
3.103896 98.041 -74.5070
3.126388 98.142 -75.4681
3.149043 98.239 -76.4223
3.171862 98.331 -77.3658
3.194847 98.419 -78.2949
3.217998 98.503 -79.2069
3.241317 98.583 -80.1004
3.264805 98.659 -80.9759
3.288463 98.732 -81.8358
3.312293 98.800 -82.6845
3.336295 98.864 -83.5269
3.360471 98.923 -84.3670
3.384822 98.977 -85.2071
3.409350 99.026 -86.0473
3.434056 99.070 -86.8861
3.458940 99.109 -87.7209
3.484005 99.144 -88.5481
3.509252 99.175 -89.3635
3.534681 99.202 -90.1628
3.560295 99.226 -90.9415
3.586094 99.247 -91.6957
3.612081 99.266 -92.4222
3.638255 99.281 -93.1193
3.664620 99.294 -93.7869
3.691175 99.303 -94.4268
3.717923 99.308 -95.0414
3.744864 99.310 -95.6329
3.772001 99.308 -96.2031
3.799335 99.303 -96.7527
3.826866 99.295 -97.2817
3.854597 99.285 -97.7895
3.882529 99.274 -98.2746
3.910664 99.262 -98.7354
3.939002 99.249 -99.1696
3.967546 99.237 -99.5749
3.996296 99.225 -99.9488
4.025255 99.214 -100.2889
4.054423 99.204 -100.5935
4.083804 99.194 -100.8619
4.113396 99.183 -101.0948
4.143204 99.174 -101.2940
4.173227 99.165 -101.4622
4.203468 99.157 -101.6028
4.233928 99.151 -101.7196
4.264609 99.148 -101.8161
4.295512 99.148 -101.8956
4.326639 99.152 -101.9606
4.357992 99.161 -102.0123
4.389572 99.175 -102.0504
4.421380 99.194 -102.0738
4.453419 99.219 -102.0815
4.485691 99.248 -102.0741
4.518196 99.282 -102.0541
4.550936 99.320 -102.0260
4.583914 99.363 -101.9958
4.617131 99.410 -101.9699
4.650589 99.460 -101.9548
4.684289 99.515 -101.9561
4.718233 99.573 -101.9781
4.752424 99.635 -102.0233
4.786862 99.700 -102.0919
4.821549 99.770 -102.1831
4.856488 99.844 -102.2964
4.891680 99.921 -102.4315
4.927127 100.000 -102.5893
4.962831 100.082 -102.7714
4.998794 100.164 -102.9799
5.035017 100.247 -103.2171
5.071503 100.329 -103.4852
5.108253 100.410 -103.7858
5.145270 100.490 -104.1199
5.182555 100.569 -104.4872
5.220110 100.647 -104.8863
5.257937 100.723 -105.3146
5.296038 100.797 -105.7690
5.334415 100.870 -106.2462
5.373071 100.939 -106.7434
5.412006 101.006 -107.2582
5.451224 101.068 -107.7896
5.490725 101.126 -108.3374
5.530514 101.181 -108.9021
5.570590 101.230 -109.4837
5.610957 101.276 -110.0806
5.651616 101.317 -110.6898
5.692570 101.355 -111.3069
5.733821 101.388 -111.9272
5.775370 101.417 -112.5462
5.817221 101.441 -113.1605
5.859375 101.462 -113.7684
5.901834 101.478 -114.3693
5.944602 101.489 -114.9634
5.987679 101.497 -115.5499
6.031068 101.500 -116.1269
6.074771 101.501 -116.6916
6.118792 101.498 -117.2404
6.163131 101.493 -117.7697
6.207792 101.486 -118.2768
6.252776 101.477 -118.7599
6.298086 101.467 -119.2186
6.343725 101.454 -119.6533
6.389694 101.441 -120.0648
6.435996 101.428 -120.4537
6.482634 101.414 -120.8206
6.529610 101.402 -121.1654
6.576926 101.392 -121.4880
6.624585 101.383 -121.7882
6.672590 101.376 -122.0665
6.720942 101.372 -122.3248
6.769645 101.371 -122.5661
6.818700 101.372 -122.7944
6.868111 101.377 -123.0138
6.917881 101.385 -123.2278
6.968010 101.396 -123.4392
7.018504 101.412 -123.6506
7.069362 101.431 -123.8651
7.120590 101.454 -124.0861
7.172189 101.480 -124.3172
7.224161 101.509 -124.5621
7.276511 101.540 -124.8236
7.329239 101.573 -125.1038
7.382350 101.607 -125.4035
7.435845 101.644 -125.7223
7.489729 101.681 -126.0593
7.544002 101.718 -126.4133
7.598669 101.755 -126.7839
7.653732 101.792 -127.1715
7.709194 101.827 -127.5774
7.765058 101.860 -128.0021
7.821327 101.892 -128.4447
7.878004 101.921 -128.9027
7.935091 101.948 -129.3729
7.992592 101.973 -129.8519
8.050510 101.994 -130.3370
8.108847 102.012 -130.8260
8.167607 102.028 -131.3171
8.226793 102.040 -131.8077
8.286408 102.049 -132.2946
8.346454 102.056 -132.7747
8.406936 102.061 -133.2449
8.467856 102.063 -133.7033
8.529218 102.064 -134.1485
8.591024 102.062 -134.5797
8.653278 102.060 -134.9960
8.715983 102.057 -135.3967
8.779143 102.055 -135.7810
8.842760 102.052 -136.1488
8.906839 102.050 -136.5005
8.971381 102.048 -136.8377
9.036392 102.048 -137.1622
9.101873 102.049 -137.4760
9.167829 102.052 -137.7809
9.234263 102.057 -138.0788
9.301178 102.064 -138.3716
9.368578 102.073 -138.6618
9.436467 102.083 -138.9519
9.504847 102.095 -139.2445
9.573723 102.108 -139.5413
9.643099 102.122 -139.8438
9.712976 102.136 -140.1527
9.783361 102.148 -140.4690
9.854255 102.160 -140.7933
9.925663 102.168 -141.1257
9.997588 102.174 -141.4660
10.070035 102.178 -141.8135
10.143007 102.178 -142.1667
10.216507 102.175 -142.5243
10.290540 102.170 -142.8850
10.365109 102.162 -143.2474
10.440219 102.152 -143.6099
10.515873 102.139 -143.9708
10.592076 102.125 -144.3286
10.668830 102.110 -144.6819
10.746141 102.093 -145.0297
10.824012 102.076 -145.3714
10.902447 102.057 -145.7065
10.981451 102.038 -146.0349
11.061027 102.019 -146.3566
11.141180 102.000 -146.6719
11.221913 101.981 -146.9817
11.303232 101.962 -147.2869
11.385140 101.943 -147.5886
11.467641 101.925 -147.8876
11.550741 101.907 -148.1849
11.634442 101.890 -148.4816
11.718750 101.873 -148.7785
11.803669 101.856 -149.0763
11.889203 101.840 -149.3753
11.975357 101.824 -149.6755
12.062136 101.808 -149.9770
12.149543 101.792 -150.2795
12.237583 101.775 -150.5826
12.326262 101.759 -150.8858
12.415583 101.742 -151.1884
12.505552 101.724 -151.4899
12.596172 101.706 -151.7898
12.687449 101.687 -152.0880
12.779387 101.669 -152.3844
12.871992 101.650 -152.6790
12.965268 101.631 -152.9721
13.059220 101.613 -153.2645
13.153852 101.595 -153.5569
13.249170 101.578 -153.8502
13.345179 101.561 -154.1452
13.441884 101.545 -154.4429
13.539289 101.529 -154.7439
13.637401 101.514 -155.0489
13.736223 101.498 -155.3580
13.835761 101.482 -155.6713
13.936021 101.466 -155.9883
14.037007 101.450 -156.3084
14.138725 101.432 -156.6307
14.241180 101.414 -156.9540
14.344377 101.395 -157.2771
14.448323 101.375 -157.5988
14.553021 101.355 -157.9181
14.658478 101.334 -158.2342
14.764700 101.314 -158.5466
14.871691 101.294 -158.8552
14.979457 101.274 -159.1603
15.088005 101.255 -159.4627
15.197339 101.237 -159.7633
15.307465 101.220 -160.0635
15.418389 101.204 -160.3647
15.530117 101.189 -160.6683
15.642655 101.174 -160.9753
15.756008 101.160 -161.2868
15.870182 101.147 -161.6030
15.985184 101.133 -161.9241
16.101019 101.119 -162.2495
16.217694 101.105 -162.5782
16.335214 101.091 -162.9089
16.453586 101.076 -163.2401
16.572815 101.060 -163.5702
16.692909 101.044 -163.8977
16.813872 101.028 -164.2213
16.935713 101.013 -164.5401
17.058436 100.997 -164.8537
17.182048 100.983 -165.1620
17.306556 100.968 -165.4657
17.431967 100.955 -165.7654
17.558286 100.942 -166.0623
17.685521 100.930 -166.3575
17.813677 100.919 -166.6520
17.942762 100.908 -166.9467
18.072783 100.897 -167.2420
18.203746 100.886 -167.5380
18.335658 100.876 -167.8345
18.468526 100.864 -168.1310
18.602356 100.853 -168.4266
18.737156 100.841 -168.7204
18.872934 100.829 -169.0117
19.009695 100.817 -169.2999
19.147447 100.805 -169.5844
19.286197 100.793 -169.8652
19.425953 100.781 -170.1425
19.566721 100.769 -170.4167
19.708510 100.757 -170.6881
19.851326 100.744 -170.9572
19.995177 100.731 -171.2246
20.140070 100.719 -171.4903
20.286013 100.705 -171.7544
20.433014 100.692 -172.0167
20.581080 100.678 -172.2771
20.730219 100.663 -172.5352
20.880439 100.649 -172.7909
21.031747 100.634 -173.0440
21.184152 100.619 -173.2947
21.337661 100.605 -173.5432
21.492282 100.590 -173.7899
21.648024 100.576 -174.0353
21.804895 100.562 -174.2797
21.962902 100.548 -174.5236
22.122054 100.535 -174.7670
22.282360 100.521 -175.0103
22.443827 100.508 -175.2533
22.606464 100.494 -175.4964
22.770280 100.481 -175.7399
22.935283 100.469 -175.9842
23.101481 100.457 -176.2302
23.268884 100.445 -176.4789
23.437500 100.434 -176.7312
23.607338 100.423 -176.9883
23.778406 100.412 -177.2508
23.950714 100.401 -177.5188
24.124271 100.390 -177.7920
24.299086 100.378 -178.0697
24.475167 100.365 -178.3504
24.652524 100.352 -178.6329
24.831166 100.339 -178.9156
25.011103 100.325 -179.1972
25.192344 100.311 -179.4770
25.374898 100.296 -179.7545
25.558775 100.282 179.9702
25.743984 100.268 179.6968
25.930536 100.254 179.4251
26.118439 100.240 179.1547
26.307704 100.226 178.8857
26.498341 100.211 178.6182
26.690359 100.197 178.3528
26.883768 100.183 178.0899
27.078579 100.168 177.8298
27.274801 100.153 177.5730
27.472446 100.138 177.3192
27.671522 100.123 177.0682
27.872042 100.108 176.8197
28.074014 100.092 176.5732
28.277450 100.077 176.3286
28.482360 100.061 176.0855
28.688755 100.045 175.8440
28.896645 100.028 175.6041
29.106042 100.011 175.3657
29.316957 99.994 175.1286
29.529400 99.977 174.8925
29.743382 99.960 174.6570
29.958915 99.943 174.4216
30.176009 99.925 174.1861
30.394677 99.907 173.9503
30.614929 99.889 173.7144
30.836778 99.871 173.4784
31.060234 99.853 173.2425
31.285309 99.834 173.0068
31.512015 99.815 172.7712
31.740364 99.796 172.5354
31.970368 99.778 172.2992
32.202039 99.759 172.0624
32.435388 99.740 171.8250
32.670428 99.721 171.5869
32.907171 99.702 171.3482
33.145630 99.683 171.1093
33.385817 99.664 170.8701
33.627745 99.646 170.6307
33.871425 99.627 170.3911
34.116871 99.608 170.1513
34.364096 99.589 169.9116
34.613113 99.571 169.6724
34.863934 99.551 169.4340
35.116572 99.532 169.1971
35.371041 99.513 168.9622
35.627354 99.493 168.7296
35.885525 99.473 168.4998
36.145566 99.452 168.2731
36.407492 99.432 168.0497
36.671316 99.411 167.8296
36.937051 99.390 167.6125
37.204712 99.369 167.3979
37.474313 99.348 167.1851
37.745867 99.327 166.9736
38.019389 99.306 166.7627
38.294893 99.285 166.5524
38.572394 99.263 166.3428
38.851905 99.241 166.1343
39.133442 99.218 165.9274
39.417019 99.195 165.7223
39.702651 99.172 165.5189
39.990353 99.149 165.3169
40.280140 99.126 165.1160
40.572026 99.103 164.9160
40.866028 99.079 164.7166
41.162160 99.056 164.5177
41.460438 99.032 164.3193
41.760877 99.009 164.1214
42.063494 98.985 163.9240
42.368303 98.961 163.7274
42.675322 98.937 163.5317
42.984565 98.912 163.3376
43.296048 98.888 163.1454
43.609789 98.863 162.9550
43.925804 98.838 162.7662
44.244108 98.814 162.5785
44.564719 98.789 162.3914
44.887654 98.764 162.2046
45.212928 98.739 162.0182
45.540560 98.713 161.8325
45.870565 98.687 161.6481
46.202962 98.661 161.4655
46.537768 98.635 161.2853
46.875000 98.608 161.1074
47.214676 98.581 160.9316
47.556813 98.555 160.7576
47.901429 98.528 160.5848
48.248542 98.501 160.4133
48.598171 98.474 160.2432
48.950334 98.447 160.0752
49.305048 98.420 159.9098
49.662333 98.393 159.7471
50.022206 98.367 159.5864
50.384688 98.340 159.4267
50.749796 98.313 159.2668
51.117550 98.287 159.1061
51.487969 98.260 158.9449
51.861072 98.232 158.7845
52.236879 98.204 158.6265
52.615409 98.176 158.4724
52.996681 98.148 158.3232
53.380717 98.119 158.1788
53.767536 98.091 158.0383
54.157158 98.064 157.9003
54.549603 98.037 157.7636
54.944892 98.010 157.6271
55.343045 97.984 157.4902
55.744084 97.957 157.3523
56.148028 97.931 157.2132
56.554900 97.905 157.0727
56.964720 97.879 156.9307
57.377510 97.852 156.7872
57.793291 97.826 156.6422
58.212085 97.799 156.4960
58.633914 97.771 156.3492
59.058799 97.743 156.2020
59.486764 97.715 156.0551
59.917829 97.686 155.9088
60.352019 97.656 155.7634
60.789354 97.626 155.6190
61.229859 97.596 155.4756
61.673556 97.564 155.3335
62.120468 97.533 155.1932
62.570618 97.500 155.0553
63.024031 97.467 154.9206
63.480729 97.434 154.7893
63.940736 97.401 154.6611
64.404077 97.367 154.5352
64.870776 97.334 154.4108
65.340856 97.300 154.2877
65.814343 97.266 154.1663
66.291261 97.231 154.0473
66.771635 97.196 153.9315
67.255489 97.161 153.8195
67.742850 97.125 153.7114
68.233743 97.089 153.6072
68.728193 97.054 153.5070
69.226226 97.017 153.4120
69.727867 96.981 153.3237
70.233144 96.946 153.2430
70.742083 96.911 153.1681
71.254709 96.878 153.0944
71.771050 96.845 153.0167
72.291132 96.813 152.9329
72.814984 96.779 152.8449
73.342631 96.745 152.7572
73.874102 96.710 152.6733
74.409424 96.675 152.5947
74.948626 96.639 152.5211
75.491734 96.604 152.4517
76.038779 96.568 152.3853
76.589787 96.534 152.3207
77.144788 96.499 152.2565
77.703811 96.464 152.1920
