* Measurement data measured by REW V5.31.3
* Source: EXCL: Microphone (USB Sound Device        ), MICROPHONE (Master Volume), R, volume: 0.390
* Format: 256k Log Swept Sine, 1 sweep at -15.0 dBFS with no timing reference
* Dated: Jun 23, 2025 12:11:33 AM
* REW Settings:
*  C-weighting compensation: Off
*  Target level: 75.0 dB
* Note: Kefine Quatio Gold L
* Measurement: Kefine Quatio Gold L
* Smoothing: 1/12 octave
* Frequency Step: 96 ppo
* Start Frequency: 0.36621094 Hz
*
* Freq(Hz) SPL(dB) Phase(degrees)
0.366211 94.028 159.1460
0.368865 94.022 159.1242
0.371538 94.014 159.0915
0.374230 94.003 159.0505
0.376942 93.991 159.0032
0.379673 93.978 158.9512
0.382424 93.965 158.8955
0.385196 93.951 158.8368
0.387987 93.938 158.7755
0.390798 93.923 158.7116
0.393630 93.909 158.6454
0.396483 93.895 158.5768
0.399356 93.880 158.5058
0.402250 93.866 158.4325
0.405165 93.851 158.3568
0.408101 93.836 158.2787
0.411058 93.821 158.1982
0.414037 93.806 158.1153
0.417037 93.791 158.0299
0.420059 93.776 157.9420
0.423103 93.761 157.8516
0.426169 93.745 157.7587
0.429257 93.729 157.6632
0.432368 93.714 157.5651
0.435501 93.698 157.4645
0.438656 93.682 157.3612
0.441835 93.666 157.2553
0.445037 93.650 157.1468
0.448262 93.634 157.0355
0.451510 93.617 156.9216
0.454782 93.601 156.8049
0.458077 93.584 156.6855
0.461397 93.567 156.5634
0.464740 93.550 156.4385
0.468108 93.534 156.3108
0.471500 93.516 156.1803
0.474917 93.499 156.0470
0.478358 93.482 155.9109
0.481825 93.464 155.7719
0.485316 93.447 155.6301
0.488833 93.429 155.4854
0.492375 93.411 155.3378
0.495943 93.393 155.1874
0.499537 93.375 155.0341
0.503157 93.357 154.8779
0.506803 93.338 154.7188
0.510475 93.320 154.5568
0.514175 93.301 154.3919
0.517900 93.282 154.2241
0.521653 93.263 154.0534
0.525434 93.244 153.8798
0.529241 93.225 153.7034
0.533076 93.206 153.5240
0.536939 93.186 153.3418
0.540830 93.167 153.1568
0.544749 93.147 152.9689
0.548696 93.127 152.7783
0.552673 93.107 152.5848
0.556677 93.087 152.3885
0.560711 93.066 152.1896
0.564774 93.046 151.9879
0.568867 93.025 151.7835
0.572989 93.004 151.5765
0.577141 92.984 151.3669
0.581324 92.962 151.1547
0.585536 92.941 150.9400
0.589779 92.920 150.7229
0.594053 92.898 150.5034
0.598358 92.876 150.2815
0.602694 92.855 150.0573
0.607061 92.833 149.8310
0.611460 92.810 149.6025
0.615891 92.788 149.3720
0.620354 92.766 149.1395
0.624849 92.743 148.9051
0.629377 92.720 148.6689
0.633938 92.697 148.4311
0.638532 92.674 148.1917
0.643159 92.651 147.9509
0.647819 92.627 147.7088
0.652514 92.603 147.4654
0.657242 92.579 147.2210
0.662005 92.555 146.9757
0.666802 92.531 146.7297
0.671634 92.507 146.4830
0.676501 92.482 146.2360
0.681403 92.458 145.9887
0.686341 92.433 145.7413
0.691314 92.407 145.4941
0.696324 92.382 145.2472
0.701370 92.356 145.0007
0.706452 92.330 144.7549
0.711571 92.304 144.5098
0.716728 92.277 144.2654
0.721921 92.248 144.0214
0.727153 92.218 143.7774
0.732422 92.187 143.5327
0.737729 92.153 143.2865
0.743075 92.117 143.0376
0.748460 92.079 142.7854
0.753883 92.041 142.5290
0.759346 92.001 142.2681
0.764849 91.960 142.0024
0.770391 91.919 141.7316
0.775974 91.878 141.4555
0.781597 91.835 141.1742
0.787261 91.793 140.8874
0.792966 91.749 140.5952
0.798712 91.705 140.2975
0.804500 91.661 139.9941
0.810329 91.616 139.6852
0.816201 91.570 139.3706
0.822116 91.524 139.0503
0.828073 91.477 138.7243
0.834074 91.429 138.3926
0.840118 91.380 138.0550
0.846206 91.331 137.7117
0.852338 91.281 137.3626
0.858514 91.230 137.0077
0.864735 91.178 136.6470
0.871001 91.126 136.2806
0.877313 91.072 135.9084
0.883670 91.017 135.5305
0.890074 90.962 135.1470
0.896524 90.905 134.7578
0.903020 90.848 134.3631
0.909564 90.789 133.9630
0.916155 90.729 133.5576
0.922794 90.668 133.1469
0.929481 90.605 132.7311
0.936216 90.542 132.3104
0.943000 90.476 131.8849
0.949834 90.410 131.4549
0.956717 90.342 131.0205
0.963649 90.273 130.5821
0.970632 90.202 130.1398
0.977666 90.129 129.6939
0.984750 90.055 129.2449
0.991886 89.979 128.7930
0.999074 89.901 128.3387
1.006314 89.822 127.8823
1.013606 89.740 127.4244
1.020951 89.657 126.9655
1.028349 89.571 126.5060
1.035801 89.483 126.0467
1.043307 89.394 125.5881
1.050867 89.302 125.1308
1.058482 89.207 124.6757
1.066152 89.111 124.2232
1.073878 89.012 123.7741
1.081660 88.911 123.3289
1.089498 88.808 122.8877
1.097393 88.703 122.4506
1.105345 88.597 122.0172
1.113355 88.490 121.5871
1.121423 88.383 121.1595
1.129549 88.275 120.7340
1.137734 88.166 120.3100
1.145979 88.057 119.8870
1.154283 87.948 119.4647
1.162647 87.838 119.0427
1.171072 87.727 118.6205
1.179558 87.614 118.1979
1.188106 87.501 117.7746
1.196715 87.386 117.3500
1.205387 87.269 116.9239
1.214122 87.150 116.4957
1.222920 87.028 116.0652
1.231782 86.904 115.6318
1.240708 86.777 115.1950
1.249699 86.647 114.7543
1.258754 86.513 114.3093
1.267876 86.375 113.8594
1.277063 86.233 113.4038
1.286318 86.086 112.9421
1.295639 85.933 112.4736
1.305027 85.776 111.9975
1.314484 85.613 111.5131
1.324009 85.443 111.0197
1.333604 85.266 110.5163
1.343268 85.083 110.0023
1.353002 84.892 109.4766
1.362806 84.693 108.9383
1.372681 84.485 108.3864
1.382628 84.268 107.8201
1.392647 84.041 107.2381
1.402739 83.804 106.6397
1.412904 83.557 106.0238
1.423142 83.297 105.3897
1.433455 83.024 104.7367
1.443843 82.737 104.0645
1.454305 82.433 103.3731
1.464844 82.110 102.6628
1.475459 81.765 101.9343
1.486150 81.395 101.1876
1.496920 80.998 100.4226
1.507767 80.573 99.6380
1.518693 80.119 98.8322
1.529698 79.637 98.0025
1.540783 79.128 97.1458
1.551948 78.594 96.2581
1.563194 78.036 95.3349
1.574521 77.457 94.3705
1.585931 76.859 93.3585
1.597423 76.245 92.2910
1.608999 75.617 91.1588
1.620658 74.978 89.9507
1.632402 74.333 88.6530
1.644232 73.683 87.2492
1.656146 73.033 85.7189
1.668147 72.387 84.0366
1.680235 71.748 82.1706
1.692411 71.121 80.0808
1.704675 70.512 77.7161
1.717028 69.924 75.0112
1.729470 69.365 71.8822
1.742003 68.839 68.2217
1.754626 68.353 63.8934
1.767341 67.914 58.7300
1.780147 67.530 52.5384
1.793047 67.207 45.1246
1.806040 66.954 36.3547
1.819128 66.776 26.2595
1.832310 66.679 15.1477
1.845587 66.666 3.6206
1.858961 66.738 -7.5919
1.872432 66.893 -17.8908
1.886001 67.128 -26.9632
1.899667 67.436 -34.7616
1.913433 67.813 -41.3959
1.927299 68.252 -47.0354
1.941265 68.745 -51.8519
1.955332 69.285 -55.9963
1.969501 69.866 -59.5926
1.983773 70.479 -62.7395
1.998148 71.117 -65.5147
2.012627 71.772 -67.9791
2.027212 72.438 -70.1805
2.041902 73.108 -72.1566
2.056698 73.773 -73.9374
2.071602 74.427 -75.5467
2.086614 75.064 -77.0040
2.101734 75.676 -78.3251
2.116964 76.258 -79.5237
2.132304 76.805 -80.6117
2.147756 77.311 -81.6006
2.163320 77.775 -82.5020
2.178996 78.196 -83.3292
2.194786 78.575 -84.0967
2.210690 78.915 -84.8197
2.226710 79.221 -85.5127
2.242845 79.497 -86.1864
2.259098 79.748 -86.8481
2.275468 79.975 -87.5012
2.291957 80.181 -88.1470
2.308566 80.367 -88.7849
2.325295 80.535 -89.4131
2.342145 80.688 -90.0294
2.359117 80.825 -90.6309
2.376212 80.949 -91.2145
2.393431 81.062 -91.7771
2.410775 81.165 -92.3150
2.428244 81.260 -92.8248
2.445840 81.348 -93.3028
2.463564 81.432 -93.7454
2.481416 81.513 -94.1493
2.499397 81.593 -94.5117
2.517509 81.672 -94.8307
2.535752 81.750 -95.1057
2.554127 81.828 -95.3380
2.572635 81.904 -95.5304
2.591277 81.976 -95.6873
2.610055 82.042 -95.8126
2.628968 82.101 -95.9097
2.648019 82.152 -95.9805
2.667208 82.197 -96.0260
2.686535 82.234 -96.0466
2.706003 82.266 -96.0419
2.725612 82.292 -96.0110
2.745363 82.314 -95.9531
2.765257 82.333 -95.8669
2.785295 82.350 -95.7511
2.805478 82.367 -95.6045
2.825808 82.383 -95.4254
2.846285 82.402 -95.2125
2.866910 82.423 -94.9642
2.887685 82.448 -94.6786
2.908611 82.476 -94.3541
2.929688 82.508 -93.9887
2.950917 82.542 -93.5808
2.972301 82.578 -93.1294
2.993839 82.616 -92.6349
3.015534 82.655 -92.0989
3.037386 82.695 -91.5241
3.059396 82.736 -90.9142
3.081565 82.779 -90.2736
3.103896 82.824 -89.6075
3.126388 82.872 -88.9213
3.149043 82.924 -88.2206
3.171862 82.980 -87.5114
3.194847 83.041 -86.7991
3.217998 83.107 -86.0887
3.241317 83.181 -85.3840
3.264805 83.261 -84.6872
3.288463 83.349 -83.9983
3.312293 83.445 -83.3160
3.336295 83.549 -82.6382
3.360471 83.661 -81.9645
3.384822 83.780 -81.2961
3.409350 83.906 -80.6367
3.434056 84.038 -79.9910
3.458940 84.175 -79.3647
3.484005 84.316 -78.7639
3.509252 84.460 -78.1945
3.534681 84.607 -77.6623
3.560295 84.754 -77.1721
3.586094 84.902 -76.7281
3.612081 85.050 -76.3330
3.638255 85.198 -75.9881
3.664620 85.345 -75.6927
3.691175 85.493 -75.4447
3.717923 85.642 -75.2413
3.744864 85.791 -75.0792
3.772001 85.941 -74.9557
3.799335 86.091 -74.8684
3.826866 86.240 -74.8150
3.854597 86.389 -74.7939
3.882529 86.536 -74.8035
3.910664 86.680 -74.8427
3.939002 86.821 -74.9106
3.967546 86.958 -75.0069
3.996296 87.090 -75.1316
4.025255 87.218 -75.2852
4.054423 87.341 -75.4681
4.083804 87.460 -75.6802
4.113396 87.574 -75.9204
4.143204 87.684 -76.1863
4.173227 87.790 -76.4749
4.203468 87.891 -76.7823
4.233928 87.988 -77.1048
4.264609 88.080 -77.4388
4.295512 88.169 -77.7811
4.326639 88.252 -78.1295
4.357992 88.331 -78.4830
4.389572 88.405 -78.8418
4.421380 88.474 -79.2072
4.453419 88.537 -79.5805
4.485691 88.596 -79.9620
4.518196 88.649 -80.3506
4.550936 88.697 -80.7439
4.583914 88.741 -81.1386
4.617131 88.781 -81.5308
4.650589 88.817 -81.9165
4.684289 88.850 -82.2922
4.718233 88.879 -82.6553
4.752424 88.904 -83.0042
4.786862 88.926 -83.3390
4.821549 88.945 -83.6603
4.856488 88.959 -83.9692
4.891680 88.971 -84.2658
4.927127 88.979 -84.5501
4.962831 88.985 -84.8211
4.998794 88.990 -85.0776
5.035017 88.993 -85.3180
5.071503 88.996 -85.5406
5.108253 88.999 -85.7440
5.145270 89.001 -85.9270
5.182555 89.004 -86.0895
5.220110 89.006 -86.2321
5.257937 89.008 -86.3566
5.296038 89.011 -86.4655
5.334415 89.015 -86.5615
5.373071 89.021 -86.6475
5.412006 89.029 -86.7258
5.451224 89.039 -86.7982
5.490725 89.052 -86.8656
5.530514 89.069 -86.9282
5.570590 89.088 -86.9866
5.610957 89.111 -87.0424
5.651616 89.136 -87.0987
5.692570 89.165 -87.1594
5.733821 89.196 -87.2290
5.775370 89.230 -87.3116
5.817221 89.267 -87.4108
5.859375 89.306 -87.5288
5.901834 89.348 -87.6666
5.944602 89.393 -87.8247
5.987679 89.441 -88.0036
6.031068 89.490 -88.2042
6.074771 89.540 -88.4281
6.118792 89.592 -88.6770
6.163131 89.644 -88.9528
6.207792 89.696 -89.2570
6.252776 89.748 -89.5904
6.298086 89.800 -89.9528
6.343725 89.851 -90.3431
6.389694 89.901 -90.7594
6.435996 89.950 -91.1997
6.482634 89.998 -91.6618
6.529610 90.044 -92.1443
6.576926 90.088 -92.6461
6.624585 90.130 -93.1666
6.672590 90.169 -93.7051
6.720942 90.205 -94.2600
6.769645 90.240 -94.8286
6.818700 90.272 -95.4077
6.868111 90.301 -95.9938
6.917881 90.329 -96.5841
6.968010 90.354 -97.1766
7.018504 90.377 -97.7703
7.069362 90.398 -98.3641
7.120590 90.417 -98.9566
7.172189 90.434 -99.5458
7.224161 90.451 -100.1291
7.276511 90.467 -100.7042
7.329239 90.482 -101.2693
7.382350 90.497 -101.8233
7.435845 90.513 -102.3662
7.489729 90.528 -102.8980
7.544002 90.545 -103.4191
7.598669 90.563 -103.9295
7.653732 90.583 -104.4292
7.709194 90.604 -104.9184
7.765058 90.628 -105.3974
7.821327 90.655 -105.8671
7.878004 90.684 -106.3293
7.935091 90.716 -106.7861
7.992592 90.751 -107.2395
8.050510 90.789 -107.6911
8.108847 90.830 -108.1422
8.167607 90.874 -108.5938
8.226793 90.921 -109.0472
8.286408 90.970 -109.5040
8.346454 91.022 -109.9658
8.406936 91.076 -110.4341
8.467856 91.132 -110.9096
8.529218 91.190 -111.3925
8.591024 91.249 -111.8828
8.653278 91.310 -112.3800
8.715983 91.371 -112.8837
8.779143 91.432 -113.3936
8.842760 91.493 -113.9090
8.906839 91.554 -114.4290
8.971381 91.615 -114.9520
9.036392 91.675 -115.4761
9.101873 91.735 -115.9997
9.167829 91.793 -116.5210
9.234263 91.851 -117.0387
9.301178 91.908 -117.5514
9.368578 91.963 -118.0575
9.436467 92.018 -118.5553
9.504847 92.072 -119.0433
9.573723 92.125 -119.5202
9.643099 92.177 -119.9854
9.712976 92.229 -120.4383
9.783361 92.280 -120.8786
9.854255 92.331 -121.3059
9.925663 92.382 -121.7201
9.997588 92.433 -122.1214
10.070035 92.484 -122.5104
10.143007 92.535 -122.8879
10.216507 92.586 -123.2547
10.290540 92.637 -123.6116
10.365109 92.688 -123.9594
10.440219 92.740 -124.2992
10.515873 92.791 -124.6318
10.592076 92.843 -124.9584
10.668830 92.894 -125.2796
10.746141 92.944 -125.5961
10.824012 92.995 -125.9086
10.902447 93.044 -126.2172
10.981451 93.093 -126.5225
11.061027 93.141 -126.8247
11.141180 93.188 -127.1238
11.221913 93.233 -127.4199
11.303232 93.278 -127.7128
11.385140 93.321 -128.0026
11.467641 93.363 -128.2892
11.550741 93.404 -128.5726
11.634442 93.443 -128.8530
11.718750 93.481 -129.1303
11.803669 93.517 -129.4049
11.889203 93.552 -129.6771
11.975357 93.586 -129.9472
12.062136 93.619 -130.2159
12.149543 93.651 -130.4835
12.237583 93.681 -130.7506
12.326262 93.710 -131.0179
12.415583 93.737 -131.2857
12.505552 93.763 -131.5547
12.596172 93.788 -131.8250
12.687449 93.812 -132.0971
12.779387 93.833 -132.3711
12.871992 93.854 -132.6471
12.965268 93.873 -132.9251
13.059220 93.890 -133.2050
13.153852 93.906 -133.4869
13.249170 93.921 -133.7706
13.345179 93.935 -134.0561
13.441884 93.947 -134.3436
13.539289 93.959 -134.6333
13.637401 93.970 -134.9254
13.736223 93.980 -135.2206
13.835761 93.989 -135.5195
13.936021 93.999 -135.8229
14.037007 94.008 -136.1316
14.138725 94.017 -136.4467
14.241180 94.026 -136.7691
14.344377 94.034 -137.0996
14.448323 94.043 -137.4389
14.553021 94.052 -137.7875
14.658478 94.060 -138.1458
14.764700 94.068 -138.5136
14.871691 94.076 -138.8906
14.979457 94.084 -139.2763
15.088005 94.091 -139.6697
15.197339 94.097 -140.0699
15.307465 94.104 -140.4755
15.418389 94.110 -140.8854
15.530117 94.116 -141.2983
15.642655 94.122 -141.7131
15.756008 94.128 -142.1289
15.870182 94.135 -142.5449
15.985184 94.143 -142.9607
16.101019 94.152 -143.3760
16.217694 94.161 -143.7910
16.335214 94.172 -144.2056
16.453586 94.185 -144.6204
16.572815 94.198 -145.0354
16.692909 94.213 -145.4510
16.813872 94.228 -145.8672
16.935713 94.245 -146.2840
17.058436 94.263 -146.7009
17.182048 94.281 -147.1174
17.306556 94.300 -147.5327
17.431967 94.319 -147.9456
17.558286 94.339 -148.3551
17.685521 94.358 -148.7600
17.813677 94.378 -149.1591
17.942762 94.398 -149.5514
18.072783 94.417 -149.9359
18.203746 94.437 -150.3120
18.335658 94.456 -150.6793
18.468526 94.476 -151.0374
18.602356 94.495 -151.3865
18.737156 94.515 -151.7266
18.872934 94.534 -152.0579
19.009695 94.553 -152.3810
19.147447 94.571 -152.6962
19.286197 94.589 -153.0040
19.425953 94.607 -153.3049
19.566721 94.624 -153.5995
19.708510 94.640 -153.8884
19.851326 94.655 -154.1720
19.995177 94.669 -154.4511
20.140070 94.682 -154.7263
20.286013 94.694 -154.9981
20.433014 94.705 -155.2672
20.581080 94.715 -155.5342
20.730219 94.723 -155.7994
20.880439 94.730 -156.0634
21.031747 94.735 -156.3264
21.184152 94.739 -156.5889
21.337661 94.742 -156.8512
21.492282 94.744 -157.1137
21.648024 94.744 -157.3772
21.804895 94.743 -157.6423
21.962902 94.742 -157.9100
22.122054 94.740 -158.1812
22.282360 94.737 -158.4571
22.443827 94.733 -158.7387
22.606464 94.729 -159.0267
22.770280 94.725 -159.3219
22.935283 94.720 -159.6244
23.101481 94.715 -159.9340
23.268884 94.709 -160.2504
23.437500 94.702 -160.5728
23.607338 94.696 -160.9002
23.778406 94.689 -161.2317
23.950714 94.682 -161.5665
24.124271 94.676 -161.9038
24.299086 94.670 -162.2433
24.475167 94.664 -162.5846
24.652524 94.660 -162.9277
24.831166 94.657 -163.2724
25.011103 94.654 -163.6186
25.192344 94.652 -163.9659
25.374898 94.651 -164.3137
25.558775 94.651 -164.6611
25.743984 94.652 -165.0071
25.930536 94.653 -165.3504
26.118439 94.654 -165.6898
26.307704 94.656 -166.0242
26.498341 94.658 -166.3527
26.690359 94.660 -166.6745
26.883768 94.663 -166.9894
27.078579 94.666 -167.2971
27.274801 94.669 -167.5979
27.472446 94.672 -167.8921
27.671522 94.676 -168.1802
27.872042 94.678 -168.4628
28.074014 94.681 -168.7405
28.277450 94.683 -169.0138
28.482360 94.684 -169.2829
28.688755 94.684 -169.5483
28.896645 94.682 -169.8099
29.106042 94.680 -170.0678
29.316957 94.676 -170.3222
29.529400 94.672 -170.5733
29.743382 94.666 -170.8216
29.958915 94.659 -171.0679
30.176009 94.651 -171.3134
30.394677 94.643 -171.5593
30.614929 94.634 -171.8070
30.836778 94.624 -172.0577
31.060234 94.614 -172.3125
31.285309 94.604 -172.5721
31.512015 94.593 -172.8367
31.740364 94.581 -173.1063
31.970368 94.569 -173.3806
32.202039 94.557 -173.6592
32.435388 94.545 -173.9417
32.670428 94.533 -174.2277
32.907171 94.521 -174.5167
33.145630 94.509 -174.8083
33.385817 94.498 -175.1019
33.627745 94.487 -175.3968
33.871425 94.476 -175.6924
34.116871 94.466 -175.9879
34.364096 94.456 -176.2826
34.613113 94.446 -176.5755
34.863934 94.437 -176.8661
35.116572 94.428 -177.1537
35.371041 94.419 -177.4374
35.627354 94.409 -177.7168
35.885525 94.400 -177.9912
36.145566 94.390 -178.2602
36.407492 94.381 -178.5237
36.671316 94.370 -178.7817
36.937051 94.360 -179.0342
37.204712 94.349 -179.2817
37.474313 94.337 -179.5247
37.745867 94.325 -179.7642
38.019389 94.313 179.9991
38.294893 94.300 179.7642
38.572394 94.286 179.5301
38.851905 94.272 179.2961
39.133442 94.257 179.0616
39.417019 94.242 178.8264
39.702651 94.226 178.5903
39.990353 94.210 178.3534
40.280140 94.193 178.1156
40.572026 94.176 177.8769
40.866028 94.159 177.6369
41.162160 94.142 177.3957
41.460438 94.125 177.1532
41.760877 94.107 176.9098
42.063494 94.090 176.6662
42.368303 94.072 176.4233
42.675322 94.055 176.1819
42.984565 94.037 175.9428
43.296048 94.019 175.7063
43.609789 94.002 175.4723
43.925804 93.984 175.2405
44.244108 93.967 175.0108
44.564719 93.949 174.7828
44.887654 93.931 174.5567
45.212928 93.913 174.3330
45.540560 93.895 174.1119
45.870565 93.876 173.8937
46.202962 93.857 173.6778
46.537768 93.838 173.4634
46.875000 93.819 173.2495
47.214676 93.800 173.0354
47.556813 93.781 172.8210
47.901429 93.761 172.6072
48.248542 93.741 172.3948
48.598171 93.720 172.1846
48.950334 93.700 171.9770
49.305048 93.680 171.7714
49.662333 93.659 171.5675
50.022206 93.639 171.3649
50.384688 93.618 171.1644
50.749796 93.597 170.9669
51.117550 93.575 170.7734
51.487969 93.554 170.5843
51.861072 93.532 170.3992
52.236879 93.511 170.2169
52.615409 93.489 170.0363
52.996681 93.467 169.8568
53.380717 93.445 169.6785
53.767536 93.423 169.5015
54.157158 93.401 169.3253
54.549603 93.380 169.1491
54.944892 93.358 168.9712
55.343045 93.337 168.7905
55.744084 93.316 168.6064
56.148028 93.295 168.4193
56.554900 93.275 168.2299
56.964720 93.254 168.0385
57.377510 93.234 167.8450
57.793291 93.214 167.6486
58.212085 93.193 167.4495
58.633914 93.172 167.2487
59.058799 93.151 167.0485
59.486764 93.128 166.8517
59.917829 93.104 166.6604
60.352019 93.080 166.4752
60.789354 93.055 166.2955
61.229859 93.030 166.1198
61.673556 93.005 165.9468
62.120468 92.979 165.7753
62.570618 92.953 165.6049
63.024031 92.926 165.4352
63.480729 92.898 165.2664
63.940736 92.871 165.0983
64.404077 92.843 164.9310
64.870776 92.814 164.7650
65.340856 92.786 164.6005
65.814343 92.759 164.4375
66.291261 92.731 164.2761
66.771635 92.703 164.1165
67.255489 92.676 163.9590
67.742850 92.648 163.8041
68.233743 92.621 163.6525
68.728193 92.593 163.5045
69.226226 92.565 163.3598
69.727867 92.538 163.2180
70.233144 92.510 163.0786
70.742083 92.482 162.9409
71.254709 92.454 162.8046
71.771050 92.426 162.6693
72.291132 92.397 162.5349
72.814984 92.369 162.4014
73.342631 92.341 162.2692
73.874102 92.312 162.1388
74.409424 92.284 162.0099
74.948626 92.255 161.8826
75.491734 92.227 161.7564
76.038779 92.199 161.6313
76.589787 92.171 161.5068
77.144788 92.144 161.3822
77.703811 92.116 161.2563
78.266885 92.089 161.1278
78.834039 92.062 160.9956
79.405303 92.035 160.8585
79.980706 92.008 160.7160
80.560280 91.980 160.5679
81.144053 91.952 160.4147
81.732056 91.923 160.2577
82.324320 91.892 160.0982
82.920876 91.861 159.9381
83.521755 91.827 159.7795
84.126988 91.792 159.6249
84.736607 91.756 159.4771
85.350643 91.718 159.3382
85.969129 91.679 159.2090
86.592097 91.640 159.0898
87.219579 91.600 158.9800
