* Measurement data measured by REW V5.31
* Source: EXCL: Microphone (USB Sound Device        ), MICROPHONE (Master Volume), L, volume: 0.390
* Format: 256k Log Swept Sine, 1 sweep at -4.0 dBFS with no timing reference
* Dated: Jul 21, 2024 11:51:29 PM
* REW Settings:
*  C-weighting compensation: Off
*  Target level: 75.0 dB
* Note: Kefine Delci AE Gold L
* Measurement: L Kefine Delci AE Gold
* Smoothing: 1/12 octave
* Frequency Step: 96 ppo
* Start Frequency: 0.36621094 Hz
*
* Freq(Hz) SPL(dB) Phase(degrees)
0.366211 87.125 -60.5453
0.368865 87.129 -60.6083
0.371538 87.135 -60.7027
0.374230 87.142 -60.8211
0.376942 87.151 -60.9574
0.379673 87.160 -61.1068
0.382424 87.169 -61.2665
0.385196 87.179 -61.4345
0.387987 87.189 -61.6097
0.390798 87.199 -61.7917
0.393630 87.209 -61.9801
0.396483 87.219 -62.1747
0.399356 87.229 -62.3755
0.402250 87.239 -62.5825
0.405165 87.250 -62.7957
0.408101 87.260 -63.0152
0.411058 87.271 -63.2408
0.414037 87.281 -63.4728
0.417037 87.292 -63.7110
0.420059 87.303 -63.9555
0.423103 87.314 -64.2063
0.426169 87.325 -64.4634
0.429257 87.336 -64.7268
0.432368 87.347 -64.9966
0.435501 87.358 -65.2728
0.438656 87.369 -65.5552
0.441835 87.381 -65.8440
0.445037 87.392 -66.1392
0.448262 87.404 -66.4406
0.451510 87.415 -66.7483
0.454782 87.427 -67.0623
0.458077 87.439 -67.3825
0.461397 87.450 -67.7089
0.464740 87.462 -68.0415
0.468108 87.474 -68.3802
0.471500 87.486 -68.7250
0.474917 87.499 -69.0758
0.478358 87.511 -69.4326
0.481825 87.523 -69.7953
0.485316 87.536 -70.1639
0.488833 87.548 -70.5382
0.492375 87.561 -70.9182
0.495943 87.574 -71.3039
0.499537 87.586 -71.6951
0.503157 87.599 -72.0917
0.506803 87.612 -72.4936
0.510475 87.625 -72.9007
0.514175 87.639 -73.3130
0.517900 87.652 -73.7303
0.521653 87.665 -74.1524
0.525434 87.679 -74.5793
0.529241 87.692 -75.0109
0.533076 87.706 -75.4469
0.536939 87.720 -75.8872
0.540830 87.734 -76.3318
0.544749 87.748 -76.7804
0.548696 87.762 -77.2328
0.552673 87.776 -77.6890
0.556677 87.790 -78.1488
0.560711 87.805 -78.6120
0.564774 87.819 -79.0783
0.568867 87.834 -79.5478
0.572989 87.848 -80.0201
0.577141 87.863 -80.4950
0.581324 87.878 -80.9725
0.585536 87.893 -81.4523
0.589779 87.908 -81.9342
0.594053 87.923 -82.4180
0.598358 87.939 -82.9036
0.602694 87.954 -83.3907
0.607061 87.970 -83.8791
0.611460 87.986 -84.3687
0.615891 88.001 -84.8592
0.620354 88.017 -85.3505
0.624849 88.033 -85.8424
0.629377 88.049 -86.3346
0.633938 88.066 -86.8269
0.638532 88.082 -87.3193
0.643159 88.099 -87.8114
0.647819 88.115 -88.3031
0.652514 88.132 -88.7942
0.657242 88.149 -89.2845
0.662005 88.166 -89.7739
0.666802 88.183 -90.2621
0.671634 88.200 -90.7489
0.676501 88.217 -91.2343
0.681403 88.235 -91.7180
0.686341 88.253 -92.1999
0.691314 88.270 -92.6799
0.696324 88.288 -93.1578
0.701370 88.306 -93.6335
0.706452 88.323 -94.1072
0.711571 88.341 -94.5789
0.716728 88.358 -95.0489
0.721921 88.374 -95.5180
0.727153 88.390 -95.9871
0.732422 88.403 -96.4576
0.737729 88.415 -96.9313
0.743075 88.426 -97.4098
0.748460 88.435 -97.8945
0.753883 88.443 -98.3865
0.759346 88.451 -98.8864
0.764849 88.459 -99.3944
0.770391 88.466 -99.9108
0.775974 88.472 -100.4355
0.781597 88.479 -100.9685
0.787261 88.486 -101.5096
0.792966 88.492 -102.0588
0.798712 88.498 -102.6157
0.804500 88.504 -103.1802
0.810329 88.509 -103.7522
0.816201 88.514 -104.3313
0.822116 88.519 -104.9174
0.828073 88.524 -105.5101
0.834074 88.529 -106.1092
0.840118 88.533 -106.7145
0.846206 88.536 -107.3256
0.852338 88.540 -107.9423
0.858514 88.542 -108.5642
0.864735 88.545 -109.1910
0.871001 88.547 -109.8223
0.877313 88.548 -110.4579
0.883670 88.549 -111.0972
0.890074 88.549 -111.7401
0.896524 88.549 -112.3860
0.903020 88.548 -113.0345
0.909564 88.547 -113.6854
0.916155 88.544 -114.3381
0.922794 88.541 -114.9922
0.929481 88.538 -115.6474
0.936216 88.533 -116.3031
0.943000 88.528 -116.9589
0.949834 88.522 -117.6144
0.956717 88.514 -118.2691
0.963649 88.506 -118.9225
0.970632 88.497 -119.5742
0.977666 88.487 -120.2237
0.984750 88.476 -120.8705
0.991886 88.463 -121.5142
0.999074 88.450 -122.1542
1.006314 88.435 -122.7900
1.013606 88.419 -123.4213
1.020951 88.401 -124.0474
1.028349 88.382 -124.6679
1.035801 88.362 -125.2823
1.043307 88.340 -125.8902
1.050867 88.317 -126.4912
1.058482 88.292 -127.0850
1.066152 88.265 -127.6714
1.073878 88.237 -128.2507
1.081660 88.207 -128.8236
1.089498 88.177 -129.3912
1.097393 88.145 -129.9556
1.105345 88.112 -130.5193
1.113355 88.080 -131.0854
1.121423 88.047 -131.6562
1.129549 88.014 -132.2339
1.137734 87.982 -132.8200
1.145979 87.950 -133.4157
1.154283 87.917 -134.0216
1.162647 87.885 -134.6383
1.171072 87.852 -135.2663
1.179558 87.819 -135.9059
1.188106 87.786 -136.5573
1.196715 87.751 -137.2209
1.205387 87.715 -137.8968
1.214122 87.678 -138.5851
1.222920 87.639 -139.2858
1.231782 87.598 -139.9992
1.240708 87.555 -140.7251
1.249699 87.509 -141.4634
1.258754 87.461 -142.2141
1.267876 87.409 -142.9768
1.277063 87.354 -143.7513
1.286318 87.295 -144.5370
1.295639 87.232 -145.3335
1.305027 87.165 -146.1402
1.314484 87.092 -146.9561
1.324009 87.014 -147.7805
1.333604 86.931 -148.6120
1.343268 86.842 -149.4496
1.353002 86.746 -150.2917
1.362806 86.643 -151.1365
1.372681 86.532 -151.9823
1.382628 86.414 -152.8269
1.392647 86.287 -153.6680
1.402739 86.151 -154.5032
1.412904 86.005 -155.3300
1.423142 85.849 -156.1460
1.433455 85.682 -156.9494
1.443843 85.502 -157.7390
1.454305 85.307 -158.5153
1.464844 85.096 -159.2803
1.475459 84.867 -160.0379
1.486150 84.617 -160.7927
1.496920 84.344 -161.5495
1.507767 84.049 -162.3123
1.518693 83.730 -163.0843
1.529698 83.389 -163.8681
1.540783 83.027 -164.6658
1.551948 82.644 -165.4792
1.563194 82.243 -166.3100
1.574521 81.824 -167.1598
1.585931 81.391 -168.0300
1.597423 80.945 -168.9225
1.608999 80.488 -169.8388
1.620658 80.023 -170.7806
1.632402 79.551 -171.7498
1.644232 79.076 -172.7484
1.656146 78.601 -173.7783
1.668147 78.127 -174.8417
1.680235 77.660 -175.9408
1.692411 77.201 -177.0781
1.704675 76.754 -178.2562
1.717028 76.323 -179.4780
1.729470 75.913 179.2536
1.742003 75.527 177.9349
1.754626 75.170 176.5617
1.767341 74.846 175.1286
1.780147 74.562 173.6281
1.793047 74.320 172.0486
1.806040 74.126 170.3718
1.819128 73.983 168.5663
1.832310 73.893 166.5791
1.845587 73.857 164.3204
1.858961 73.875 161.6386
1.872432 73.945 158.2683
1.886001 74.065 153.7106
1.899667 74.232 146.9244
1.913433 74.443 135.4644
1.927299 74.695 113.4248
1.941265 74.984 75.1376
1.955332 75.307 40.5180
1.969501 75.661 22.0769
1.983773 76.041 12.2439
1.998148 76.444 6.2433
2.012627 76.866 2.1376
2.027212 77.303 -0.9209
2.041902 77.750 -3.3484
2.056698 78.205 -5.3711
2.071602 78.662 -7.1217
2.086614 79.118 -8.6837
2.101734 79.569 -10.1123
2.116964 80.012 -11.4462
2.132304 80.443 -12.7135
2.147756 80.861 -13.9355
2.163320 81.264 -15.1294
2.178996 81.652 -16.3085
2.194786 82.029 -17.4832
2.210690 82.397 -18.6609
2.226710 82.760 -19.8453
2.242845 83.120 -21.0364
2.259098 83.481 -22.2317
2.275468 83.842 -23.4275
2.291957 84.204 -24.6195
2.308566 84.566 -25.8036
2.325295 84.929 -26.9766
2.342145 85.290 -28.1354
2.359117 85.650 -29.2778
2.376212 86.007 -30.4026
2.393431 86.361 -31.5087
2.410775 86.710 -32.5956
2.428244 87.052 -33.6635
2.445840 87.388 -34.7130
2.463564 87.716 -35.7453
2.481416 88.035 -36.7621
2.499397 88.344 -37.7661
2.517509 88.641 -38.7607
2.535752 88.927 -39.7509
2.554127 89.200 -40.7423
2.572635 89.461 -41.7413
2.591277 89.709 -42.7535
2.610055 89.944 -43.7825
2.628968 90.168 -44.8291
2.648019 90.380 -45.8918
2.667208 90.581 -46.9678
2.686535 90.772 -48.0530
2.706003 90.954 -49.1431
2.725612 91.127 -50.2337
2.745363 91.293 -51.3206
2.765257 91.451 -52.3998
2.785295 91.603 -53.4678
2.805478 91.750 -54.5215
2.825808 91.892 -55.5585
2.846285 92.031 -56.5772
2.866910 92.167 -57.5774
2.887685 92.300 -58.5602
2.908611 92.431 -59.5289
2.929688 92.558 -60.4884
2.950917 92.682 -61.4448
2.972301 92.801 -62.4038
2.993839 92.916 -63.3693
3.015534 93.025 -64.3428
3.037386 93.128 -65.3239
3.059396 93.226 -66.3104
3.081565 93.319 -67.2994
3.103896 93.406 -68.2873
3.126388 93.489 -69.2699
3.149043 93.568 -70.2431
3.171862 93.642 -71.2029
3.194847 93.713 -72.1458
3.217998 93.780 -73.0685
3.241317 93.844 -73.9696
3.264805 93.904 -74.8489
3.288463 93.961 -75.7081
3.312293 94.015 -76.5511
3.336295 94.064 -77.3825
3.360471 94.108 -78.2060
3.384822 94.148 -79.0238
3.409350 94.184 -79.8365
3.434056 94.215 -80.6432
3.458940 94.242 -81.4418
3.484005 94.265 -82.2291
3.509252 94.286 -83.0016
3.534681 94.303 -83.7554
3.560295 94.318 -84.4864
3.586094 94.330 -85.1907
3.612081 94.341 -85.8650
3.638255 94.350 -86.5073
3.664620 94.356 -87.1168
3.691175 94.360 -87.6943
3.717923 94.361 -88.2415
3.744864 94.359 -88.7603
3.772001 94.354 -89.2523
3.799335 94.347 -89.7189
3.826866 94.338 -90.1606
3.854597 94.328 -90.5778
3.882529 94.318 -90.9702
3.910664 94.308 -91.3372
3.939002 94.299 -91.6776
3.967546 94.291 -91.9900
3.996296 94.286 -92.2724
4.025255 94.282 -92.5226
4.054423 94.280 -92.7386
4.083804 94.281 -92.9194
4.113396 94.283 -93.0656
4.143204 94.286 -93.1790
4.173227 94.292 -93.2631
4.203468 94.301 -93.3223
4.233928 94.312 -93.3615
4.264609 94.327 -93.3854
4.295512 94.346 -93.3989
4.326639 94.369 -93.4053
4.357992 94.398 -93.4070
4.389572 94.432 -93.4045
4.421380 94.472 -93.3968
4.453419 94.518 -93.3831
4.485691 94.570 -93.3636
4.518196 94.626 -93.3408
4.550936 94.688 -93.3187
4.583914 94.754 -93.3026
4.617131 94.823 -93.2985
4.650589 94.896 -93.3121
4.684289 94.972 -93.3488
4.718233 95.051 -93.4125
4.752424 95.132 -93.5052
4.786862 95.217 -93.6274
4.821549 95.304 -93.7779
4.856488 95.394 -93.9555
4.891680 95.486 -94.1592
4.927127 95.580 -94.3886
4.962831 95.675 -94.6439
4.998794 95.769 -94.9257
5.035017 95.863 -95.2350
5.071503 95.956 -95.5731
5.108253 96.047 -95.9410
5.145270 96.135 -96.3395
5.182555 96.222 -96.7684
5.220110 96.306 -97.2264
5.257937 96.388 -97.7106
5.296038 96.468 -98.2177
5.334415 96.545 -98.7437
5.373071 96.619 -99.2850
5.412006 96.689 -99.8390
5.451224 96.755 -100.4038
5.490725 96.817 -100.9791
5.530514 96.874 -101.5651
5.570590 96.927 -102.1621
5.610957 96.976 -102.7687
5.651616 97.021 -103.3822
5.692570 97.061 -103.9986
5.733821 97.098 -104.6133
5.775370 97.131 -105.2220
5.817221 97.160 -105.8214
5.859375 97.185 -106.4095
5.901834 97.207 -106.9857
5.944602 97.225 -107.5502
5.987679 97.239 -108.1025
6.031068 97.251 -108.6416
6.074771 97.259 -109.1652
6.118792 97.266 -109.6708
6.163131 97.272 -110.1554
6.207792 97.276 -110.6169
6.252776 97.279 -111.0540
6.298086 97.282 -111.4663
6.343725 97.284 -111.8546
6.389694 97.286 -112.2203
6.435996 97.289 -112.5651
6.482634 97.292 -112.8904
6.529610 97.298 -113.1974
6.576926 97.306 -113.4866
6.624585 97.316 -113.7587
6.672590 97.330 -114.0143
6.720942 97.346 -114.2558
6.769645 97.365 -114.4863
6.818700 97.387 -114.7102
6.868111 97.412 -114.9318
6.917881 97.441 -115.1546
6.968010 97.473 -115.3815
7.018504 97.508 -115.6140
7.069362 97.547 -115.8536
7.120590 97.588 -116.1023
7.172189 97.632 -116.3627
7.224161 97.678 -116.6375
7.276511 97.725 -116.9294
7.329239 97.774 -117.2404
7.382350 97.823 -117.5713
7.435845 97.872 -117.9219
7.489729 97.922 -118.2916
7.544002 97.971 -118.6791
7.598669 98.020 -119.0836
7.653732 98.066 -119.5044
7.709194 98.111 -119.9407
7.765058 98.154 -120.3915
7.821327 98.195 -120.8551
7.878004 98.233 -121.3289
7.935091 98.268 -121.8094
7.992592 98.301 -122.2938
8.050510 98.331 -122.7795
8.108847 98.358 -123.2643
8.167607 98.382 -123.7469
8.226793 98.404 -124.2250
8.286408 98.423 -124.6964
8.346454 98.440 -125.1581
8.406936 98.455 -125.6081
8.467856 98.469 -126.0447
8.529218 98.481 -126.4670
8.591024 98.492 -126.8749
8.653278 98.503 -127.2682
8.715983 98.514 -127.6469
8.779143 98.525 -128.0109
8.842760 98.537 -128.3607
8.906839 98.550 -128.6973
8.971381 98.563 -129.0220
9.036392 98.578 -129.3373
9.101873 98.595 -129.6454
9.167829 98.613 -129.9481
9.234263 98.633 -130.2473
9.301178 98.655 -130.5447
9.368578 98.678 -130.8424
9.436467 98.703 -131.1425
9.504847 98.728 -131.4470
9.573723 98.754 -131.7573
9.643099 98.781 -132.0743
9.712976 98.806 -132.3983
9.783361 98.831 -132.7294
9.854255 98.853 -133.0679
9.925663 98.872 -133.4135
9.997588 98.888 -133.7654
10.070035 98.901 -134.1229
10.143007 98.911 -134.4843
10.216507 98.918 -134.8481
10.290540 98.922 -135.2130
10.365109 98.923 -135.5776
10.440219 98.923 -135.9406
10.515873 98.920 -136.3005
10.592076 98.915 -136.6561
10.668830 98.909 -137.0063
10.746141 98.903 -137.3505
10.824012 98.895 -137.6884
10.902447 98.887 -138.0197
10.981451 98.878 -138.3446
11.061027 98.870 -138.6635
11.141180 98.861 -138.9768
11.221913 98.852 -139.2855
11.303232 98.844 -139.5904
11.385140 98.836 -139.8926
11.467641 98.828 -140.1929
11.550741 98.820 -140.4921
11.634442 98.812 -140.7910
11.718750 98.805 -141.0903
11.803669 98.798 -141.3903
11.889203 98.791 -141.6912
11.975357 98.784 -141.9928
12.062136 98.777 -142.2949
12.149543 98.770 -142.5973
12.237583 98.762 -142.8994
12.326262 98.754 -143.2007
12.415583 98.746 -143.5007
12.505552 98.737 -143.7988
12.596172 98.728 -144.0950
12.687449 98.719 -144.3890
12.779387 98.709 -144.6810
12.871992 98.700 -144.9711
12.965268 98.690 -145.2600
13.059220 98.681 -145.5483
13.153852 98.672 -145.8369
13.249170 98.664 -146.1266
13.345179 98.656 -146.4182
13.441884 98.649 -146.7126
13.539289 98.642 -147.0105
13.637401 98.635 -147.3121
13.736223 98.627 -147.6177
13.835761 98.620 -147.9270
13.936021 98.612 -148.2396
14.037007 98.604 -148.5549
14.138725 98.594 -148.8718
14.241180 98.584 -149.1893
14.344377 98.573 -149.5063
14.448323 98.561 -149.8218
14.553021 98.549 -150.1348
14.658478 98.536 -150.4448
14.764700 98.523 -150.7513
14.871691 98.510 -151.0544
14.979457 98.498 -151.3544
15.088005 98.486 -151.6519
15.197339 98.475 -151.9479
15.307465 98.465 -152.2435
15.418389 98.455 -152.5397
15.530117 98.446 -152.8378
15.642655 98.438 -153.1384
15.756008 98.429 -153.4421
15.870182 98.421 -153.7494
15.985184 98.413 -154.0599
16.101019 98.404 -154.3732
16.217694 98.395 -154.6884
16.335214 98.386 -155.0043
16.453586 98.376 -155.3199
16.572815 98.366 -155.6337
16.692909 98.356 -155.9448
16.813872 98.345 -156.2523
16.935713 98.335 -156.5556
17.058436 98.326 -156.8547
17.182048 98.317 -157.1497
17.306556 98.308 -157.4410
17.431967 98.301 -157.7296
17.558286 98.293 -158.0161
17.685521 98.287 -158.3016
17.813677 98.280 -158.5868
17.942762 98.274 -158.8720
18.072783 98.268 -159.1577
18.203746 98.262 -159.4437
18.335658 98.256 -159.7297
18.468526 98.250 -160.0153
18.602356 98.243 -160.2999
18.737156 98.237 -160.5828
18.872934 98.230 -160.8635
19.009695 98.223 -161.1419
19.147447 98.217 -161.4178
19.286197 98.210 -161.6912
19.425953 98.204 -161.9626
19.566721 98.197 -162.2321
19.708510 98.190 -162.5002
19.851326 98.183 -162.7672
19.995177 98.176 -163.0331
20.140070 98.169 -163.2979
20.286013 98.161 -163.5613
20.433014 98.152 -163.8231
20.581080 98.144 -164.0830
20.730219 98.135 -164.3409
20.880439 98.125 -164.5967
21.031747 98.116 -164.8506
21.184152 98.107 -165.1031
21.337661 98.098 -165.3549
21.492282 98.090 -165.6065
21.648024 98.081 -165.8588
21.804895 98.073 -166.1122
21.962902 98.065 -166.3672
22.122054 98.056 -166.6237
22.282360 98.047 -166.8815
22.443827 98.037 -167.1403
22.606464 98.027 -167.3992
22.770280 98.017 -167.6580
22.935283 98.006 -167.9163
23.101481 97.995 -168.1738
23.268884 97.985 -168.4307
23.437500 97.974 -168.6874
23.607338 97.963 -168.9443
23.778406 97.952 -169.2018
23.950714 97.941 -169.4603
24.124271 97.929 -169.7200
24.299086 97.918 -169.9806
24.475167 97.906 -170.2417
24.652524 97.895 -170.5030
24.831166 97.883 -170.7638
25.011103 97.871 -171.0237
25.192344 97.859 -171.2825
25.374898 97.847 -171.5399
25.558775 97.835 -171.7961
25.743984 97.824 -172.0513
25.930536 97.813 -172.3055
26.118439 97.801 -172.5590
26.307704 97.790 -172.8115
26.498341 97.779 -173.0629
26.690359 97.768 -173.3130
26.883768 97.757 -173.5616
27.078579 97.745 -173.8083
27.274801 97.734 -174.0533
27.472446 97.723 -174.2964
27.671522 97.711 -174.5377
27.872042 97.699 -174.7772
28.074014 97.688 -175.0150
28.277450 97.676 -175.2510
28.482360 97.664 -175.4852
28.688755 97.651 -175.7175
28.896645 97.639 -175.9480
29.106042 97.626 -176.1770
29.316957 97.614 -176.4052
29.529400 97.601 -176.6328
29.743382 97.588 -176.8606
29.958915 97.576 -177.0888
30.176009 97.563 -177.3177
30.394677 97.550 -177.5470
30.614929 97.537 -177.7766
30.836778 97.524 -178.0061
31.060234 97.511 -178.2354
31.285309 97.497 -178.4645
31.512015 97.483 -178.6937
31.740364 97.470 -178.9233
31.970368 97.456 -179.1540
32.202039 97.443 -179.3858
32.435388 97.429 -179.6188
32.670428 97.415 -179.8528
32.907171 97.401 179.9124
33.145630 97.387 179.6774
33.385817 97.373 179.4423
33.627745 97.358 179.2073
33.871425 97.344 178.9725
34.116871 97.330 178.7380
34.364096 97.315 178.5037
34.613113 97.301 178.2701
34.863934 97.286 178.0373
35.116572 97.271 177.8056
35.371041 97.256 177.5754
35.627354 97.241 177.3468
35.885525 97.226 177.1201
36.145566 97.210 176.8954
36.407492 97.194 176.6730
36.671316 97.178 176.4531
36.937051 97.162 176.2358
37.204712 97.145 176.0209
37.474313 97.129 175.8082
37.745867 97.113 175.5972
38.019389 97.096 175.3872
38.294893 97.080 175.1779
38.572394 97.063 174.9690
38.851905 97.047 174.7605
39.133442 97.030 174.5527
39.417019 97.013 174.3457
39.702651 96.995 174.1398
39.990353 96.978 173.9348
40.280140 96.961 173.7307
40.572026 96.944 173.5269
40.866028 96.926 173.3230
41.162160 96.909 173.1189
41.460438 96.892 172.9144
41.760877 96.874 172.7095
42.063494 96.857 172.5047
42.368303 96.839 172.3002
42.675322 96.821 172.0963
42.984565 96.803 171.8932
43.296048 96.784 171.6913
43.609789 96.765 171.4905
43.925804 96.746 171.2913
44.244108 96.727 171.0938
44.564719 96.707 170.8986
44.887654 96.688 170.7057
45.212928 96.668 170.5148
45.540560 96.648 170.3252
45.870565 96.629 170.1360
46.202962 96.609 169.9465
46.537768 96.590 169.7564
46.875000 96.570 169.5660
47.214676 96.550 169.3762
47.556813 96.530 169.1873
47.901429 96.509 169.0001
48.248542 96.489 168.8144
48.598171 96.468 168.6301
48.950334 96.448 168.4467
49.305048 96.427 168.2641
49.662333 96.406 168.0820
50.022206 96.386 167.9008
50.384688 96.364 167.7209
50.749796 96.343 167.5430
51.117550 96.321 167.3679
51.487969 96.299 167.1962
51.861072 96.277 167.0284
52.236879 96.256 166.8645
52.615409 96.234 166.7039
52.996681 96.213 166.5458
53.380717 96.192 166.3890
53.767536 96.172 166.2324
54.157158 96.152 166.0753
54.549603 96.133 165.9172
54.944892 96.113 165.7583
55.343045 96.094 165.5986
55.744084 96.075 165.4378
56.148028 96.056 165.2755
56.554900 96.037 165.1109
56.964720 96.018 164.9438
57.377510 95.999 164.7742
57.793291 95.980 164.6022
58.212085 95.960 164.4284
58.633914 95.940 164.2534
59.058799 95.919 164.0779
59.486764 95.898 163.9025
59.917829 95.876 163.7280
60.352019 95.853 163.5548
60.789354 95.829 163.3835
61.229859 95.806 163.2142
61.673556 95.781 163.0475
62.120468 95.756 162.8838
62.570618 95.731 162.7230
63.024031 95.706 162.5651
63.480729 95.681 162.4095
63.940736 95.655 162.2556
64.404077 95.630 162.1029
64.870776 95.604 161.9512
65.340856 95.578 161.8005
65.814343 95.552 161.6511
66.291261 95.526 161.5034
66.771635 95.500 161.3577
67.255489 95.473 161.2141
67.742850 95.446 161.0727
68.233743 95.420 160.9332
68.728193 95.393 160.7957
69.226226 95.366 160.6602
69.727867 95.339 160.5267
70.233144 95.313 160.3951
70.742083 95.287 160.2645
71.254709 95.260 160.1344
71.771050 95.234 160.0051
72.291132 95.207 159.8774
72.814984 95.181 159.7519
73.342631 95.154 159.6283
73.874102 95.128 159.5062
74.409424 95.101 159.3861
74.948626 95.074 159.2690
75.491734 95.046 159.1559
76.038779 95.018 159.0471
76.589787 94.991 158.9418
77.144788 94.964 158.8384
77.703811 94.938 158.7354
78.266885 94.912 158.6302
78.834039 94.886 158.5212
79.405303 94.861 158.4066
79.980706 94.836 158.2853
80.560280 94.811 158.1568
81.144053 94.785 158.0214
81.732056 94.759 157.8801
82.324320 94.732 157.7349
82.920876 94.704 157.5883
83.521755 94.674 157.4426
