* Measurement data measured by REW V5.31.3
* Source: EXCL: Microphone (USB Sound Device        ), MICROPHONE (Master Volume), R, volume: 0.390
* Format: 256k Log Swept Sine, 1 sweep at -12.0 dBFS with no timing reference
* Dated: May 31, 2025 2:03:26 PM
* REW Settings:
*  C-weighting compensation: Off
*  Target level: 75.0 dB
* Note: Kiwi Ears Astral R
* Measurement: R May 31
* Smoothing: 1/12 octave
* Frequency Step: 96 ppo
* Start Frequency: 0.36621094 Hz
*
* Freq(Hz) SPL(dB) Phase(degrees)
0.366211 89.974 -79.9755
0.368865 89.985 -80.0650
0.371538 90.001 -80.1986
0.374230 90.022 -80.3657
0.376942 90.045 -80.5573
0.379673 90.069 -80.7666
0.382424 90.095 -80.9891
0.385196 90.121 -81.2222
0.387987 90.148 -81.4642
0.390798 90.175 -81.7144
0.393630 90.202 -81.9721
0.396483 90.230 -82.2372
0.399356 90.258 -82.5095
0.402250 90.286 -82.7889
0.405165 90.314 -83.0755
0.408101 90.342 -83.3692
0.411058 90.371 -83.6699
0.414037 90.400 -83.9777
0.417037 90.429 -84.2924
0.420059 90.458 -84.6142
0.423103 90.487 -84.9429
0.426169 90.517 -85.2786
0.429257 90.547 -85.6210
0.432368 90.577 -85.9703
0.435501 90.607 -86.3264
0.438656 90.638 -86.6891
0.441835 90.668 -87.0585
0.445037 90.699 -87.4344
0.448262 90.731 -87.8167
0.451510 90.762 -88.2055
0.454782 90.794 -88.6005
0.458077 90.825 -89.0018
0.461397 90.858 -89.4091
0.464740 90.890 -89.8225
0.468108 90.922 -90.2417
0.471500 90.955 -90.6666
0.474917 90.988 -91.0972
0.478358 91.022 -91.5333
0.481825 91.055 -91.9748
0.485316 91.089 -92.4216
0.488833 91.123 -92.8734
0.492375 91.157 -93.3302
0.495943 91.192 -93.7919
0.499537 91.226 -94.2581
0.503157 91.261 -94.7289
0.506803 91.297 -95.2041
0.510475 91.332 -95.6834
0.514175 91.368 -96.1668
0.517900 91.404 -96.6541
0.521653 91.440 -97.1450
0.525434 91.477 -97.6395
0.529241 91.514 -98.1374
0.533076 91.551 -98.6384
0.536939 91.588 -99.1426
0.540830 91.626 -99.6495
0.544749 91.664 -100.1592
0.548696 91.702 -100.6714
0.552673 91.740 -101.1860
0.556677 91.779 -101.7029
0.560711 91.818 -102.2217
0.564774 91.857 -102.7425
0.568867 91.897 -103.2651
0.572989 91.937 -103.7892
0.577141 91.977 -104.3148
0.581324 92.018 -104.8417
0.585536 92.058 -105.3698
0.589779 92.099 -105.8990
0.594053 92.141 -106.4291
0.598358 92.182 -106.9600
0.602694 92.224 -107.4916
0.607061 92.267 -108.0239
0.611460 92.309 -108.5566
0.615891 92.352 -109.0897
0.620354 92.395 -109.6232
0.624849 92.439 -110.1569
0.629377 92.482 -110.6908
0.633938 92.526 -111.2249
0.638532 92.571 -111.7591
0.643159 92.616 -112.2933
0.647819 92.661 -112.8275
0.652514 92.706 -113.3617
0.657242 92.752 -113.8960
0.662005 92.798 -114.4302
0.666802 92.844 -114.9645
0.671634 92.891 -115.4989
0.676501 92.938 -116.0333
0.681403 92.986 -116.5679
0.686341 93.033 -117.1027
0.691314 93.081 -117.6378
0.696324 93.130 -118.1733
0.701370 93.178 -118.7094
0.706452 93.227 -119.2464
0.711571 93.276 -119.7844
0.716728 93.325 -120.3240
0.721921 93.373 -120.8657
0.727153 93.421 -121.4104
0.732422 93.468 -121.9590
0.737729 93.514 -122.5127
0.743075 93.559 -123.0724
0.748460 93.603 -123.6390
0.753883 93.646 -124.2129
0.759346 93.689 -124.7943
0.764849 93.732 -125.3832
0.770391 93.775 -125.9795
0.775974 93.817 -126.5829
0.781597 93.860 -127.1932
0.787261 93.903 -127.8101
0.792966 93.945 -128.4333
0.798712 93.988 -129.0624
0.804500 94.030 -129.6972
0.810329 94.073 -130.3373
0.816201 94.115 -130.9824
0.822116 94.158 -131.6321
0.828073 94.200 -132.2861
0.834074 94.243 -132.9440
0.840118 94.285 -133.6055
0.846206 94.328 -134.2704
0.852338 94.370 -134.9382
0.858514 94.413 -135.6086
0.864735 94.455 -136.2814
0.871001 94.497 -136.9561
0.877313 94.539 -137.6325
0.883670 94.582 -138.3104
0.890074 94.624 -138.9893
0.896524 94.666 -139.6691
0.903020 94.708 -140.3494
0.909564 94.750 -141.0300
0.916155 94.792 -141.7107
0.922794 94.834 -142.3911
0.929481 94.876 -143.0712
0.936216 94.918 -143.7507
0.943000 94.960 -144.4294
0.949834 95.002 -145.1071
0.956717 95.043 -145.7837
0.963649 95.085 -146.4590
0.970632 95.127 -147.1329
0.977666 95.168 -147.8054
0.984750 95.210 -148.4762
0.991886 95.251 -149.1454
0.999074 95.292 -149.8128
1.006314 95.334 -150.4785
1.013606 95.375 -151.1424
1.020951 95.416 -151.8046
1.028349 95.457 -152.4651
1.035801 95.498 -153.1240
1.043307 95.539 -153.7813
1.050867 95.580 -154.4373
1.058482 95.621 -155.0923
1.066152 95.661 -155.7467
1.073878 95.702 -156.4010
1.081660 95.743 -157.0563
1.089498 95.783 -157.7139
1.097393 95.823 -158.3754
1.105345 95.864 -159.0430
1.113355 95.904 -159.7186
1.121423 95.943 -160.4038
1.129549 95.983 -161.0998
1.137734 96.022 -161.8073
1.145979 96.061 -162.5265
1.154283 96.100 -163.2576
1.162647 96.138 -164.0004
1.171072 96.176 -164.7547
1.179558 96.214 -165.5201
1.188106 96.252 -166.2964
1.196715 96.289 -167.0831
1.205387 96.326 -167.8797
1.214122 96.363 -168.6857
1.222920 96.399 -169.5007
1.231782 96.435 -170.3240
1.240708 96.471 -171.1551
1.249699 96.506 -171.9934
1.258754 96.542 -172.8382
1.267876 96.576 -173.6887
1.277063 96.611 -174.5443
1.286318 96.645 -175.4042
1.295639 96.679 -176.2677
1.305027 96.713 -177.1339
1.314484 96.746 -178.0019
1.324009 96.779 -178.8709
1.333604 96.812 -179.7401
1.343268 96.844 179.3915
1.353002 96.876 178.5249
1.362806 96.908 177.6609
1.372681 96.940 176.8005
1.382628 96.971 175.9446
1.392647 97.002 175.0941
1.402739 97.033 174.2499
1.412904 97.063 173.4127
1.423142 97.093 172.5829
1.433455 97.123 171.7606
1.443843 97.152 170.9453
1.454305 97.181 170.1360
1.464844 97.210 169.3304
1.475459 97.239 168.5261
1.486150 97.266 167.7202
1.496920 97.294 166.9105
1.507767 97.321 166.0953
1.518693 97.347 165.2736
1.529698 97.373 164.4450
1.540783 97.398 163.6093
1.551948 97.423 162.7666
1.563194 97.447 161.9171
1.574521 97.471 161.0612
1.585931 97.494 160.1994
1.597423 97.516 159.3321
1.608999 97.538 158.4598
1.620658 97.559 157.5831
1.632402 97.580 156.7026
1.644232 97.600 155.8189
1.656146 97.619 154.9326
1.668147 97.638 154.0446
1.680235 97.656 153.1555
1.692411 97.674 152.2659
1.704675 97.691 151.3768
1.717028 97.708 150.4890
1.729470 97.723 149.6031
1.742003 97.739 148.7200
1.754626 97.753 147.8403
1.767341 97.767 146.9648
1.780147 97.780 146.0937
1.793047 97.793 145.2270
1.806040 97.805 144.3642
1.819128 97.816 143.5039
1.832310 97.827 142.6440
1.845587 97.837 141.7819
1.858961 97.846 140.9147
1.872432 97.854 140.0402
1.886001 97.861 139.1569
1.899667 97.867 138.2640
1.913433 97.873 137.3613
1.927299 97.877 136.4489
1.941265 97.881 135.5273
1.955332 97.883 134.5972
1.969501 97.885 133.6595
1.983773 97.886 132.7153
1.998148 97.885 131.7657
2.012627 97.884 130.8120
2.027212 97.882 129.8558
2.041902 97.879 128.8985
2.056698 97.875 127.9419
2.071602 97.870 126.9877
2.086614 97.865 126.0378
2.101734 97.858 125.0942
2.116964 97.851 124.1588
2.132304 97.842 123.2333
2.147756 97.833 122.3191
2.163320 97.823 121.4170
2.178996 97.811 120.5271
2.194786 97.799 119.6483
2.210690 97.785 118.7784
2.226710 97.771 117.9147
2.242845 97.755 117.0548
2.259098 97.737 116.1967
2.275468 97.718 115.3391
2.291957 97.698 114.4813
2.308566 97.676 113.6232
2.325295 97.654 112.7650
2.342145 97.630 111.9071
2.359117 97.605 111.0505
2.376212 97.579 110.1960
2.393431 97.552 109.3449
2.410775 97.524 108.4987
2.428244 97.495 107.6589
2.445840 97.465 106.8275
2.463564 97.435 106.0063
2.481416 97.404 105.1977
2.499397 97.373 104.4037
2.517509 97.341 103.6263
2.535752 97.309 102.8674
2.554127 97.276 102.1281
2.572635 97.242 101.4089
2.591277 97.207 100.7095
2.610055 97.171 100.0291
2.628968 97.133 99.3668
2.648019 97.094 98.7215
2.667208 97.054 98.0923
2.686535 97.013 97.4785
2.706003 96.972 96.8793
2.725612 96.930 96.2942
2.745363 96.888 95.7228
2.765257 96.845 95.1651
2.785295 96.804 94.6208
2.805478 96.763 94.0901
2.825808 96.723 93.5734
2.846285 96.685 93.0714
2.866910 96.648 92.5851
2.887685 96.613 92.1161
2.908611 96.580 91.6665
2.929688 96.548 91.2387
2.950917 96.519 90.8354
2.972301 96.490 90.4587
2.993839 96.463 90.1097
3.015534 96.438 89.7886
3.037386 96.413 89.4941
3.059396 96.391 89.2247
3.081565 96.370 88.9778
3.103896 96.351 88.7510
3.126388 96.335 88.5411
3.149043 96.321 88.3452
3.171862 96.311 88.1602
3.194847 96.304 87.9833
3.217998 96.301 87.8121
3.241317 96.302 87.6453
3.264805 96.308 87.4825
3.288463 96.319 87.3250
3.312293 96.335 87.1753
3.336295 96.356 87.0362
3.360471 96.382 86.9095
3.384822 96.413 86.7955
3.409350 96.449 86.6926
3.434056 96.489 86.5978
3.458940 96.534 86.5073
3.484005 96.582 86.4167
3.509252 96.634 86.3210
3.534681 96.689 86.2155
3.560295 96.747 86.0956
3.586094 96.808 85.9572
3.612081 96.871 85.7973
3.638255 96.937 85.6142
3.664620 97.006 85.4078
3.691175 97.078 85.1795
3.717923 97.153 84.9313
3.744864 97.232 84.6651
3.772001 97.314 84.3820
3.799335 97.399 84.0827
3.826866 97.487 83.7671
3.854597 97.576 83.4348
3.882529 97.666 83.0851
3.910664 97.756 82.7168
3.939002 97.846 82.3287
3.967546 97.935 81.9196
3.996296 98.023 81.4879
4.025255 98.110 81.0327
4.054423 98.195 80.5534
4.083804 98.280 80.0503
4.113396 98.364 79.5244
4.143204 98.447 78.9778
4.173227 98.529 78.4129
4.203468 98.610 77.8325
4.233928 98.689 77.2394
4.264609 98.766 76.6360
4.295512 98.841 76.0241
4.326639 98.913 75.4049
4.357992 98.982 74.7784
4.389572 99.048 74.1439
4.421380 99.110 73.4997
4.453419 99.170 72.8447
4.485691 99.226 72.1789
4.518196 99.279 71.5035
4.550936 99.329 70.8214
4.583914 99.376 70.1361
4.617131 99.419 69.4515
4.650589 99.460 68.7715
4.684289 99.498 68.0992
4.718233 99.532 67.4368
4.752424 99.564 66.7850
4.786862 99.592 66.1432
4.821549 99.616 65.5103
4.856488 99.637 64.8855
4.891680 99.655 64.2691
4.927127 99.670 63.6624
4.962831 99.682 63.0680
4.998794 99.692 62.4885
5.035017 99.700 61.9271
5.071503 99.706 61.3866
5.108253 99.711 60.8691
5.145270 99.714 60.3756
5.182555 99.716 59.9064
5.220110 99.716 59.4607
5.257937 99.715 59.0378
5.296038 99.713 58.6368
5.334415 99.711 58.2572
5.373071 99.708 57.8987
5.412006 99.707 57.5613
5.451224 99.707 57.2458
5.490725 99.708 56.9528
5.530514 99.711 56.6828
5.570590 99.715 56.4358
5.610957 99.722 56.2104
5.651616 99.730 56.0041
5.692570 99.740 55.8135
5.733821 99.753 55.6349
5.775370 99.768 55.4648
5.817221 99.786 55.3006
5.859375 99.808 55.1408
5.901834 99.833 54.9846
5.944602 99.861 54.8313
5.987679 99.892 54.6794
6.031068 99.926 54.5264
6.074771 99.963 54.3689
6.118792 100.001 54.2032
6.163131 100.041 54.0261
6.207792 100.083 53.8348
6.252776 100.127 53.6280
6.298086 100.171 53.4052
6.343725 100.217 53.1667
6.389694 100.264 52.9125
6.435996 100.310 52.6427
6.482634 100.356 52.3570
6.529610 100.402 52.0550
6.576926 100.446 51.7362
6.624585 100.488 51.4004
6.672590 100.528 51.0481
6.720942 100.566 50.6806
6.769645 100.602 50.3001
6.818700 100.636 49.9093
6.868111 100.667 49.5108
6.917881 100.694 49.1065
6.968010 100.719 48.6979
7.018504 100.739 48.2859
7.069362 100.757 47.8717
7.120590 100.771 47.4572
7.172189 100.782 47.0453
7.224161 100.791 46.6388
7.276511 100.796 46.2406
7.329239 100.798 45.8528
7.382350 100.798 45.4766
7.435845 100.795 45.1128
7.489729 100.790 44.7621
7.544002 100.784 44.4251
7.598669 100.776 44.1031
7.653732 100.767 43.7969
7.709194 100.757 43.5074
7.765058 100.748 43.2345
7.821327 100.738 42.9776
7.878004 100.728 42.7352
7.935091 100.719 42.5056
7.992592 100.712 42.2868
8.050510 100.705 42.0775
8.108847 100.700 41.8762
8.167607 100.697 41.6813
8.226793 100.695 41.4906
8.286408 100.695 41.3014
8.346454 100.697 41.1107
8.406936 100.700 40.9160
8.467856 100.704 40.7153
8.529218 100.710 40.5071
8.591024 100.717 40.2903
8.653278 100.725 40.0635
8.715983 100.733 39.8253
8.779143 100.741 39.5749
8.842760 100.749 39.3116
8.906839 100.756 39.0354
8.971381 100.763 38.7471
9.036392 100.769 38.4475
9.101873 100.773 38.1378
9.167829 100.776 37.8191
9.234263 100.777 37.4924
9.301178 100.776 37.1591
9.368578 100.774 36.8209
9.436467 100.770 36.4798
9.504847 100.764 36.1378
9.573723 100.756 35.7963
9.643099 100.747 35.4565
9.712976 100.737 35.1195
9.783361 100.725 34.7863
9.854255 100.713 34.4580
9.925663 100.700 34.1352
9.997588 100.687 33.8181
10.070035 100.673 33.5065
10.143007 100.660 33.2000
10.216507 100.647 32.8979
10.290540 100.635 32.5995
10.365109 100.624 32.3040
10.440219 100.613 32.0104
10.515873 100.604 31.7174
10.592076 100.595 31.4239
10.668830 100.587 31.1287
10.746141 100.580 30.8311
10.824012 100.574 30.5302
10.902447 100.569 30.2257
10.981451 100.564 29.9170
11.061027 100.559 29.6039
11.141180 100.555 29.2866
11.221913 100.551 28.9654
11.303232 100.547 28.6408
11.385140 100.543 28.3135
11.467641 100.539 27.9839
11.550741 100.535 27.6530
11.634442 100.532 27.3214
11.718750 100.528 26.9897
11.803669 100.524 26.6588
11.889203 100.520 26.3289
11.975357 100.517 26.0004
12.062136 100.514 25.6733
12.149543 100.511 25.3479
12.237583 100.509 25.0240
12.326262 100.507 24.7015
12.415583 100.506 24.3801
12.505552 100.505 24.0597
12.596172 100.505 23.7401
12.687449 100.504 23.4214
12.779387 100.504 23.1034
12.871992 100.504 22.7865
12.965268 100.505 22.4709
13.059220 100.505 22.1573
13.153852 100.505 21.8463
13.249170 100.504 21.5386
13.345179 100.504 21.2347
13.441884 100.503 20.9357
13.539289 100.503 20.6418
13.637401 100.502 20.3539
13.736223 100.501 20.0718
13.835761 100.501 19.7959
13.936021 100.500 19.5256
14.037007 100.501 19.2607
14.138725 100.501 19.0004
14.241180 100.502 18.7435
14.344377 100.504 18.4894
14.448323 100.505 18.2368
14.553021 100.508 17.9849
14.658478 100.510 17.7329
14.764700 100.512 17.4801
14.871691 100.513 17.2264
14.979457 100.515 16.9717
15.088005 100.515 16.7165
15.197339 100.515 16.4613
15.307465 100.513 16.2069
15.418389 100.511 15.9545
15.530117 100.507 15.7047
15.642655 100.503 15.4587
15.756008 100.497 15.2170
15.870182 100.491 14.9800
15.985184 100.484 14.7477
16.101019 100.477 14.5198
16.217694 100.470 14.2955
16.335214 100.463 14.0739
16.453586 100.456 13.8536
16.572815 100.449 13.6333
16.692909 100.442 13.4116
16.813872 100.435 13.1874
16.935713 100.428 12.9595
17.058436 100.421 12.7275
17.182048 100.413 12.4910
17.306556 100.404 12.2499
17.431967 100.395 12.0049
17.558286 100.386 11.7563
17.685521 100.375 11.5050
17.813677 100.364 11.2517
17.942762 100.353 10.9969
18.072783 100.341 10.7413
18.203746 100.329 10.4849
18.335658 100.317 10.2277
18.468526 100.305 9.9695
18.602356 100.293 9.7100
18.737156 100.281 9.4485
18.872934 100.270 9.1846
19.009695 100.259 8.9180
19.147447 100.248 8.6485
19.286197 100.238 8.3760
19.425953 100.228 8.1006
19.566721 100.219 7.8228
19.708510 100.209 7.5428
19.851326 100.200 7.2612
19.995177 100.191 6.9786
20.140070 100.183 6.6952
20.286013 100.175 6.4113
20.433014 100.168 6.1273
20.581080 100.161 5.8433
20.730219 100.154 5.5597
20.880439 100.148 5.2769
21.031747 100.142 4.9950
21.184152 100.136 4.7150
21.337661 100.131 4.4371
21.492282 100.125 4.1624
21.648024 100.120 3.8910
21.804895 100.115 3.6237
21.962902 100.111 3.3604
22.122054 100.106 3.1011
22.282360 100.102 2.8456
22.443827 100.099 2.5935
22.606464 100.095 2.3442
22.770280 100.091 2.0972
22.935283 100.088 1.8524
23.101481 100.084 1.6097
23.268884 100.079 1.3693
23.437500 100.074 1.1316
23.607338 100.069 0.8970
23.778406 100.062 0.6660
23.950714 100.055 0.4387
24.124271 100.048 0.2152
24.299086 100.040 -0.0050
24.475167 100.032 -0.2228
24.652524 100.023 -0.4388
24.831166 100.015 -0.6544
25.011103 100.005 -0.8702
25.192344 99.995 -1.0869
25.374898 99.985 -1.3051
25.558775 99.974 -1.5247
25.743984 99.962 -1.7457
25.930536 99.950 -1.9681
26.118439 99.937 -2.1917
26.307704 99.924 -2.4165
26.498341 99.910 -2.6428
26.690359 99.896 -2.8708
26.883768 99.882 -3.1012
27.078579 99.868 -3.3341
27.274801 99.854 -3.5699
27.472446 99.841 -3.8087
27.671522 99.827 -4.0503
27.872042 99.813 -4.2946
28.074014 99.799 -4.5410
28.277450 99.785 -4.7894
28.482360 99.772 -5.0392
28.688755 99.759 -5.2901
28.896645 99.746 -5.5416
29.106042 99.733 -5.7932
29.316957 99.721 -6.0444
29.529400 99.709 -6.2946
29.743382 99.697 -6.5433
29.958915 99.685 -6.7903
30.176009 99.674 -7.0350
30.394677 99.663 -7.2777
30.614929 99.652 -7.5183
30.836778 99.642 -7.7570
31.060234 99.631 -7.9937
31.285309 99.621 -8.2283
31.512015 99.610 -8.4606
31.740364 99.599 -8.6904
31.970368 99.588 -8.9175
32.202039 99.576 -9.1420
32.435388 99.564 -9.3640
32.670428 99.552 -9.5842
32.907171 99.539 -9.8030
33.145630 99.526 -10.0212
33.385817 99.512 -10.2391
33.627745 99.498 -10.4572
33.871425 99.483 -10.6752
34.116871 99.468 -10.8936
34.364096 99.452 -11.1122
34.613113 99.435 -11.3312
34.863934 99.418 -11.5508
35.116572 99.400 -11.7714
35.371041 99.382 -11.9930
35.627354 99.364 -12.2156
35.885525 99.345 -12.4391
36.145566 99.326 -12.6633
36.407492 99.307 -12.8877
36.671316 99.288 -13.1121
36.937051 99.269 -13.3362
37.204712 99.249 -13.5599
37.474313 99.231 -13.7830
37.745867 99.212 -14.0054
38.019389 99.193 -14.2272
38.294893 99.175 -14.4485
38.572394 99.157 -14.6694
38.851905 99.138 -14.8898
39.133442 99.120 -15.1094
39.417019 99.102 -15.3279
39.702651 99.083 -15.5446
39.990353 99.065 -15.7592
40.280140 99.046 -15.9713
40.572026 99.026 -16.1808
40.866028 99.007 -16.3881
41.162160 98.987 -16.5934
41.460438 98.968 -16.7974
41.760877 98.947 -17.0000
42.063494 98.927 -17.2018
42.368303 98.906 -17.4027
42.675322 98.884 -17.6028
42.984565 98.863 -17.8022
43.296048 98.841 -18.0011
43.609789 98.818 -18.1992
43.925804 98.796 -18.3967
44.244108 98.773 -18.5936
44.564719 98.749 -18.7899
44.887654 98.726 -18.9855
45.212928 98.703 -19.1804
45.540560 98.679 -19.3746
45.870565 98.655 -19.5680
46.202962 98.631 -19.7605
46.537768 98.607 -19.9520
46.875000 98.583 -20.1422
47.214676 98.558 -20.3309
47.556813 98.534 -20.5178
47.901429 98.509 -20.7027
48.248542 98.483 -20.8854
48.598171 98.458 -21.0660
48.950334 98.433 -21.2451
49.305048 98.407 -21.4229
49.662333 98.381 -21.5999
50.022206 98.355 -21.7761
50.384688 98.329 -21.9515
50.749796 98.302 -22.1256
51.117550 98.276 -22.2982
51.487969 98.249 -22.4692
51.861072 98.222 -22.6388
52.236879 98.196 -22.8070
52.615409 98.169 -22.9740
52.996681 98.142 -23.1394
53.380717 98.116 -23.3026
53.767536 98.089 -23.4629
54.157158 98.062 -23.6200
54.549603 98.036 -23.7742
54.944892 98.009 -23.9265
55.343045 97.983 -24.0784
55.744084 97.958 -24.2310
56.148028 97.932 -24.3856
56.554900 97.906 -24.5427
56.964720 97.879 -24.7026
57.377510 97.852 -24.8654
57.793291 97.825 -25.0309
58.212085 97.796 -25.1985
58.633914 97.767 -25.3676
59.058799 97.737 -25.5370
59.486764 97.707 -25.7062
59.917829 97.675 -25.8744
60.352019 97.643 -26.0409
60.789354 97.611 -26.2052
61.229859 97.578 -26.3668
61.673556 97.545 -26.5252
62.120468 97.512 -26.6802
62.570618 97.479 -26.8314
63.024031 97.445 -26.9788
63.480729 97.412 -27.1224
63.940736 97.378 -27.2620
64.404077 97.343 -27.3981
64.870776 97.309 -27.5308
65.340856 97.274 -27.6606
65.814343 97.240 -27.7880
66.291261 97.204 -27.9133
66.771635 97.169 -28.0367
67.255489 97.134 -28.1586
67.742850 97.098 -28.2788
68.233743 97.062 -28.3973
68.728193 97.026 -28.5142
69.226226 96.990 -28.6290
69.727867 96.954 -28.7419
70.233144 96.917 -28.8525
70.742083 96.881 -28.9608
71.254709 96.845 -29.0660
71.771050 96.808 -29.1678
72.291132 96.771 -29.2662
72.814984 96.734 -29.3611
73.342631 96.698 -29.4532
73.874102 96.661 -29.5429
74.409424 96.624 -29.6307
74.948626 96.587 -29.7172
75.491734 96.550 -29.8024
76.038779 96.514 -29.8868
76.589787 96.477 -29.9706
77.144788 96.440 -30.0538
77.703811 96.404 -30.1368
78.266885 96.367 -30.2200
78.834039 96.331 -30.3041
79.405303 96.295 -30.3903
79.980706 96.258 -30.4798
80.560280 96.222 -30.5735
81.144053 96.184 -30.6718
81.732056 96.146 -30.7742
82.324320 96.106 -30.8795
82.920876 96.065 -30.9854
83.521755 96.022 -31.0894
84.126988 95.977 -31.1885
84.736607 95.931 -31.2798
85.350643 95.884 -31.3607
85.969129 95.835 -31.4300
86.592097 95.786 -31.4872
87.219579 95.737 -31.5330
87.851608 95.688 -31.5683
88.488217 95.639 -31.5942
89.129439 95.591 -31.6121
89.775308 95.543 -31.6234
90.425856 95.495 -31.6298
91.081119 95.448 -31.6325
91.741131 95.401 -31.6322
92.405925 95.354 -31.6293
93.075536 95.308 -31.6238
93.750000 95.262 -31.6160
94.429351 95.217 -31.6058
