* Measurement data measured by REW V5.31.3
* Source: EXCL: Microphone (USB Sound Device        ), MICROPHONE (Master Volume), R, volume: 0.390
* Format: 256k Log Swept Sine, 1 sweep at -12.0 dBFS with no timing reference
* Dated: Jun 8, 2025 12:09:23 AM
* REW Settings:
*  C-weighting compensation: Off
*  Target level: 75.0 dB
* Note: Kiwi Ears Septet L
* Measurement: L Kiwi Ears Septet
* Smoothing: 1/12 octave
* Frequency Step: 96 ppo
* Start Frequency: 0.36621094 Hz
*
* Freq(Hz) SPL(dB) Phase(degrees)
0.366211 94.543 157.2407
0.368865 94.537 157.2175
0.371538 94.529 157.1826
0.374230 94.519 157.1388
0.376942 94.507 157.0883
0.379673 94.495 157.0328
0.382424 94.482 156.9733
0.385196 94.469 156.9106
0.387987 94.456 156.8450
0.390798 94.442 156.7768
0.393630 94.428 156.7059
0.396483 94.414 156.6326
0.399356 94.400 156.5566
0.402250 94.386 156.4782
0.405165 94.372 156.3972
0.408101 94.358 156.3136
0.411058 94.343 156.2274
0.414037 94.329 156.1385
0.417037 94.314 156.0471
0.420059 94.300 155.9529
0.423103 94.285 155.8561
0.426169 94.270 155.7565
0.429257 94.255 155.6542
0.432368 94.240 155.5491
0.435501 94.224 155.4413
0.438656 94.209 155.3306
0.441835 94.194 155.2171
0.445037 94.178 155.1007
0.448262 94.162 154.9814
0.451510 94.146 154.8593
0.454782 94.130 154.7342
0.458077 94.114 154.6062
0.461397 94.098 154.4753
0.464740 94.082 154.3414
0.468108 94.066 154.2045
0.471500 94.049 154.0646
0.474917 94.032 153.9217
0.478358 94.016 153.7758
0.481825 93.999 153.6268
0.485316 93.982 153.4748
0.488833 93.965 153.3197
0.492375 93.947 153.1616
0.495943 93.930 153.0004
0.499537 93.912 152.8361
0.503157 93.895 152.6687
0.506803 93.877 152.4983
0.510475 93.859 152.3248
0.514175 93.841 152.1482
0.517900 93.823 151.9685
0.521653 93.805 151.7858
0.525434 93.786 151.5999
0.529241 93.768 151.4111
0.533076 93.749 151.2192
0.536939 93.730 151.0243
0.540830 93.711 150.8264
0.544749 93.692 150.6255
0.548696 93.673 150.4216
0.552673 93.654 150.2149
0.556677 93.634 150.0052
0.560711 93.615 149.7926
0.564774 93.595 149.5773
0.568867 93.575 149.3591
0.572989 93.555 149.1382
0.577141 93.535 148.9147
0.581324 93.514 148.6884
0.585536 93.494 148.4596
0.589779 93.473 148.2283
0.594053 93.452 147.9946
0.598358 93.431 147.7584
0.602694 93.410 147.5200
0.607061 93.389 147.2793
0.611460 93.367 147.0366
0.615891 93.346 146.7917
0.620354 93.324 146.5450
0.624849 93.302 146.2964
0.629377 93.280 146.0462
0.633938 93.258 145.7943
0.638532 93.236 145.5410
0.643159 93.213 145.2863
0.647819 93.190 145.0305
0.652514 93.168 144.7736
0.657242 93.145 144.5159
0.662005 93.121 144.2575
0.666802 93.098 143.9985
0.671634 93.074 143.7392
0.676501 93.051 143.4798
0.681403 93.027 143.2204
0.686341 93.003 142.9613
0.691314 92.978 142.7027
0.696324 92.954 142.4447
0.701370 92.929 142.1877
0.706452 92.904 141.9317
0.711571 92.878 141.6769
0.716728 92.852 141.4232
0.721921 92.825 141.1703
0.727153 92.796 140.9180
0.732422 92.765 140.6654
0.737729 92.733 140.4115
0.743075 92.698 140.1554
0.748460 92.662 139.8961
0.753883 92.625 139.6329
0.759346 92.587 139.3654
0.764849 92.548 139.0933
0.770391 92.508 138.8163
0.775974 92.468 138.5342
0.781597 92.427 138.2470
0.787261 92.386 137.9547
0.792966 92.344 137.6571
0.798712 92.301 137.3543
0.804500 92.258 137.0461
0.810329 92.214 136.7327
0.816201 92.170 136.4138
0.822116 92.125 136.0897
0.828073 92.080 135.7601
0.834074 92.033 135.4252
0.840118 91.986 135.0850
0.846206 91.938 134.7393
0.852338 91.890 134.3884
0.858514 91.841 134.0322
0.864735 91.791 133.6707
0.871001 91.740 133.3040
0.877313 91.688 132.9321
0.883670 91.635 132.5552
0.890074 91.581 132.1733
0.896524 91.527 131.7866
0.903020 91.471 131.3951
0.909564 91.414 130.9989
0.916155 91.356 130.5984
0.922794 91.298 130.1935
0.929481 91.238 129.7846
0.936216 91.176 129.3717
0.943000 91.114 128.9553
0.949834 91.050 128.5354
0.956717 90.985 128.1125
0.963649 90.919 127.6868
0.970632 90.851 127.2588
0.977666 90.782 126.8287
0.984750 90.711 126.3970
0.991886 90.639 125.9641
0.999074 90.565 125.5306
1.006314 90.490 125.0969
1.013606 90.412 124.6637
1.020951 90.334 124.2316
1.028349 90.253 123.8013
1.035801 90.170 123.3733
1.043307 90.086 122.9486
1.050867 90.000 122.5279
1.058482 89.911 122.1120
1.066152 89.821 121.7018
1.073878 89.728 121.2980
1.081660 89.633 120.9013
1.089498 89.537 120.5121
1.097393 89.438 120.1307
1.105345 89.337 119.7571
1.113355 89.234 119.3909
1.121423 89.130 119.0317
1.129549 89.024 118.6793
1.137734 88.916 118.3333
1.145979 88.806 117.9936
1.154283 88.694 117.6599
1.162647 88.581 117.3322
1.171072 88.466 117.0103
1.179558 88.348 116.6941
1.188106 88.229 116.3836
1.196715 88.107 116.0788
1.205387 87.983 115.7795
1.214122 87.857 115.4857
1.222920 87.729 115.1975
1.231782 87.598 114.9147
1.240708 87.464 114.6373
1.249699 87.328 114.3654
1.258754 87.189 114.0988
1.267876 87.048 113.8377
1.277063 86.903 113.5820
1.286318 86.755 113.3317
1.295639 86.604 113.0868
1.305027 86.450 112.8475
1.314484 86.293 112.6136
1.324009 86.132 112.3854
1.333604 85.968 112.1628
1.343268 85.799 111.9460
1.353002 85.627 111.7351
1.362806 85.451 111.5301
1.372681 85.271 111.3312
1.382628 85.087 111.1386
1.392647 84.898 110.9526
1.402739 84.704 110.7734
1.412904 84.506 110.6017
1.423142 84.302 110.4380
1.433455 84.092 110.2837
1.443843 83.876 110.1406
1.454305 83.652 110.0115
1.464844 83.419 109.9002
1.475459 83.175 109.8114
1.486150 82.918 109.7505
1.496920 82.647 109.7225
1.507767 82.362 109.7321
1.518693 82.061 109.7837
1.529698 81.746 109.8814
1.540783 81.418 110.0294
1.551948 81.076 110.2320
1.563194 80.723 110.4936
1.574521 80.360 110.8192
1.585931 79.987 111.2143
1.597423 79.607 111.6847
1.608999 79.222 112.2369
1.620658 78.832 112.8781
1.632402 78.440 113.6161
1.644232 78.047 114.4594
1.656146 77.657 115.4171
1.668147 77.269 116.4991
1.680235 76.889 117.7157
1.692411 76.516 119.0774
1.704675 76.155 120.5951
1.717028 75.807 122.2791
1.729470 75.475 124.1390
1.742003 75.164 126.1827
1.754626 74.875 128.4162
1.767341 74.612 130.8423
1.780147 74.378 133.4602
1.793047 74.177 136.2654
1.806040 74.012 139.2497
1.819128 73.886 142.4012
1.832310 73.801 145.7041
1.845587 73.758 149.1367
1.858961 73.758 152.6679
1.872432 73.799 156.2549
1.886001 73.882 159.8453
1.899667 74.002 163.3822
1.913433 74.159 166.8100
1.927299 74.349 170.0802
1.941265 74.570 173.1543
1.955332 74.818 176.0061
1.969501 75.090 178.6207
1.983773 75.383 -179.0064
1.998148 75.693 -176.8721
2.012627 76.017 -174.9673
2.027212 76.351 -173.2794
2.041902 76.692 -171.7935
2.056698 77.036 -170.4938
2.071602 77.379 -169.3649
2.086614 77.718 -168.3917
2.101734 78.048 -167.5605
2.116964 78.367 -166.8588
2.132304 78.671 -166.2759
2.147756 78.958 -165.8031
2.163320 79.227 -165.4337
2.178996 79.477 -165.1632
2.194786 79.708 -164.9894
2.210690 79.924 -164.9113
2.226710 80.127 -164.9278
2.242845 80.320 -165.0363
2.259098 80.505 -165.2321
2.275468 80.683 -165.5093
2.291957 80.854 -165.8607
2.308566 81.020 -166.2786
2.325295 81.180 -166.7554
2.342145 81.335 -167.2836
2.359117 81.484 -167.8560
2.376212 81.628 -168.4661
2.393431 81.766 -169.1074
2.410775 81.898 -169.7742
2.428244 82.025 -170.4613
2.445840 82.145 -171.1640
2.463564 82.260 -171.8784
2.481416 82.369 -172.6018
2.499397 82.472 -173.3326
2.517509 82.568 -174.0713
2.535752 82.657 -174.8209
2.554127 82.740 -175.5875
2.572635 82.815 -176.3792
2.591277 82.882 -177.2057
2.610055 82.941 -178.0745
2.628968 82.992 -178.9904
2.648019 83.034 -179.9548
2.667208 83.068 179.0332
2.686535 83.095 177.9769
2.706003 83.113 176.8806
2.725612 83.124 175.7498
2.745363 83.128 174.5904
2.765257 83.125 173.4089
2.785295 83.116 172.2120
2.805478 83.101 171.0065
2.825808 83.081 169.7987
2.846285 83.055 168.5946
2.866910 83.023 167.3982
2.887685 82.988 166.2117
2.908611 82.947 165.0334
2.929688 82.901 163.8580
2.950917 82.849 162.6766
2.972301 82.791 161.4791
2.993839 82.727 160.2568
3.015534 82.657 159.0035
3.037386 82.579 157.7157
3.059396 82.495 156.3926
3.081565 82.404 155.0353
3.103896 82.307 153.6466
3.126388 82.203 152.2308
3.149043 82.092 150.7933
3.171862 81.976 149.3404
3.194847 81.854 147.8789
3.217998 81.726 146.4156
3.241317 81.592 144.9562
3.264805 81.452 143.5041
3.288463 81.307 142.0591
3.312293 81.155 140.6171
3.336295 80.996 139.1704
3.360471 80.830 137.7107
3.384822 80.657 136.2308
3.409350 80.477 134.7255
3.434056 80.290 133.1922
3.458940 80.096 131.6307
3.484005 79.897 130.0437
3.509252 79.692 128.4361
3.534681 79.481 126.8157
3.560295 79.266 125.1928
3.586094 79.045 123.5794
3.612081 78.821 121.9890
3.638255 78.591 120.4342
3.664620 78.355 118.9256
3.691175 78.113 117.4697
3.717923 77.864 116.0685
3.744864 77.607 114.7210
3.772001 77.344 113.4240
3.799335 77.075 112.1741
3.826866 76.804 110.9682
3.854597 76.532 109.8047
3.882529 76.262 108.6842
3.910664 75.997 107.6101
3.939002 75.740 106.5893
3.967546 75.492 105.6336
3.996296 75.257 104.7597
4.025255 75.034 103.9885
4.054423 74.823 103.3428
4.083804 74.623 102.8423
4.113396 74.435 102.4985
4.143204 74.260 102.3130
4.173227 74.099 102.2775
4.203468 73.956 102.3754
4.233928 73.833 102.5835
4.264609 73.736 102.8743
4.295512 73.668 103.2195
4.326639 73.634 103.5933
4.357992 73.638 103.9768
4.389572 73.684 104.3607
4.421380 73.773 104.7441
4.453419 73.905 105.1276
4.485691 74.077 105.5060
4.518196 74.286 105.8647
4.550936 74.526 106.1818
4.583914 74.791 106.4319
4.617131 75.074 106.5893
4.650589 75.370 106.6319
4.684289 75.674 106.5436
4.718233 75.984 106.3161
4.752424 76.298 105.9501
4.786862 76.616 105.4553
4.821549 76.939 104.8474
4.856488 77.267 104.1440
4.891680 77.598 103.3613
4.927127 77.931 102.5125
4.962831 78.263 101.6072
4.998794 78.591 100.6512
5.035017 78.912 99.6471
5.071503 79.224 98.5952
5.108253 79.525 97.4945
5.145270 79.815 96.3444
5.182555 80.093 95.1476
5.220110 80.361 93.9106
5.257937 80.618 92.6441
5.296038 80.865 91.3609
5.334415 81.102 90.0734
5.373071 81.329 88.7919
5.412006 81.544 87.5233
5.451224 81.749 86.2699
5.490725 81.942 85.0301
5.530514 82.124 83.8001
5.570590 82.294 82.5771
5.610957 82.452 81.3625
5.651616 82.600 80.1624
5.692570 82.736 78.9860
5.733821 82.863 77.8436
5.775370 82.979 76.7445
5.817221 83.086 75.6950
5.859375 83.183 74.6975
5.901834 83.271 73.7507
5.944602 83.349 72.8523
5.987679 83.418 72.0019
6.031068 83.479 71.2017
6.074771 83.533 70.4568
6.118792 83.580 69.7739
6.163131 83.623 69.1598
6.207792 83.662 68.6198
6.252776 83.697 68.1569
6.298086 83.729 67.7708
6.343725 83.758 67.4593
6.389694 83.786 67.2191
6.435996 83.813 67.0463
6.482634 83.843 66.9380
6.529610 83.876 66.8915
6.576926 83.913 66.9052
6.624585 83.956 66.9774
6.672590 84.005 67.1048
6.720942 84.060 67.2807
6.769645 84.122 67.4953
6.818700 84.190 67.7366
6.868111 84.265 67.9924
6.917881 84.348 68.2522
6.968010 84.438 68.5082
7.018504 84.536 68.7551
7.069362 84.641 68.9878
7.120590 84.752 69.2004
7.172189 84.868 69.3856
7.224161 84.986 69.5359
7.276511 85.107 69.6448
7.329239 85.228 69.7080
7.382350 85.349 69.7242
7.435845 85.469 69.6942
7.489729 85.588 69.6203
7.544002 85.703 69.5051
7.598669 85.815 69.3513
7.653732 85.921 69.1609
7.709194 86.021 68.9360
7.765058 86.115 68.6792
7.821327 86.201 68.3946
7.878004 86.281 68.0880
7.935091 86.353 67.7662
7.992592 86.418 67.4353
8.050510 86.474 67.1007
8.108847 86.523 66.7661
8.167607 86.565 66.4346
8.226793 86.599 66.1100
8.286408 86.626 65.7969
8.346454 86.647 65.5001
8.406936 86.663 65.2239
8.467856 86.675 64.9710
8.529218 86.682 64.7427
8.591024 86.688 64.5390
8.653278 86.691 64.3595
8.715983 86.693 64.2038
8.779143 86.695 64.0709
8.842760 86.697 63.9596
8.906839 86.700 63.8674
8.971381 86.703 63.7903
9.036392 86.708 63.7231
9.101873 86.715 63.6604
9.167829 86.725 63.5976
9.234263 86.737 63.5303
9.301178 86.752 63.4543
9.368578 86.769 63.3651
9.436467 86.788 63.2578
9.504847 86.808 63.1281
9.573723 86.829 62.9730
9.643099 86.851 62.7905
9.712976 86.873 62.5797
9.783361 86.895 62.3401
9.854255 86.916 62.0717
9.925663 86.935 61.7748
9.997588 86.952 61.4504
10.070035 86.967 61.1006
10.143007 86.980 60.7281
10.216507 86.990 60.3358
10.290540 86.998 59.9263
10.365109 87.003 59.5019
10.440219 87.006 59.0650
10.515873 87.007 58.6181
10.592076 87.007 58.1637
10.668830 87.006 57.7036
10.746141 87.004 57.2389
10.824012 87.002 56.7703
10.902447 87.000 56.2978
10.981451 86.999 55.8216
11.061027 86.999 55.3413
11.141180 87.001 54.8563
11.221913 87.004 54.3654
11.303232 87.009 53.8673
11.385140 87.017 53.3611
11.467641 87.027 52.8460
11.550741 87.038 52.3213
11.634442 87.052 51.7867
11.718750 87.067 51.2424
11.803669 87.085 50.6886
11.889203 87.104 50.1264
11.975357 87.124 49.5573
12.062136 87.145 48.9831
12.149543 87.168 48.4056
12.237583 87.192 47.8269
12.326262 87.217 47.2491
12.415583 87.244 46.6746
12.505552 87.272 46.1052
12.596172 87.301 45.5424
12.687449 87.333 44.9876
12.779387 87.366 44.4414
12.871992 87.402 43.9045
12.965268 87.440 43.3768
13.059220 87.480 42.8581
13.153852 87.522 42.3476
13.249170 87.566 41.8447
13.345179 87.612 41.3487
13.441884 87.660 40.8592
13.539289 87.709 40.3757
13.637401 87.759 39.8983
13.736223 87.809 39.4273
13.835761 87.859 38.9638
13.936021 87.908 38.5090
14.037007 87.957 38.0645
14.138725 88.004 37.6320
14.241180 88.051 37.2137
14.344377 88.096 36.8115
14.448323 88.139 36.4269
14.553021 88.182 36.0612
14.658478 88.223 35.7153
14.764700 88.263 35.3893
14.871691 88.303 35.0825
14.979457 88.342 34.7939
15.088005 88.381 34.5216
15.197339 88.420 34.2634
15.307465 88.458 34.0167
15.418389 88.496 33.7788
15.530117 88.534 33.5469
15.642655 88.570 33.3189
15.756008 88.605 33.0928
15.870182 88.639 32.8670
15.985184 88.670 32.6408
16.101019 88.699 32.4138
16.217694 88.726 32.1862
16.335214 88.750 31.9584
16.453586 88.771 31.7310
16.572815 88.789 31.5044
16.692909 88.805 31.2791
16.813872 88.818 31.0548
16.935713 88.829 30.8310
17.058436 88.838 30.6068
17.182048 88.845 30.3806
17.306556 88.851 30.1506
17.431967 88.855 29.9149
17.558286 88.859 29.6714
17.685521 88.861 29.4183
17.813677 88.861 29.1540
17.942762 88.861 28.8776
18.072783 88.858 28.5885
18.203746 88.855 28.2865
18.335658 88.850 27.9721
18.468526 88.844 27.6457
18.602356 88.837 27.3080
18.737156 88.829 26.9597
18.872934 88.820 26.6013
19.009695 88.812 26.2330
19.147447 88.803 25.8548
19.286197 88.795 25.4666
19.425953 88.788 25.0681
19.566721 88.782 24.6593
19.708510 88.777 24.2402
19.851326 88.773 23.8115
19.995177 88.770 23.3740
20.140070 88.768 22.9291
20.286013 88.768 22.4786
20.433014 88.769 22.0244
20.581080 88.771 21.5686
20.730219 88.774 21.1129
20.880439 88.780 20.6590
21.031747 88.787 20.2079
21.184152 88.797 19.7603
21.337661 88.808 19.3168
21.492282 88.822 18.8776
21.648024 88.837 18.4431
21.804895 88.853 18.0138
21.962902 88.871 17.5906
22.122054 88.889 17.1748
22.282360 88.908 16.7680
22.443827 88.927 16.3719
22.606464 88.945 15.9882
22.770280 88.964 15.6183
22.935283 88.982 15.2630
23.101481 89.000 14.9225
23.268884 89.017 14.5963
23.437500 89.035 14.2834
23.607338 89.051 13.9823
23.778406 89.067 13.6914
23.950714 89.081 13.4094
24.124271 89.094 13.1350
24.299086 89.105 12.8674
24.475167 89.114 12.6059
24.652524 89.122 12.3503
24.831166 89.127 12.0999
25.011103 89.130 11.8540
25.192344 89.131 11.6113
25.374898 89.130 11.3704
25.558775 89.127 11.1293
25.743984 89.123 10.8859
25.930536 89.117 10.6381
26.118439 89.110 10.3841
26.307704 89.102 10.1224
26.498341 89.092 9.8520
26.690359 89.081 9.5721
26.883768 89.068 9.2824
27.078579 89.055 8.9825
27.274801 89.041 8.6723
27.472446 89.027 8.3518
27.671522 89.012 8.0211
27.872042 88.998 7.6806
28.074014 88.984 7.3310
28.277450 88.970 6.9734
28.482360 88.956 6.6090
28.688755 88.944 6.2394
28.896645 88.932 5.8659
29.106042 88.922 5.4896
29.316957 88.913 5.1115
29.529400 88.906 4.7323
29.743382 88.900 4.3530
29.958915 88.896 3.9745
30.176009 88.892 3.5983
30.394677 88.890 3.2260
30.614929 88.888 2.8596
30.836778 88.886 2.5007
31.060234 88.885 2.1508
31.285309 88.884 1.8108
31.512015 88.884 1.4810
31.740364 88.883 1.1612
31.970368 88.882 0.8508
32.202039 88.881 0.5492
32.435388 88.879 0.2560
32.670428 88.875 -0.0294
32.907171 88.871 -0.3074
33.145630 88.865 -0.5788
33.385817 88.859 -0.8447
33.627745 88.851 -1.1068
33.871425 88.841 -1.3671
34.116871 88.831 -1.6277
34.364096 88.819 -1.8905
34.613113 88.806 -2.1571
34.863934 88.792 -2.4285
35.116572 88.776 -2.7053
35.371041 88.759 -2.9878
35.627354 88.741 -3.2760
35.885525 88.722 -3.5702
36.145566 88.703 -3.8702
36.407492 88.683 -4.1758
36.671316 88.662 -4.4866
36.937051 88.642 -4.8018
37.204712 88.621 -5.1201
37.474313 88.601 -5.4402
37.745867 88.581 -5.7606
38.019389 88.561 -6.0804
38.294893 88.542 -6.3991
38.572394 88.524 -6.7168
38.851905 88.506 -7.0338
39.133442 88.489 -7.3502
39.417019 88.471 -7.6654
39.702651 88.453 -7.9774
39.990353 88.435 -8.2837
40.280140 88.415 -8.5811
40.572026 88.395 -8.8672
40.866028 88.374 -9.1414
41.162160 88.354 -9.4054
41.460438 88.335 -9.6626
41.760877 88.316 -9.9177
42.063494 88.297 -10.1745
42.368303 88.278 -10.4350
42.675322 88.257 -10.6991
42.984565 88.236 -10.9652
43.296048 88.214 -11.2310
43.609789 88.190 -11.4951
43.925804 88.166 -11.7574
44.244108 88.142 -12.0187
44.564719 88.118 -12.2800
44.887654 88.093 -12.5412
45.212928 88.068 -12.8009
45.540560 88.043 -13.0570
45.870565 88.018 -13.3072
46.202962 87.993 -13.5513
46.537768 87.969 -13.7905
46.875000 87.946 -14.0285
47.214676 87.924 -14.2693
47.556813 87.902 -14.5163
47.901429 87.879 -14.7707
48.248542 87.856 -15.0311
48.598171 87.830 -15.2942
48.950334 87.803 -15.5559
49.305048 87.773 -15.8131
49.662333 87.743 -16.0644
50.022206 87.711 -16.3103
50.384688 87.679 -16.5519
50.749796 87.647 -16.7905
51.117550 87.614 -17.0259
51.487969 87.581 -17.2572
51.861072 87.548 -17.4831
52.236879 87.515 -17.7030
52.615409 87.484 -17.9179
52.996681 87.454 -18.1298
53.380717 87.425 -18.3418
53.767536 87.397 -18.5558
54.157158 87.369 -18.7726
54.549603 87.341 -18.9906
54.944892 87.313 -19.2068
55.343045 87.283 -19.4180
55.744084 87.253 -19.6218
56.148028 87.223 -19.8177
56.554900 87.192 -20.0073
56.964720 87.161 -20.1938
57.377510 87.131 -20.3815
57.793291 87.101 -20.5746
58.212085 87.070 -20.7766
58.633914 87.039 -20.9892
59.058799 87.006 -21.2120
59.486764 86.972 -21.4425
59.917829 86.936 -21.6772
60.352019 86.898 -21.9121
60.789354 86.860 -22.1435
61.229859 86.821 -22.3689
61.673556 86.782 -22.5862
62.120468 86.743 -22.7946
62.570618 86.705 -22.9944
63.024031 86.667 -23.1867
63.480729 86.630 -23.3735
63.940736 86.594 -23.5564
64.404077 86.557 -23.7359
64.870776 86.519 -23.9117
65.340856 86.481 -24.0832
65.814343 86.442 -24.2503
66.291261 86.403 -24.4140
66.771635 86.362 -24.5761
67.255489 86.322 -24.7383
67.742850 86.281 -24.9022
68.233743 86.239 -25.0682
68.728193 86.198 -25.2363
69.226226 86.156 -25.4063
69.727867 86.114 -25.5778
70.233144 86.071 -25.7495
70.742083 86.029 -25.9185
71.254709 85.986 -26.0812
71.771050 85.943 -26.2358
72.291132 85.901 -26.3831
72.814984 85.860 -26.5244
73.342631 85.818 -26.6587
73.874102 85.776 -26.7827
74.409424 85.734 -26.8943
74.948626 85.694 -26.9960
75.491734 85.655 -27.0943
76.038779 85.617 -27.1962
76.589787 85.579 -27.3057
77.144788 85.540 -27.4232
77.703811 85.501 -27.5463
78.266885 85.460 -27.6696
78.834039 85.418 -27.7882
79.405303 85.376 -27.9010
79.980706 85.334 -28.0120
80.560280 85.294 -28.1276
81.144053 85.254 -28.2522
81.732056 85.214 -28.3869
82.324320 85.173 -28.5300
82.920876 85.131 -28.6783
83.521755 85.087 -28.8270
84.126988 85.041 -28.9708
84.736607 84.993 -29.1048
85.350643 84.943 -29.2259
85.969129 84.892 -29.3326
86.592097 84.839 -29.4253
87.219579 84.786 -29.5054
87.851608 84.733 -29.5757
88.488217 84.679 -29.6398
89.129439 84.625 -29.7012
89.775308 84.572 -29.7618
90.425856 84.518 -29.8214
91.081119 84.465 -29.8789
91.741131 84.412 -29.9330
92.405925 84.361 -29.9826
93.075536 84.311 -30.0268
93.750000 84.262 -30.0647
94.429351 84.214 -30.0961
95.113625 84.166 -30.1212
95.802858 84.118 -30.1402
96.497085 84.069 -30.1533
97.196342 84.019 -30.1607
97.900667 83.968 -30.1628
98.610096 83.917 -30.1600
99.324665 83.865 -30.1519
100.044413 83.814 -30.1380
