* Measurement data measured by REW V5.31
* Source: EXCL: Microphone (USB Sound Device        ), MICROPHONE (Master Volume), L, volume: 0.390
* Format: 256k Log Swept Sine, 1 sweep at -10.0 dBFS with no timing reference
* Dated: Sep 26, 2024 12:04:01 AM
* REW Settings:
*  C-weighting compensation: Off
*  Target level: 75.0 dB
* Note: Kiwi Ears KE4 L
* Measurement: L Kiwi Ears KE4
* Smoothing: 1/12 octave
* Frequency Step: 96 ppo
* Start Frequency: 0.36621094 Hz
*
* Freq(Hz)	SPL(dB)	Phase(degrees)
0.366211	83.985	-108.8789
0.368865	84.002	-108.9641
0.371538	84.027	-109.0910
0.374230	84.059	-109.2491
0.376942	84.094	-109.4293
0.379673	84.131	-109.6252
0.382424	84.170	-109.8322
0.385196	84.211	-110.0477
0.387987	84.252	-110.2701
0.390798	84.293	-110.4984
0.393630	84.335	-110.7323
0.396483	84.377	-110.9713
0.399356	84.419	-111.2154
0.402250	84.462	-111.4644
0.405165	84.505	-111.7182
0.408101	84.549	-111.9767
0.411058	84.592	-112.2399
0.414037	84.636	-112.5078
0.417037	84.681	-112.7802
0.420059	84.725	-113.0570
0.423103	84.770	-113.3383
0.426169	84.816	-113.6238
0.429257	84.861	-113.9137
0.432368	84.907	-114.2076
0.435501	84.954	-114.5057
0.438656	85.000	-114.8077
0.441835	85.047	-115.1137
0.445037	85.095	-115.4234
0.448262	85.142	-115.7369
0.451510	85.190	-116.0540
0.454782	85.239	-116.3745
0.458077	85.288	-116.6986
0.461397	85.337	-117.0259
0.464740	85.386	-117.3564
0.468108	85.436	-117.6901
0.471500	85.486	-118.0267
0.474917	85.537	-118.3663
0.478358	85.587	-118.7087
0.481825	85.639	-119.0538
0.485316	85.690	-119.4014
0.488833	85.742	-119.7516
0.492375	85.795	-120.1041
0.495943	85.847	-120.4589
0.499537	85.901	-120.8160
0.503157	85.954	-121.1751
0.506803	86.008	-121.5361
0.510475	86.062	-121.8991
0.514175	86.117	-122.2639
0.517900	86.172	-122.6304
0.521653	86.228	-122.9985
0.525434	86.284	-123.3681
0.529241	86.340	-123.7392
0.533076	86.397	-124.1117
0.536939	86.454	-124.4854
0.540830	86.511	-124.8604
0.544749	86.569	-125.2365
0.548696	86.628	-125.6137
0.552673	86.686	-125.9919
0.556677	86.746	-126.3711
0.560711	86.805	-126.7512
0.564774	86.865	-127.1321
0.568867	86.926	-127.5139
0.572989	86.987	-127.8964
0.577141	87.048	-128.2797
0.581324	87.110	-128.6637
0.585536	87.173	-129.0484
0.589779	87.235	-129.4338
0.594053	87.298	-129.8199
0.598358	87.362	-130.2065
0.602694	87.426	-130.5939
0.607061	87.491	-130.9819
0.611460	87.556	-131.3706
0.615891	87.621	-131.7600
0.620354	87.688	-132.1501
0.624849	87.754	-132.5410
0.629377	87.821	-132.9326
0.633938	87.888	-133.3251
0.638532	87.956	-133.7185
0.643159	88.025	-134.1128
0.647819	88.094	-134.5081
0.652514	88.163	-134.9046
0.657242	88.233	-135.3022
0.662005	88.304	-135.7011
0.666802	88.375	-136.1013
0.671634	88.446	-136.5031
0.676501	88.518	-136.9065
0.681403	88.590	-137.3116
0.686341	88.663	-137.7186
0.691314	88.737	-138.1276
0.696324	88.811	-138.5388
0.701370	88.885	-138.9525
0.706452	88.959	-139.3688
0.711571	89.034	-139.7880
0.716728	89.108	-140.2105
0.721921	89.180	-140.6366
0.727153	89.252	-141.0668
0.732422	89.320	-141.5017
0.737729	89.387	-141.9420
0.743075	89.450	-142.3879
0.748460	89.512	-142.8400
0.753883	89.572	-143.2983
0.759346	89.630	-143.7629
0.764849	89.688	-144.2336
0.770391	89.746	-144.7103
0.775974	89.803	-145.1928
0.781597	89.859	-145.6809
0.787261	89.915	-146.1742
0.792966	89.971	-146.6727
0.798712	90.026	-147.1759
0.804500	90.081	-147.6836
0.810329	90.135	-148.1957
0.816201	90.189	-148.7118
0.822116	90.243	-149.2317
0.828073	90.296	-149.7552
0.834074	90.349	-150.2820
0.840118	90.401	-150.8118
0.846206	90.454	-151.3445
0.852338	90.505	-151.8798
0.858514	90.557	-152.4175
0.864735	90.608	-152.9574
0.871001	90.659	-153.4992
0.877313	90.709	-154.0428
0.883670	90.759	-154.5879
0.890074	90.809	-155.1344
0.896524	90.858	-155.6822
0.903020	90.908	-156.2310
0.909564	90.957	-156.7807
0.916155	91.005	-157.3311
0.922794	91.053	-157.8821
0.929481	91.101	-158.4336
0.936216	91.149	-158.9855
0.943000	91.197	-159.5377
0.949834	91.244	-160.0900
0.956717	91.291	-160.6424
0.963649	91.338	-161.1949
0.970632	91.385	-161.7474
0.977666	91.432	-162.2999
0.984750	91.478	-162.8522
0.991886	91.525	-163.4046
0.999074	91.571	-163.9568
1.006314	91.617	-164.5090
1.013606	91.664	-165.0613
1.020951	91.710	-165.6136
1.028349	91.756	-166.1660
1.035801	91.802	-166.7187
1.043307	91.849	-167.2719
1.050867	91.895	-167.8256
1.058482	91.941	-168.3802
1.066152	91.988	-168.9360
1.073878	92.035	-169.4937
1.081660	92.082	-170.0541
1.089498	92.128	-170.6182
1.097393	92.175	-171.1875
1.105345	92.222	-171.7637
1.113355	92.269	-172.3483
1.121423	92.315	-172.9427
1.129549	92.361	-173.5477
1.137734	92.407	-174.1637
1.145979	92.452	-174.7910
1.154283	92.497	-175.4294
1.162647	92.541	-176.0788
1.171072	92.585	-176.7388
1.179558	92.628	-177.4091
1.188106	92.671	-178.0892
1.196715	92.713	-178.7788
1.205387	92.756	-179.4774
1.214122	92.797	179.8156
1.222920	92.838	179.1007
1.231782	92.879	178.3784
1.240708	92.919	177.6492
1.249699	92.959	176.9138
1.258754	92.998	176.1727
1.267876	93.037	175.4266
1.277063	93.076	174.6761
1.286318	93.114	173.9220
1.295639	93.152	173.1649
1.305027	93.189	172.4055
1.314484	93.226	171.6445
1.324009	93.262	170.8826
1.333604	93.298	170.1207
1.343268	93.334	169.3594
1.353002	93.370	168.5995
1.362806	93.405	167.8419
1.372681	93.440	167.0873
1.382628	93.474	166.3364
1.392647	93.508	165.5900
1.402739	93.542	164.8487
1.412904	93.575	164.1131
1.423142	93.609	163.3835
1.433455	93.642	162.6600
1.443843	93.674	161.9421
1.454305	93.707	161.2286
1.464844	93.739	160.5179
1.475459	93.770	159.8076
1.486150	93.801	159.0952
1.496920	93.832	158.3788
1.507767	93.861	157.6570
1.518693	93.891	156.9290
1.529698	93.919	156.1944
1.540783	93.947	155.4531
1.551948	93.974	154.7053
1.563194	94.001	153.9511
1.574521	94.027	153.1911
1.585931	94.052	152.4255
1.597423	94.076	151.6550
1.608999	94.100	150.8798
1.620658	94.123	150.1007
1.632402	94.146	149.3181
1.644232	94.168	148.5327
1.656146	94.189	147.7450
1.668147	94.209	146.9557
1.680235	94.229	146.1656
1.692411	94.248	145.3752
1.704675	94.267	144.5854
1.717028	94.284	143.7969
1.729470	94.302	143.0103
1.742003	94.318	142.2265
1.754626	94.334	141.4462
1.767341	94.349	140.6698
1.780147	94.364	139.8978
1.793047	94.378	139.1302
1.806040	94.391	138.3666
1.819128	94.404	137.6060
1.832310	94.415	136.8463
1.845587	94.426	136.0854
1.858961	94.436	135.3209
1.872432	94.445	134.5507
1.886001	94.453	133.7737
1.899667	94.460	132.9891
1.913433	94.466	132.1969
1.927299	94.471	131.3971
1.941265	94.475	130.5902
1.955332	94.478	129.7769
1.969501	94.480	128.9580
1.983773	94.481	128.1345
1.998148	94.481	127.3072
2.012627	94.480	126.4775
2.027212	94.478	125.6467
2.041902	94.476	124.8160
2.056698	94.472	123.9871
2.071602	94.467	123.1614
2.086614	94.462	122.3408
2.101734	94.456	121.5268
2.116964	94.449	120.7212
2.132304	94.441	119.9257
2.147756	94.433	119.1416
2.163320	94.423	118.3697
2.178996	94.413	117.6103
2.194786	94.402	116.8626
2.210690	94.389	116.1252
2.226710	94.375	115.3960
2.242845	94.360	114.6730
2.259098	94.344	113.9547
2.275468	94.326	113.2402
2.291957	94.307	112.5288
2.308566	94.286	111.8204
2.325295	94.265	111.1152
2.342145	94.242	110.4137
2.359117	94.218	109.7162
2.376212	94.194	109.0237
2.393431	94.168	108.3371
2.410775	94.143	107.6575
2.428244	94.116	106.9862
2.445840	94.090	106.3247
2.463564	94.063	105.6745
2.481416	94.036	105.0374
2.499397	94.010	104.4152
2.517509	93.983	103.8097
2.535752	93.957	103.2227
2.554127	93.930	102.6557
2.572635	93.903	102.1097
2.591277	93.876	101.5852
2.610055	93.848	101.0821
2.628968	93.819	100.6001
2.648019	93.790	100.1385
2.667208	93.760	99.6964
2.686535	93.730	99.2728
2.706003	93.699	98.8669
2.725612	93.669	98.4777
2.745363	93.640	98.1042
2.765257	93.611	97.7457
2.785295	93.584	97.4011
2.805478	93.558	97.0698
2.825808	93.534	96.7512
2.846285	93.513	96.4451
2.866910	93.494	96.1514
2.887685	93.479	95.8710
2.908611	93.466	95.6053
2.929688	93.456	95.3567
2.950917	93.450	95.1278
2.972301	93.446	94.9208
2.993839	93.445	94.7371
3.015534	93.447	94.5766
3.037386	93.452	94.4380
3.059396	93.459	94.3190
3.081565	93.470	94.2168
3.103896	93.483	94.1281
3.126388	93.499	94.0492
3.149043	93.519	93.9764
3.171862	93.542	93.9058
3.194847	93.568	93.8339
3.217998	93.599	93.7578
3.241317	93.633	93.6751
3.264805	93.672	93.5851
3.288463	93.715	93.4883
3.312293	93.763	93.3865
3.336295	93.816	93.2823
3.360471	93.874	93.1774
3.384822	93.937	93.0721
3.409350	94.004	92.9656
3.434056	94.076	92.8557
3.458940	94.152	92.7397
3.484005	94.230	92.6143
3.509252	94.312	92.4760
3.534681	94.396	92.3211
3.560295	94.481	92.1463
3.586094	94.568	91.9486
3.612081	94.656	91.7257
3.638255	94.745	91.4760
3.664620	94.835	91.1995
3.691175	94.926	90.8969
3.717923	95.020	90.5699
3.744864	95.114	90.2203
3.772001	95.211	89.8500
3.799335	95.308	89.4604
3.826866	95.407	89.0527
3.854597	95.506	88.6278
3.882529	95.605	88.1865
3.910664	95.703	87.7288
3.939002	95.800	87.2547
3.967546	95.895	86.7638
3.996296	95.988	86.2550
4.025255	96.079	85.7273
4.054423	96.167	85.1796
4.083804	96.254	84.6115
4.113396	96.339	84.0237
4.143204	96.422	83.4180
4.173227	96.503	82.7970
4.203468	96.582	82.1638
4.233928	96.658	81.5217
4.264609	96.732	80.8736
4.295512	96.804	80.2221
4.326639	96.872	79.5688
4.357992	96.937	78.9144
4.389572	96.999	78.2580
4.421380	97.057	77.5981
4.453419	97.112	76.9334
4.485691	97.164	76.2633
4.518196	97.212	75.5889
4.550936	97.257	74.9126
4.583914	97.298	74.2376
4.617131	97.337	73.5678
4.650589	97.373	72.9071
4.684289	97.406	72.2587
4.718233	97.436	71.6249
4.752424	97.463	71.0070
4.786862	97.487	70.4044
4.821549	97.508	69.8164
4.856488	97.526	69.2420
4.891680	97.541	68.6813
4.927127	97.553	68.1352
4.962831	97.564	67.6054
4.998794	97.573	67.0942
5.035017	97.580	66.6043
5.071503	97.587	66.1381
5.108253	97.593	65.6975
5.145270	97.598	65.2838
5.182555	97.603	64.8973
5.220110	97.607	64.5375
5.257937	97.610	64.2031
5.296038	97.614	63.8928
5.334415	97.618	63.6050
5.373071	97.623	63.3387
5.412006	97.631	63.0928
5.451224	97.640	62.8672
5.490725	97.652	62.6620
5.530514	97.666	62.4776
5.570590	97.684	62.3137
5.610957	97.704	62.1686
5.651616	97.726	62.0394
5.692570	97.752	61.9222
5.733821	97.781	61.8127
5.775370	97.813	61.7067
5.817221	97.848	61.6011
5.859375	97.887	61.4938
5.901834	97.930	61.3840
5.944602	97.976	61.2709
5.987679	98.026	61.1531
6.031068	98.078	61.0285
6.074771	98.133	60.8939
6.118792	98.190	60.7461
6.163131	98.249	60.5820
6.207792	98.308	60.3993
6.252776	98.369	60.1967
6.298086	98.431	59.9740
6.343725	98.493	59.7318
6.389694	98.556	59.4707
6.435996	98.618	59.1915
6.482634	98.679	58.8945
6.529610	98.739	58.5800
6.576926	98.797	58.2478
6.624585	98.853	57.8982
6.672590	98.907	57.5316
6.720942	98.958	57.1498
6.769645	99.007	56.7552
6.818700	99.052	56.3506
6.868111	99.095	55.9390
6.917881	99.134	55.5227
6.968010	99.170	55.1032
7.018504	99.202	54.6815
7.069362	99.231	54.2590
7.120590	99.256	53.8373
7.172189	99.278	53.4193
7.224161	99.297	53.0080
7.276511	99.313	52.6061
7.329239	99.326	52.2156
7.382350	99.336	51.8378
7.435845	99.344	51.4734
7.489729	99.350	51.1229
7.544002	99.354	50.7872
7.598669	99.356	50.4671
7.653732	99.358	50.1638
7.709194	99.359	49.8778
7.765058	99.359	49.6092
7.821327	99.360	49.3574
7.878004	99.360	49.1211
7.935091	99.361	48.8988
7.992592	99.363	48.6888
8.050510	99.366	48.4898
8.108847	99.370	48.3007
8.167607	99.376	48.1199
8.226793	99.383	47.9457
8.286408	99.392	47.7756
8.346454	99.402	47.6071
8.406936	99.413	47.4380
8.467856	99.426	47.2665
8.529218	99.440	47.0914
8.591024	99.455	46.9117
8.653278	99.470	46.7260
8.715983	99.487	46.5333
8.779143	99.503	46.3327
8.842760	99.520	46.1235
8.906839	99.536	45.9058
8.971381	99.552	45.6800
9.036392	99.567	45.4468
9.101873	99.582	45.2069
9.167829	99.595	44.9611
9.234263	99.608	44.7101
9.301178	99.619	44.4549
9.368578	99.629	44.1968
9.436467	99.638	43.9372
9.504847	99.645	43.6774
9.573723	99.652	43.4183
9.643099	99.657	43.1608
9.712976	99.660	42.9055
9.783361	99.661	42.6529
9.854255	99.660	42.4036
9.925663	99.657	42.1578
9.997588	99.651	41.9156
10.070035	99.644	41.6765
10.143007	99.634	41.4399
10.216507	99.624	41.2054
10.290540	99.612	40.9720
10.365109	99.600	40.7392
10.440219	99.588	40.5061
10.515873	99.575	40.2717
10.592076	99.563	40.0351
10.668830	99.552	39.7956
10.746141	99.540	39.5526
10.824012	99.529	39.3057
10.902447	99.518	39.0546
10.981451	99.508	38.7992
11.061027	99.497	38.5393
11.141180	99.487	38.2753
11.221913	99.476	38.0075
11.303232	99.465	37.7365
11.385140	99.454	37.4627
11.467641	99.443	37.1868
11.550741	99.432	36.9092
11.634442	99.421	36.6306
11.718750	99.409	36.3515
11.803669	99.399	36.0723
11.889203	99.388	35.7935
11.975357	99.378	35.5151
12.062136	99.368	35.2373
12.149543	99.359	34.9602
12.237583	99.350	34.6838
12.326262	99.342	34.4081
12.415583	99.333	34.1329
12.505552	99.325	33.8583
12.596172	99.317	33.5842
12.687449	99.309	33.3109
12.779387	99.301	33.0384
12.871992	99.293	32.7671
12.965268	99.284	32.4973
13.059220	99.276	32.2297
13.153852	99.267	31.9646
13.249170	99.259	31.7028
13.345179	99.251	31.4445
13.441884	99.243	31.1905
13.539289	99.235	30.9409
13.637401	99.228	30.6960
13.736223	99.220	30.4559
13.835761	99.214	30.2202
13.936021	99.207	29.9889
14.037007	99.201	29.7612
14.138725	99.195	29.5367
14.241180	99.189	29.3145
14.344377	99.184	29.0941
14.448323	99.179	28.8747
14.553021	99.174	28.6559
14.658478	99.168	28.4372
14.764700	99.163	28.2186
14.871691	99.157	28.0000
14.979457	99.151	27.7819
15.088005	99.144	27.5648
15.197339	99.137	27.3492
15.307465	99.130	27.1360
15.418389	99.121	26.9260
15.530117	99.112	26.7198
15.642655	99.102	26.5180
15.756008	99.092	26.3209
15.870182	99.081	26.1285
15.985184	99.070	25.9407
16.101019	99.059	25.7568
16.217694	99.048	25.5760
16.335214	99.037	25.3976
16.453586	99.026	25.2203
16.572815	99.016	25.0432
16.692909	99.006	24.8652
16.813872	98.995	24.6858
16.935713	98.986	24.5043
17.058436	98.976	24.3206
17.182048	98.966	24.1345
17.306556	98.955	23.9467
17.431967	98.944	23.7573
17.558286	98.933	23.5671
17.685521	98.920	23.3766
17.813677	98.908	23.1864
17.942762	98.895	22.9967
18.072783	98.882	22.8079
18.203746	98.868	22.6197
18.335658	98.855	22.4320
18.468526	98.842	22.2443
18.602356	98.829	22.0563
18.737156	98.816	21.8673
18.872934	98.804	21.6771
19.009695	98.793	21.4853
19.147447	98.781	21.2918
19.286197	98.770	21.0967
19.425953	98.760	20.9001
19.566721	98.749	20.7026
19.708510	98.739	20.5043
19.851326	98.729	20.3057
19.995177	98.718	20.1072
20.140070	98.708	19.9089
20.286013	98.699	19.7111
20.433014	98.689	19.5139
20.581080	98.680	19.3174
20.730219	98.671	19.1219
20.880439	98.663	18.9274
21.031747	98.655	18.7343
21.184152	98.647	18.5428
21.337661	98.640	18.3536
21.492282	98.633	18.1669
21.648024	98.627	17.9829
21.804895	98.620	17.8021
21.962902	98.615	17.6243
22.122054	98.609	17.4495
22.282360	98.604	17.2775
22.443827	98.599	17.1079
22.606464	98.594	16.9405
22.770280	98.589	16.7751
22.935283	98.584	16.6117
23.101481	98.578	16.4504
23.268884	98.572	16.2916
23.437500	98.566	16.1356
23.607338	98.559	15.9830
23.778406	98.552	15.8340
23.950714	98.544	15.6886
24.124271	98.535	15.5468
24.299086	98.526	15.4080
24.475167	98.517	15.2717
24.652524	98.507	15.1370
24.831166	98.498	15.0033
25.011103	98.487	14.8700
25.192344	98.477	14.7366
25.374898	98.466	14.6030
25.558775	98.454	14.4691
25.743984	98.442	14.3350
25.930536	98.430	14.2009
26.118439	98.417	14.0670
26.307704	98.403	13.9332
26.498341	98.390	13.7992
26.690359	98.376	13.6649
26.883768	98.362	13.5300
27.078579	98.348	13.3942
27.274801	98.334	13.2572
27.472446	98.320	13.1188
27.671522	98.306	12.9790
27.872042	98.293	12.8378
28.074014	98.279	12.6951
28.277450	98.265	12.5510
28.482360	98.252	12.4059
28.688755	98.239	12.2597
28.896645	98.226	12.1130
29.106042	98.213	11.9663
29.316957	98.200	11.8200
29.529400	98.187	11.6747
29.743382	98.175	11.5309
29.958915	98.163	11.3889
30.176009	98.152	11.2487
30.394677	98.141	11.1105
30.614929	98.130	10.9739
30.836778	98.120	10.8391
31.060234	98.110	10.7060
31.285309	98.100	10.5747
31.512015	98.090	10.4455
31.740364	98.080	10.3186
31.970368	98.070	10.1942
32.202039	98.059	10.0722
32.435388	98.049	9.9524
32.670428	98.038	9.8344
32.907171	98.027	9.7177
33.145630	98.016	9.6019
33.385817	98.005	9.4868
33.627745	97.993	9.3723
33.871425	97.981	9.2584
34.116871	97.968	9.1452
34.364096	97.954	9.0326
34.613113	97.941	8.9205
34.863934	97.927	8.8090
35.116572	97.912	8.6978
35.371041	97.897	8.5867
35.627354	97.882	8.4755
35.885525	97.867	8.3643
36.145566	97.852	8.2528
36.407492	97.836	8.1411
36.671316	97.820	8.0291
36.937051	97.805	7.9169
37.204712	97.789	7.8047
37.474313	97.773	7.6929
37.745867	97.757	7.5818
38.019389	97.742	7.4717
38.294893	97.726	7.3627
38.572394	97.710	7.2551
38.851905	97.695	7.1489
39.133442	97.680	7.0443
39.417019	97.664	6.9415
39.702651	97.649	6.8407
39.990353	97.634	6.7419
40.280140	97.618	6.6456
40.572026	97.603	6.5514
40.866028	97.587	6.4592
41.162160	97.571	6.3688
41.460438	97.556	6.2800
41.760877	97.540	6.1925
42.063494	97.523	6.1062
42.368303	97.507	6.0210
42.675322	97.490	5.9368
42.984565	97.473	5.8535
43.296048	97.455	5.7710
43.609789	97.437	5.6892
43.925804	97.419	5.6081
44.244108	97.401	5.5276
44.564719	97.383	5.4478
44.887654	97.364	5.3685
45.212928	97.345	5.2900
45.540560	97.327	5.2125
45.870565	97.308	5.1359
46.202962	97.289	5.0604
46.537768	97.270	4.9860
46.875000	97.251	4.9126
47.214676	97.232	4.8405
47.556813	97.213	4.7698
47.901429	97.195	4.7006
48.248542	97.176	4.6332
48.598171	97.157	4.5675
48.950334	97.137	4.5033
49.305048	97.118	4.4406
49.662333	97.099	4.3793
50.022206	97.079	4.3197
50.384688	97.059	4.2620
50.749796	97.038	4.2064
51.117550	97.018	4.1533
51.487969	96.997	4.1023
51.861072	96.976	4.0533
52.236879	96.956	4.0059
52.615409	96.935	3.9597
52.996681	96.915	3.9149
53.380717	96.895	3.8716
53.767536	96.875	3.8301
54.157158	96.855	3.7904
54.549603	96.836	3.7522
54.944892	96.817	3.7152
55.343045	96.798	3.6787
55.744084	96.779	3.6423
56.148028	96.761	3.6056
56.554900	96.742	3.5679
56.964720	96.724	3.5287
57.377510	96.705	3.4873
57.793291	96.686	3.4435
58.212085	96.666	3.3973
58.633914	96.646	3.3495
59.058799	96.625	3.3012
59.486764	96.603	3.2537
59.917829	96.580	3.2083
60.352019	96.556	3.1655
60.789354	96.532	3.1261
61.229859	96.507	3.0902
61.673556	96.482	3.0578
62.120468	96.457	3.0289
62.570618	96.431	3.0035
63.024031	96.406	2.9819
63.480729	96.380	2.9638
63.940736	96.355	2.9492
64.404077	96.329	2.9379
64.870776	96.303	2.9290
65.340856	96.277	2.9224
65.814343	96.251	2.9175
66.291261	96.224	2.9144
66.771635	96.198	2.9126
67.255489	96.171	2.9117
67.742850	96.144	2.9114
68.233743	96.117	2.9111
68.728193	96.090	2.9110
69.226226	96.062	2.9111
69.727867	96.035	2.9117
70.233144	96.008	2.9133
70.742083	95.980	2.9158
71.254709	95.953	2.9192
71.771050	95.925	2.9240
72.291132	95.897	2.9303
72.814984	95.869	2.9392
73.342631	95.841	2.9514
73.874102	95.812	2.9681
74.409424	95.784	2.9897
74.948626	95.755	3.0165
75.491734	95.726	3.0469
76.038779	95.698	3.0794
76.589787	95.670	3.1124
77.144788	95.642	3.1450
77.703811	95.614	3.1767
78.266885	95.585	3.2075
78.834039	95.557	3.2371
79.405303	95.528	3.2646
79.980706	95.499	3.2889
80.560280	95.470	3.3090
81.144053	95.440	3.3239
81.732056	95.409	3.3337
82.324320	95.376	3.3399
82.920876	95.343	3.3444
83.521755	95.307	3.3503
84.126988	95.270	3.3608
84.736607	95.232	3.3792
85.350643	95.193	3.4076
85.969129	95.152	3.4479
86.592097	95.112	3.5010
87.219579	95.071	3.5668
87.851608	95.031	3.6442
88.488217	94.991	3.7312
89.129439	94.951	3.8259
89.775308	94.912	3.9266
90.425856	94.873	4.0317
91.081119	94.835	4.1401
91.741131	94.796	4.2510
92.405925	94.758	4.3640
93.075536	94.719	4.4790
93.750000	94.681	4.5961
94.429351	94.643	4.7153
95.113625	94.604	4.8369
95.802858	94.565	4.9614
96.497085	94.527	5.0892
97.196342	94.487	5.2208
97.900667	94.448	5.3568
98.610096	94.408	5.4983
99.324665	94.367	5.6460
100.044413	94.327	5.8008
100.769376	94.286	5.9628
101.499592	94.245	6.1316
102.235100	94.205	6.3062
102.975938	94.165	6.4851
103.722144	94.126	6.6674
104.473757	94.087	6.8518
105.230817	94.049	7.0375
105.993363	94.011	7.2238
