* Measurement data measured by REW V5.31
* Source: EXCL: Microphone (USB Sound Device        ), MICROPHONE (Master Volume), L, volume: 0.390
* Format: 256k Log Swept Sine, 1 sweep at -5.0 dBFS with no timing reference
* Dated: Sep 8, 2024 1:50:06 PM
* REW Settings:
*  C-weighting compensation: Off
*  Target level: 75.0 dB
* Note: Kiwi Ears Canta L
* Measurement: L Kiwi Ears Canta
* Smoothing: 1/12 octave
* Frequency Step: 96 ppo
* Start Frequency: 0.36621094 Hz
*
* Freq(Hz)	SPL(dB)	Phase(degrees)
0.366211	89.230	-58.5456
0.368865	89.233	-58.6084
0.371538	89.237	-58.7024
0.374230	89.242	-58.8205
0.376942	89.247	-58.9565
0.379673	89.253	-59.1058
0.382424	89.259	-59.2654
0.385196	89.265	-59.4335
0.387987	89.272	-59.6090
0.390798	89.278	-59.7914
0.393630	89.285	-59.9805
0.396483	89.291	-60.1760
0.399356	89.298	-60.3779
0.402250	89.305	-60.5862
0.405165	89.312	-60.8010
0.408101	89.318	-61.0222
0.411058	89.325	-61.2499
0.414037	89.332	-61.4842
0.417037	89.339	-61.7250
0.420059	89.346	-61.9724
0.423103	89.353	-62.2265
0.426169	89.360	-62.4871
0.429257	89.367	-62.7545
0.432368	89.375	-63.0285
0.435501	89.382	-63.3092
0.438656	89.389	-63.5967
0.441835	89.396	-63.8908
0.445037	89.404	-64.1917
0.448262	89.411	-64.4993
0.451510	89.419	-64.8136
0.454782	89.426	-65.1347
0.458077	89.434	-65.4624
0.461397	89.442	-65.7968
0.464740	89.450	-66.1379
0.468108	89.457	-66.4855
0.471500	89.465	-66.8398
0.474917	89.473	-67.2007
0.478358	89.481	-67.5680
0.481825	89.489	-67.9419
0.485316	89.497	-68.3221
0.488833	89.505	-68.7087
0.492375	89.514	-69.1016
0.495943	89.522	-69.5007
0.499537	89.530	-69.9059
0.503157	89.539	-70.3172
0.506803	89.547	-70.7345
0.510475	89.555	-71.1576
0.514175	89.564	-71.5865
0.517900	89.573	-72.0211
0.521653	89.581	-72.4612
0.525434	89.590	-72.9067
0.529241	89.599	-73.3575
0.533076	89.608	-73.8135
0.536939	89.617	-74.2746
0.540830	89.626	-74.7405
0.544749	89.635	-75.2112
0.548696	89.644	-75.6864
0.552673	89.653	-76.1661
0.556677	89.662	-76.6500
0.560711	89.672	-77.1380
0.564774	89.681	-77.6299
0.568867	89.691	-78.1255
0.572989	89.700	-78.6246
0.577141	89.710	-79.1272
0.581324	89.720	-79.6328
0.585536	89.729	-80.1414
0.589779	89.739	-80.6528
0.594053	89.749	-81.1668
0.598358	89.759	-81.6831
0.602694	89.769	-82.2015
0.607061	89.779	-82.7219
0.611460	89.789	-83.2439
0.615891	89.800	-83.7675
0.620354	89.810	-84.2924
0.624849	89.820	-84.8184
0.629377	89.831	-85.3452
0.633938	89.841	-85.8727
0.638532	89.852	-86.4007
0.643159	89.863	-86.9288
0.647819	89.874	-87.4570
0.652514	89.884	-87.9850
0.657242	89.895	-88.5126
0.662005	89.906	-89.0396
0.666802	89.918	-89.5658
0.671634	89.929	-90.0910
0.676501	89.940	-90.6151
0.681403	89.951	-91.1378
0.686341	89.963	-91.6589
0.691314	89.974	-92.1784
0.696324	89.986	-92.6961
0.701370	89.997	-93.2119
0.706452	90.009	-93.7258
0.711571	90.020	-94.2381
0.716728	90.031	-94.7490
0.721921	90.041	-95.2593
0.727153	90.050	-95.7701
0.732422	90.058	-96.2829
0.737729	90.064	-96.7997
0.743075	90.069	-97.3223
0.748460	90.073	-97.8524
0.753883	90.077	-98.3910
0.759346	90.079	-98.9388
0.764849	90.082	-99.4963
0.770391	90.084	-100.0636
0.775974	90.086	-100.6408
0.781597	90.087	-101.2278
0.787261	90.089	-101.8245
0.792966	90.090	-102.4307
0.798712	90.091	-103.0464
0.804500	90.092	-103.6712
0.810329	90.093	-104.3050
0.816201	90.093	-104.9476
0.822116	90.093	-105.5987
0.828073	90.093	-106.2580
0.834074	90.093	-106.9253
0.840118	90.092	-107.6002
0.846206	90.091	-108.2825
0.852338	90.089	-108.9719
0.858514	90.088	-109.6679
0.864735	90.085	-110.3702
0.871001	90.083	-111.0785
0.877313	90.079	-111.7924
0.883670	90.076	-112.5115
0.890074	90.072	-113.2352
0.896524	90.067	-113.9633
0.903020	90.061	-114.6953
0.909564	90.056	-115.4307
0.916155	90.049	-116.1691
0.922794	90.042	-116.9100
0.929481	90.034	-117.6529
0.936216	90.025	-118.3973
0.943000	90.016	-119.1428
0.949834	90.005	-119.8888
0.956717	89.994	-120.6348
0.963649	89.982	-121.3804
0.970632	89.969	-122.1249
0.977666	89.956	-122.8680
0.984750	89.941	-123.6090
0.991886	89.925	-124.3476
0.999074	89.908	-125.0831
1.006314	89.890	-125.8150
1.013606	89.870	-126.5429
1.020951	89.850	-127.2662
1.028349	89.828	-127.9845
1.035801	89.804	-128.6973
1.043307	89.780	-129.4042
1.050867	89.754	-130.1047
1.058482	89.726	-130.7988
1.066152	89.697	-131.4864
1.073878	89.667	-132.1678
1.081660	89.634	-132.8439
1.089498	89.601	-133.5163
1.097393	89.566	-134.1874
1.105345	89.529	-134.8604
1.113355	89.491	-135.5387
1.121423	89.453	-136.2254
1.129549	89.413	-136.9231
1.137734	89.372	-137.6336
1.145979	89.329	-138.3584
1.154283	89.286	-139.0984
1.162647	89.241	-139.8546
1.171072	89.196	-140.6275
1.179558	89.148	-141.4178
1.188106	89.100	-142.2259
1.196715	89.050	-143.0523
1.205387	88.998	-143.8973
1.214122	88.945	-144.7614
1.222920	88.890	-145.6448
1.231782	88.833	-146.5477
1.240708	88.774	-147.4703
1.249699	88.714	-148.4127
1.258754	88.651	-149.3749
1.267876	88.586	-150.3568
1.277063	88.518	-151.3583
1.286318	88.449	-152.3789
1.295639	88.376	-153.4183
1.305027	88.301	-154.4759
1.314484	88.224	-155.5508
1.324009	88.143	-156.6423
1.333604	88.060	-157.7490
1.343268	87.973	-158.8698
1.353002	87.883	-160.0032
1.362806	87.790	-161.1472
1.372681	87.693	-162.3001
1.382628	87.592	-163.4595
1.392647	87.488	-164.6232
1.402739	87.379	-165.7886
1.412904	87.266	-166.9534
1.423142	87.148	-168.1155
1.433455	87.025	-169.2734
1.443843	86.896	-170.4271
1.454305	86.761	-171.5784
1.464844	86.617	-172.7315
1.475459	86.464	-173.8930
1.486150	86.300	-175.0707
1.496920	86.124	-176.2725
1.507767	85.937	-177.5052
1.518693	85.737	-178.7748
1.529698	85.525	179.9136
1.540783	85.302	178.5551
1.551948	85.068	177.1454
1.563194	84.825	175.6802
1.574521	84.574	174.1550
1.585931	84.315	172.5652
1.597423	84.051	170.9062
1.608999	83.781	169.1729
1.620658	83.508	167.3603
1.632402	83.233	165.4630
1.644232	82.958	163.4755
1.656146	82.683	161.3921
1.668147	82.412	159.2072
1.680235	82.145	156.9151
1.692411	81.885	154.5102
1.704675	81.633	151.9871
1.717028	81.391	149.3407
1.729470	81.163	146.5663
1.742003	80.949	143.6597
1.754626	80.753	140.6169
1.767341	80.576	137.4340
1.780147	80.422	134.1062
1.793047	80.293	130.6265
1.806040	80.190	126.9839
1.819128	80.116	123.1615
1.832310	80.071	119.1344
1.845587	80.056	114.8723
1.858961	80.071	110.3450
1.872432	80.114	105.5311
1.886001	80.184	100.4250
1.899667	80.282	95.0419
1.913433	80.403	89.4206
1.927299	80.549	83.6234
1.941265	80.716	77.7315
1.955332	80.903	71.8379
1.969501	81.109	66.0364
1.983773	81.331	60.4125
1.998148	81.568	55.0348
2.012627	81.818	49.9513
2.027212	82.079	45.1892
2.041902	82.348	40.7570
2.056698	82.624	36.6492
2.071602	82.905	32.8498
2.086614	83.187	29.3364
2.101734	83.470	26.0833
2.116964	83.752	23.0629
2.132304	84.030	20.2471
2.147756	84.303	17.6082
2.163320	84.572	15.1184
2.178996	84.835	12.7510
2.194786	85.096	10.4800
2.210690	85.355	8.2825
2.226710	85.616	6.1403
2.242845	85.880	4.0417
2.259098	86.147	1.9812
2.275468	86.419	-0.0427
2.291957	86.696	-2.0287
2.308566	86.976	-3.9745
2.325295	87.259	-5.8772
2.342145	87.544	-7.7344
2.359117	87.831	-9.5438
2.376212	88.117	-11.3038
2.393431	88.402	-13.0137
2.410775	88.685	-14.6730
2.428244	88.965	-16.2819
2.445840	89.240	-17.8414
2.463564	89.509	-19.3533
2.481416	89.771	-20.8198
2.499397	90.025	-22.2449
2.517509	90.269	-23.6335
2.535752	90.505	-24.9928
2.554127	90.730	-26.3312
2.572635	90.945	-27.6587
2.591277	91.151	-28.9845
2.610055	91.347	-30.3154
2.628968	91.535	-31.6550
2.648019	91.714	-33.0035
2.667208	91.886	-34.3587
2.686535	92.050	-35.7171
2.706003	92.208	-37.0743
2.725612	92.358	-38.4254
2.745363	92.503	-39.7657
2.765257	92.643	-41.0906
2.785295	92.777	-42.3953
2.805478	92.907	-43.6763
2.825808	93.032	-44.9299
2.846285	93.153	-46.1542
2.866910	93.271	-47.3482
2.887685	93.386	-48.5129
2.908611	93.497	-49.6518
2.929688	93.604	-50.7706
2.950917	93.707	-51.8771
2.972301	93.805	-52.9783
2.993839	93.898	-54.0796
3.015534	93.986	-55.1838
3.037386	94.069	-56.2913
3.059396	94.146	-57.4003
3.081565	94.218	-58.5078
3.103896	94.284	-59.6101
3.126388	94.347	-60.7028
3.149043	94.405	-61.7811
3.171862	94.459	-62.8401
3.194847	94.508	-63.8755
3.217998	94.555	-64.8832
3.241317	94.598	-65.8608
3.264805	94.637	-66.8074
3.288463	94.672	-67.7244
3.312293	94.703	-68.6155
3.336295	94.730	-69.4855
3.360471	94.752	-70.3389
3.384822	94.769	-71.1785
3.409350	94.781	-72.0054
3.434056	94.789	-72.8188
3.458940	94.793	-73.6172
3.484005	94.793	-74.3973
3.509252	94.790	-75.1554
3.534681	94.785	-75.8872
3.560295	94.777	-76.5881
3.586094	94.768	-77.2533
3.612081	94.757	-77.8785
3.638255	94.745	-78.4603
3.664620	94.731	-78.9968
3.691175	94.715	-79.4872
3.717923	94.697	-79.9327
3.744864	94.676	-80.3347
3.772001	94.653	-80.6953
3.799335	94.628	-81.0162
3.826866	94.602	-81.2994
3.854597	94.576	-81.5463
3.882529	94.552	-81.7583
3.910664	94.530	-81.9361
3.939002	94.511	-82.0800
3.967546	94.496	-82.1893
3.996296	94.486	-82.2627
4.025255	94.480	-82.2977
4.054423	94.480	-82.2916
4.083804	94.485	-82.2427
4.113396	94.495	-82.1515
4.143204	94.509	-82.0212
4.173227	94.528	-81.8574
4.203468	94.553	-81.6671
4.233928	94.582	-81.4586
4.264609	94.618	-81.2404
4.295512	94.660	-81.0205
4.326639	94.709	-80.8055
4.357992	94.765	-80.6001
4.389572	94.829	-80.4061
4.421380	94.901	-80.2231
4.453419	94.982	-80.0502
4.485691	95.070	-79.8876
4.518196	95.166	-79.7374
4.550936	95.269	-79.6041
4.583914	95.376	-79.4932
4.617131	95.488	-79.4107
4.650589	95.603	-79.3628
4.684289	95.720	-79.3549
4.718233	95.838	-79.3907
4.752424	95.958	-79.4724
4.786862	96.080	-79.5998
4.821549	96.203	-79.7712
4.856488	96.327	-79.9839
4.891680	96.452	-80.2352
4.927127	96.577	-80.5222
4.962831	96.702	-80.8428
4.998794	96.825	-81.1955
5.035017	96.946	-81.5793
5.071503	97.064	-81.9941
5.108253	97.178	-82.4403
5.145270	97.287	-82.9185
5.182555	97.393	-83.4284
5.220110	97.494	-83.9686
5.257937	97.592	-84.5356
5.296038	97.685	-85.1246
5.334415	97.774	-85.7302
5.373071	97.858	-86.3472
5.412006	97.937	-86.9710
5.451224	98.012	-87.5991
5.490725	98.081	-88.2303
5.530514	98.145	-88.8652
5.570590	98.204	-89.5040
5.610957	98.257	-90.1459
5.651616	98.305	-90.7880
5.692570	98.349	-91.4261
5.733821	98.388	-92.0553
5.775370	98.424	-92.6705
5.817221	98.455	-93.2678
5.859375	98.483	-93.8447
5.901834	98.508	-94.4005
5.944602	98.529	-94.9354
5.987679	98.546	-95.4496
6.031068	98.562	-95.9425
6.074771	98.575	-96.4130
6.118792	98.587	-96.8592
6.163131	98.599	-97.2789
6.207792	98.610	-97.6704
6.252776	98.623	-98.0323
6.298086	98.635	-98.3649
6.343725	98.649	-98.6695
6.389694	98.664	-98.9487
6.435996	98.681	-99.2058
6.482634	98.700	-99.4442
6.529610	98.723	-99.6667
6.576926	98.749	-99.8753
6.624585	98.779	-100.0714
6.672590	98.814	-100.2565
6.720942	98.852	-100.4333
6.769645	98.894	-100.6058
6.818700	98.940	-100.7792
6.868111	98.990	-100.9586
6.917881	99.043	-101.1486
6.968010	99.099	-101.3521
7.018504	99.159	-101.5711
7.069362	99.222	-101.8066
7.120590	99.287	-102.0598
7.172189	99.354	-102.3325
7.224161	99.423	-102.6265
7.276511	99.491	-102.9437
7.329239	99.560	-103.2853
7.382350	99.628	-103.6516
7.435845	99.696	-104.0416
7.489729	99.762	-104.4535
7.544002	99.827	-104.8849
7.598669	99.889	-105.3335
7.653732	99.949	-105.7974
7.709194	100.006	-106.2749
7.765058	100.060	-106.7648
7.821327	100.111	-107.2646
7.878004	100.158	-107.7715
7.935091	100.203	-108.2815
7.992592	100.244	-108.7910
8.050510	100.281	-109.2968
8.108847	100.316	-109.7970
8.167607	100.348	-110.2899
8.226793	100.377	-110.7738
8.286408	100.403	-111.2468
8.346454	100.428	-111.7064
8.406936	100.452	-112.1510
8.467856	100.474	-112.5792
8.529218	100.496	-112.9907
8.591024	100.517	-113.3862
8.653278	100.538	-113.7664
8.715983	100.560	-114.1323
8.779143	100.583	-114.4847
8.842760	100.607	-114.8248
8.906839	100.633	-115.1542
8.971381	100.660	-115.4751
9.036392	100.689	-115.7902
9.101873	100.720	-116.1023
9.167829	100.752	-116.4139
9.234263	100.786	-116.7271
9.301178	100.822	-117.0433
9.368578	100.859	-117.3645
9.436467	100.897	-117.6925
9.504847	100.936	-118.0289
9.573723	100.974	-118.3747
9.643099	101.012	-118.7302
9.712976	101.049	-119.0951
9.783361	101.084	-119.4690
9.854255	101.116	-119.8510
9.925663	101.145	-120.2404
9.997588	101.170	-120.6360
10.070035	101.191	-121.0364
10.143007	101.209	-121.4397
10.216507	101.223	-121.8439
10.290540	101.234	-122.2474
10.365109	101.242	-122.6487
10.440219	101.248	-123.0466
10.515873	101.252	-123.4399
10.592076	101.255	-123.8273
10.668830	101.256	-124.2081
10.746141	101.257	-124.5822
10.824012	101.257	-124.9494
10.902447	101.256	-125.3103
10.981451	101.256	-125.6653
11.061027	101.255	-126.0153
11.141180	101.255	-126.3611
11.221913	101.255	-126.7039
11.303232	101.256	-127.0449
11.385140	101.256	-127.3853
11.467641	101.257	-127.7261
11.550741	101.258	-128.0681
11.634442	101.259	-128.4118
11.718750	101.260	-128.7578
11.803669	101.261	-129.1063
11.889203	101.262	-129.4571
11.975357	101.263	-129.8099
12.062136	101.263	-130.1640
12.149543	101.263	-130.5189
12.237583	101.262	-130.8739
12.326262	101.261	-131.2283
12.415583	101.259	-131.5813
12.505552	101.257	-131.9324
12.596172	101.254	-132.2812
12.687449	101.250	-132.6278
12.779387	101.247	-132.9722
12.871992	101.243	-133.3146
12.965268	101.239	-133.6557
13.059220	101.235	-133.9962
13.153852	101.232	-134.3370
13.249170	101.229	-134.6790
13.345179	101.226	-135.0229
13.441884	101.224	-135.3694
13.539289	101.221	-135.7191
13.637401	101.219	-136.0723
13.736223	101.216	-136.4288
13.835761	101.213	-136.7885
13.936021	101.210	-137.1505
14.037007	101.205	-137.5143
14.138725	101.200	-137.8787
14.241180	101.193	-138.2428
14.344377	101.186	-138.6053
14.448323	101.178	-138.9657
14.553021	101.170	-139.3230
14.658478	101.161	-139.6769
14.764700	101.153	-140.0274
14.871691	101.144	-140.3746
14.979457	101.136	-140.7194
15.088005	101.129	-141.0626
15.197339	101.122	-141.4052
15.307465	101.116	-141.7484
15.418389	101.111	-142.0936
15.530117	101.106	-142.4416
15.642655	101.101	-142.7932
15.756008	101.096	-143.1487
15.870182	101.092	-143.5083
15.985184	101.086	-143.8715
16.101019	101.081	-144.2374
16.217694	101.074	-144.6051
16.335214	101.067	-144.9734
16.453586	101.060	-145.3408
16.572815	101.052	-145.7062
16.692909	101.044	-146.0686
16.813872	101.035	-146.4274
16.935713	101.028	-146.7822
17.058436	101.020	-147.1329
17.182048	101.013	-147.4802
17.306556	101.007	-147.8246
17.431967	101.001	-148.1670
17.558286	100.995	-148.5083
17.685521	100.990	-148.8494
17.813677	100.986	-149.1909
17.942762	100.981	-149.5332
18.072783	100.976	-149.8762
18.203746	100.971	-150.2199
18.335658	100.966	-150.5636
18.468526	100.961	-150.9068
18.602356	100.955	-151.2487
18.737156	100.949	-151.5887
18.872934	100.943	-151.9264
19.009695	100.937	-152.2615
19.147447	100.931	-152.5939
19.286197	100.926	-152.9240
19.425953	100.920	-153.2519
19.566721	100.914	-153.5782
19.708510	100.909	-153.9034
19.851326	100.903	-154.2275
19.995177	100.897	-154.5509
20.140070	100.890	-154.8734
20.286013	100.884	-155.1948
20.433014	100.877	-155.5150
20.581080	100.869	-155.8335
20.730219	100.861	-156.1504
20.880439	100.854	-156.4655
21.031747	100.846	-156.7792
21.184152	100.838	-157.0919
21.337661	100.831	-157.4040
21.492282	100.824	-157.7163
21.648024	100.817	-158.0292
21.804895	100.809	-158.3430
21.962902	100.802	-158.6578
22.122054	100.794	-158.9736
22.282360	100.786	-159.2897
22.443827	100.777	-159.6057
22.606464	100.768	-159.9210
22.770280	100.759	-160.2352
22.935283	100.750	-160.5482
23.101481	100.740	-160.8601
23.268884	100.730	-161.1711
23.437500	100.721	-161.4819
23.607338	100.711	-161.7932
23.778406	100.702	-162.1052
23.950714	100.692	-162.4185
24.124271	100.682	-162.7330
24.299086	100.671	-163.0483
24.475167	100.661	-163.3641
24.652524	100.650	-163.6795
24.831166	100.638	-163.9940
25.011103	100.627	-164.3073
25.192344	100.616	-164.6188
25.374898	100.605	-164.9290
25.558775	100.593	-165.2378
25.743984	100.582	-165.5456
25.930536	100.572	-165.8527
26.118439	100.561	-166.1591
26.307704	100.550	-166.4647
26.498341	100.539	-166.7693
26.690359	100.528	-167.0725
26.883768	100.517	-167.3739
27.078579	100.505	-167.6732
27.274801	100.494	-167.9703
27.472446	100.483	-168.2652
27.671522	100.471	-168.5582
27.872042	100.460	-168.8494
28.074014	100.448	-169.1390
28.277450	100.436	-169.4271
28.482360	100.424	-169.7137
28.688755	100.412	-169.9988
28.896645	100.400	-170.2825
29.106042	100.387	-170.5648
29.316957	100.375	-170.8461
29.529400	100.362	-171.1266
29.743382	100.349	-171.4067
29.958915	100.337	-171.6865
30.176009	100.324	-171.9659
30.394677	100.311	-172.2449
30.614929	100.297	-172.5231
30.836778	100.284	-172.8003
31.060234	100.270	-173.0765
31.285309	100.257	-173.3517
31.512015	100.243	-173.6265
31.740364	100.229	-173.9012
31.970368	100.216	-174.1764
32.202039	100.202	-174.4523
32.435388	100.188	-174.7288
32.670428	100.174	-175.0057
32.907171	100.160	-175.2827
33.145630	100.146	-175.5594
33.385817	100.131	-175.8354
33.627745	100.117	-176.1107
33.871425	100.102	-176.3853
34.116871	100.088	-176.6591
34.364096	100.073	-176.9321
34.613113	100.059	-177.2043
34.863934	100.044	-177.4756
35.116572	100.029	-177.7457
35.371041	100.014	-178.0143
35.627354	99.999	-178.2811
35.885525	99.983	-178.5460
36.145566	99.968	-178.8086
36.407492	99.952	-179.0688
36.671316	99.936	-179.3267
36.937051	99.920	-179.5821
37.204712	99.903	-179.8354
37.474313	99.887	179.9128
37.745867	99.871	179.6621
38.019389	99.855	179.4120
38.294893	99.839	179.1622
38.572394	99.822	178.9126
38.851905	99.806	178.6633
39.133442	99.789	178.4146
39.417019	99.771	178.1666
39.702651	99.754	177.9197
39.990353	99.736	177.6740
40.280140	99.718	177.4293
40.572026	99.700	177.1857
40.866028	99.682	176.9432
41.162160	99.663	176.7015
41.460438	99.645	176.4608
41.760877	99.626	176.2209
42.063494	99.607	175.9822
42.368303	99.588	175.7447
42.675322	99.568	175.5089
42.984565	99.549	175.2748
43.296048	99.529	175.0426
43.609789	99.509	174.8123
43.925804	99.489	174.5837
44.244108	99.468	174.3567
44.564719	99.448	174.1313
44.887654	99.427	173.9077
45.212928	99.406	173.6855
45.540560	99.385	173.4648
45.870565	99.364	173.2452
46.202962	99.343	173.0269
46.537768	99.321	172.8097
46.875000	99.299	172.5942
47.214676	99.277	172.3806
47.556813	99.255	172.1693
47.901429	99.233	171.9601
48.248542	99.211	171.7530
48.598171	99.189	171.5477
48.950334	99.167	171.3439
49.305048	99.146	171.1414
49.662333	99.124	170.9401
50.022206	99.102	170.7397
50.384688	99.080	170.5402
50.749796	99.058	170.3412
51.117550	99.036	170.1433
51.487969	99.013	169.9472
51.861072	98.990	169.7539
52.236879	98.967	169.5643
52.615409	98.944	169.3790
52.996681	98.921	169.1975
53.380717	98.898	169.0193
53.767536	98.876	168.8431
54.157158	98.854	168.6683
54.549603	98.833	168.4942
54.944892	98.811	168.3207
55.343045	98.790	168.1475
55.744084	98.769	167.9741
56.148028	98.748	167.7994
56.554900	98.728	167.6226
56.964720	98.707	167.4430
57.377510	98.686	167.2607
57.793291	98.664	167.0762
58.212085	98.642	166.8906
58.633914	98.620	166.7050
59.058799	98.596	166.5200
59.486764	98.572	166.3363
59.917829	98.547	166.1543
60.352019	98.522	165.9744
60.789354	98.496	165.7969
61.229859	98.469	165.6224
61.673556	98.442	165.4513
62.120468	98.414	165.2838
62.570618	98.386	165.1202
63.024031	98.358	164.9603
63.480729	98.330	164.8037
63.940736	98.302	164.6499
64.404077	98.274	164.4982
64.870776	98.247	164.3484
65.340856	98.219	164.2008
65.814343	98.191	164.0558
66.291261	98.163	163.9133
66.771635	98.136	163.7730
67.255489	98.108	163.6343
67.742850	98.081	163.4968
68.233743	98.053	163.3604
68.728193	98.026	163.2251
69.226226	97.998	163.0912
69.727867	97.970	162.9590
70.233144	97.942	162.8286
70.742083	97.914	162.6995
71.254709	97.886	162.5712
71.771050	97.858	162.4434
72.291132	97.830	162.3164
72.814984	97.802	162.1914
73.342631	97.773	162.0693
73.874102	97.745	161.9503
74.409424	97.717	161.8339
74.948626	97.689	161.7188
75.491734	97.661	161.6040
76.038779	97.634	161.4884
76.589787	97.608	161.3712
77.144788	97.581	161.2520
77.703811	97.554	161.1309
78.266885	97.526	161.0085
78.834039	97.499	160.8862
79.405303	97.470	160.7645
79.980706	97.442	160.6426
