* Measurement data measured by REW V5.31.3
* Source: EXCL: Microphone (USB Sound Device        ), no input selected, R, volume: 0.390
* Format: 256k Log Swept Sine, 1 sweep at -15.0 dBFS with no timing reference
* Dated: Jul 7, 2025 11:28:30 PM
* REW Settings:
*  C-weighting compensation: Off
*  Target level: 75.0 dB
* Note: Kiwi Ears Punch L
* Measurement: L Kiwi Ears Punch
* Smoothing: 1/12 octave
* Frequency Step: 96 ppo
* Start Frequency: 0.36621094 Hz
*
* Freq(Hz) SPL(dB) Phase(degrees)
0.366211 89.264 -178.6713
0.368865 89.268 -178.6814
0.371538 89.275 -178.6965
0.374230 89.283 -178.7152
0.376942 89.292 -178.7363
0.379673 89.302 -178.7591
0.382424 89.312 -178.7829
0.385196 89.322 -178.8076
0.387987 89.333 -178.8327
0.390798 89.343 -178.8584
0.393630 89.354 -178.8844
0.396483 89.365 -178.9108
0.399356 89.376 -178.9376
0.402250 89.387 -178.9648
0.405165 89.398 -178.9924
0.408101 89.409 -179.0203
0.411058 89.421 -179.0487
0.414037 89.432 -179.0775
0.417037 89.444 -179.1066
0.420059 89.455 -179.1363
0.423103 89.467 -179.1663
0.426169 89.479 -179.1968
0.429257 89.490 -179.2278
0.432368 89.502 -179.2592
0.435501 89.514 -179.2911
0.438656 89.526 -179.3236
0.441835 89.538 -179.3565
0.445037 89.551 -179.3900
0.448262 89.563 -179.4240
0.451510 89.575 -179.4585
0.454782 89.588 -179.4936
0.458077 89.601 -179.5293
0.461397 89.613 -179.5656
0.464740 89.626 -179.6025
0.468108 89.639 -179.6400
0.471500 89.652 -179.6782
0.474917 89.665 -179.7170
0.478358 89.678 -179.7565
0.481825 89.691 -179.7967
0.485316 89.705 -179.8376
0.488833 89.718 -179.8793
0.492375 89.732 -179.9216
0.495943 89.745 -179.9648
0.499537 89.759 179.9913
0.503157 89.773 179.9466
0.506803 89.787 179.9010
0.510475 89.801 179.8546
0.514175 89.815 179.8074
0.517900 89.829 179.7592
0.521653 89.844 179.7101
0.525434 89.858 179.6601
0.529241 89.873 179.6092
0.533076 89.887 179.5572
0.536939 89.902 179.5043
0.540830 89.917 179.4503
0.544749 89.932 179.3952
0.548696 89.947 179.3391
0.552673 89.962 179.2818
0.556677 89.978 179.2234
0.560711 89.993 179.1638
0.564774 90.009 179.1030
0.568867 90.024 179.0410
0.572989 90.040 178.9777
0.577141 90.056 178.9131
0.581324 90.072 178.8472
0.585536 90.088 178.7798
0.589779 90.104 178.7112
0.594053 90.121 178.6410
0.598358 90.137 178.5694
0.602694 90.154 178.4962
0.607061 90.170 178.4216
0.611460 90.187 178.3452
0.615891 90.204 178.2673
0.620354 90.221 178.1877
0.624849 90.238 178.1064
0.629377 90.256 178.0233
0.633938 90.273 177.9383
0.638532 90.291 177.8515
0.643159 90.308 177.7628
0.647819 90.326 177.6721
0.652514 90.344 177.5794
0.657242 90.362 177.4846
0.662005 90.380 177.3877
0.666802 90.399 177.2886
0.671634 90.417 177.1872
0.676501 90.436 177.0836
0.681403 90.455 176.9775
0.686341 90.474 176.8691
0.691314 90.493 176.7581
0.696324 90.512 176.6446
0.701370 90.531 176.5284
0.706452 90.550 176.4095
0.711571 90.570 176.2878
0.716728 90.589 176.1634
0.721921 90.609 176.0360
0.727153 90.629 175.9057
0.732422 90.648 175.7724
0.737729 90.668 175.6362
0.743075 90.687 175.4971
0.748460 90.707 175.3550
0.753883 90.726 175.2100
0.759346 90.746 175.0621
0.764849 90.766 174.9113
0.770391 90.786 174.7576
0.775974 90.806 174.6011
0.781597 90.826 174.4417
0.787261 90.846 174.2794
0.792966 90.866 174.1143
0.798712 90.887 173.9462
0.804500 90.908 173.7754
0.810329 90.928 173.6017
0.816201 90.949 173.4252
0.822116 90.970 173.2459
0.828073 90.992 173.0638
0.834074 91.013 172.8788
0.840118 91.034 172.6911
0.846206 91.056 172.5005
0.852338 91.077 172.3072
0.858514 91.099 172.1111
0.864735 91.121 171.9122
0.871001 91.143 171.7105
0.877313 91.165 171.5061
0.883670 91.187 171.2989
0.890074 91.209 171.0889
0.896524 91.232 170.8762
0.903020 91.254 170.6607
0.909564 91.276 170.4424
0.916155 91.299 170.2215
0.922794 91.321 169.9977
0.929481 91.344 169.7712
0.936216 91.367 169.5419
0.943000 91.389 169.3098
0.949834 91.412 169.0750
0.956717 91.435 168.8373
0.963649 91.457 168.5969
0.970632 91.480 168.3535
0.977666 91.503 168.1074
0.984750 91.526 167.8584
0.991886 91.549 167.6065
0.999074 91.571 167.3517
1.006314 91.594 167.0939
1.013606 91.617 166.8332
1.020951 91.639 166.5694
1.028349 91.662 166.3026
1.035801 91.684 166.0326
1.043307 91.707 165.7595
1.050867 91.729 165.4831
1.058482 91.752 165.2033
1.066152 91.774 164.9201
1.073878 91.796 164.6332
1.081660 91.818 164.3425
1.089498 91.839 164.0475
1.097393 91.861 163.7479
1.105345 91.883 163.4433
1.113355 91.904 163.1331
1.121423 91.926 162.8171
1.129549 91.947 162.4950
1.137734 91.968 162.1666
1.145979 91.989 161.8320
1.154283 92.010 161.4911
1.162647 92.031 161.1441
1.171072 92.052 160.7910
1.179558 92.073 160.4319
1.188106 92.093 160.0669
1.196715 92.114 159.6962
1.205387 92.134 159.3198
1.214122 92.155 158.9380
1.222920 92.175 158.5509
1.231782 92.195 158.1586
1.240708 92.215 157.7613
1.249699 92.235 157.3590
1.258754 92.255 156.9521
1.267876 92.274 156.5406
1.277063 92.294 156.1247
1.286318 92.313 155.7047
1.295639 92.332 155.2805
1.305027 92.351 154.8526
1.314484 92.370 154.4210
1.324009 92.389 153.9859
1.333604 92.408 153.5476
1.343268 92.426 153.1062
1.353002 92.445 152.6619
1.362806 92.463 152.2150
1.372681 92.481 151.7656
1.382628 92.499 151.3139
1.392647 92.517 150.8602
1.402739 92.534 150.4045
1.412904 92.552 149.9471
1.423142 92.569 149.4879
1.433455 92.586 149.0269
1.443843 92.603 148.5639
1.454305 92.619 148.0984
1.464844 92.636 147.6297
1.475459 92.652 147.1570
1.486150 92.668 146.6794
1.496920 92.683 146.1962
1.507767 92.698 145.7069
1.518693 92.713 145.2112
1.529698 92.728 144.7091
1.540783 92.742 144.2006
1.551948 92.756 143.6857
1.563194 92.770 143.1646
1.574521 92.783 142.6374
1.585931 92.797 142.1044
1.597423 92.809 141.5657
1.608999 92.822 141.0215
1.620658 92.834 140.4722
1.632402 92.846 139.9179
1.644232 92.857 139.3589
1.656146 92.869 138.7954
1.668147 92.880 138.2277
1.680235 92.891 137.6560
1.692411 92.901 137.0806
1.704675 92.911 136.5018
1.717028 92.921 135.9199
1.729470 92.931 135.3351
1.742003 92.941 134.7477
1.754626 92.950 134.1580
1.767341 92.959 133.5660
1.780147 92.968 132.9720
1.793047 92.976 132.3758
1.806040 92.984 131.7771
1.819128 92.992 131.1752
1.832310 93.000 130.5693
1.845587 93.008 129.9583
1.858961 93.015 129.3408
1.872432 93.021 128.7161
1.886001 93.027 128.0837
1.899667 93.033 127.4432
1.913433 93.038 126.7948
1.927299 93.043 126.1385
1.941265 93.048 125.4746
1.955332 93.052 124.8037
1.969501 93.055 124.1261
1.983773 93.059 123.4423
1.998148 93.062 122.7529
2.012627 93.064 122.0585
2.027212 93.067 121.3598
2.041902 93.069 120.6574
2.056698 93.070 119.9521
2.071602 93.072 119.2446
2.086614 93.073 118.5357
2.101734 93.074 117.8262
2.116964 93.074 117.1167
2.132304 93.075 116.4081
2.147756 93.075 115.7007
2.163320 93.076 114.9948
2.178996 93.076 114.2902
2.194786 93.075 113.5863
2.210690 93.075 112.8821
2.226710 93.074 112.1762
2.242845 93.073 111.4676
2.259098 93.071 110.7555
2.275468 93.069 110.0394
2.291957 93.066 109.3193
2.308566 93.064 108.5952
2.325295 93.060 107.8674
2.342145 93.057 107.1363
2.359117 93.053 106.4025
2.376212 93.049 105.6665
2.393431 93.045 104.9290
2.410775 93.041 104.1907
2.428244 93.036 103.4526
2.445840 93.032 102.7154
2.463564 93.028 101.9800
2.481416 93.023 101.2474
2.499397 93.019 100.5184
2.517509 93.015 99.7938
2.535752 93.010 99.0739
2.554127 93.006 98.3591
2.572635 93.002 97.6490
2.591277 92.998 96.9431
2.610055 92.994 96.2408
2.628968 92.990 95.5415
2.648019 92.985 94.8447
2.667208 92.981 94.1501
2.686535 92.976 93.4578
2.706003 92.972 92.7675
2.725612 92.967 92.0794
2.745363 92.963 91.3937
2.765257 92.959 90.7108
2.785295 92.956 90.0309
2.805478 92.952 89.3545
2.825808 92.949 88.6821
2.846285 92.947 88.0143
2.866910 92.946 87.3517
2.887685 92.945 86.6950
2.908611 92.945 86.0450
2.929688 92.945 85.4020
2.950917 92.946 84.7667
2.972301 92.948 84.1392
2.993839 92.950 83.5195
3.015534 92.953 82.9075
3.037386 92.957 82.3028
3.059396 92.961 81.7051
3.081565 92.966 81.1138
3.103896 92.971 80.5286
3.126388 92.978 79.9491
3.149043 92.985 79.3749
3.171862 92.994 78.8056
3.194847 93.003 78.2411
3.217998 93.014 77.6814
3.241317 93.026 77.1265
3.264805 93.039 76.5770
3.288463 93.054 76.0334
3.312293 93.070 75.4967
3.336295 93.088 74.9677
3.360471 93.107 74.4469
3.384822 93.127 73.9343
3.409350 93.149 73.4296
3.434056 93.172 72.9322
3.458940 93.196 72.4410
3.484005 93.222 71.9551
3.509252 93.249 71.4732
3.534681 93.277 70.9944
3.560295 93.307 70.5174
3.586094 93.338 70.0416
3.612081 93.370 69.5662
3.638255 93.404 69.0912
3.664620 93.439 68.6169
3.691175 93.475 68.1439
3.717923 93.513 67.6729
3.744864 93.552 67.2045
3.772001 93.593 66.7386
3.799335 93.636 66.2753
3.826866 93.679 65.8138
3.854597 93.724 65.3537
3.882529 93.770 64.8941
3.910664 93.816 64.4342
3.939002 93.863 63.9731
3.967546 93.911 63.5101
3.996296 93.959 63.0448
4.025255 94.008 62.5768
4.054423 94.057 62.1062
4.083804 94.107 61.6333
4.113396 94.158 61.1584
4.143204 94.209 60.6820
4.173227 94.260 60.2044
4.203468 94.312 59.7260
4.233928 94.364 59.2469
4.264609 94.416 58.7673
4.295512 94.468 58.2871
4.326639 94.520 57.8063
4.357992 94.571 57.3246
4.389572 94.621 56.8415
4.421380 94.671 56.3569
4.453419 94.720 55.8706
4.485691 94.769 55.3827
4.518196 94.817 54.8938
4.550936 94.865 54.4047
4.583914 94.912 53.9163
4.617131 94.958 53.4297
4.650589 95.003 52.9459
4.684289 95.048 52.4655
4.718233 95.091 51.9891
4.752424 95.133 51.5166
4.786862 95.174 51.0480
4.821549 95.214 50.5829
4.856488 95.253 50.1213
4.891680 95.291 49.6634
4.927127 95.327 49.2100
4.962831 95.363 48.7619
4.998794 95.397 48.3203
5.035017 95.431 47.8861
5.071503 95.463 47.4602
5.108253 95.495 47.0432
5.145270 95.526 46.6353
5.182555 95.555 46.2363
5.220110 95.584 45.8462
5.257937 95.612 45.4648
5.296038 95.639 45.0921
5.334415 95.665 44.7283
5.373071 95.691 44.3736
5.412006 95.716 44.0284
5.451224 95.742 43.6932
5.490725 95.766 43.3681
5.530514 95.791 43.0534
5.570590 95.816 42.7490
5.610957 95.840 42.4545
5.651616 95.864 42.1693
5.692570 95.888 41.8926
5.733821 95.912 41.6237
5.775370 95.936 41.3620
5.817221 95.961 41.1069
5.859375 95.986 40.8582
5.901834 96.011 40.6159
5.944602 96.037 40.3797
5.987679 96.063 40.1492
6.031068 96.089 39.9233
6.074771 96.116 39.7012
6.118792 96.143 39.4815
6.163131 96.170 39.2633
6.207792 96.197 39.0457
6.252776 96.225 38.8284
6.298086 96.252 38.6110
6.343725 96.280 38.3933
6.389694 96.308 38.1752
6.435996 96.335 37.9559
6.482634 96.363 37.7351
6.529610 96.390 37.5120
6.576926 96.416 37.2861
6.624585 96.442 37.0573
6.672590 96.467 36.8255
6.720942 96.492 36.5907
6.769645 96.516 36.3534
6.818700 96.538 36.1138
6.868111 96.560 35.8723
6.917881 96.581 35.6292
6.968010 96.600 35.3844
7.018504 96.618 35.1383
7.069362 96.634 34.8910
7.120590 96.650 34.6431
7.172189 96.664 34.3954
7.224161 96.676 34.1485
7.276511 96.688 33.9031
7.329239 96.697 33.6599
7.382350 96.706 33.4190
7.435845 96.713 33.1808
7.489729 96.719 32.9454
7.544002 96.724 32.7133
7.598669 96.728 32.4846
7.653732 96.731 32.2599
7.709194 96.733 32.0394
7.765058 96.734 31.8230
7.821327 96.735 31.6105
7.878004 96.736 31.4016
7.935091 96.736 31.1958
7.992592 96.736 30.9926
8.050510 96.736 30.7915
8.108847 96.736 30.5923
8.167607 96.736 30.3942
8.226793 96.736 30.1966
8.286408 96.736 29.9985
8.346454 96.736 29.7988
8.406936 96.737 29.5966
8.467856 96.737 29.3911
8.529218 96.738 29.1817
8.591024 96.739 28.9677
8.653278 96.740 28.7483
8.715983 96.741 28.5227
8.779143 96.742 28.2903
8.842760 96.742 28.0506
8.906839 96.743 27.8033
8.971381 96.743 27.5482
9.036392 96.743 27.2855
9.101873 96.742 27.0150
9.167829 96.740 26.7369
9.234263 96.738 26.4514
9.301178 96.735 26.1588
9.368578 96.732 25.8597
9.436467 96.727 25.5548
9.504847 96.722 25.2448
9.573723 96.715 24.9303
9.643099 96.708 24.6118
9.712976 96.700 24.2902
9.783361 96.691 23.9662
9.854255 96.682 23.6405
9.925663 96.672 23.3138
9.997588 96.662 22.9867
10.070035 96.652 22.6595
10.143007 96.641 22.3326
10.216507 96.630 22.0063
10.290540 96.620 21.6809
10.365109 96.609 21.3564
10.440219 96.600 21.0328
10.515873 96.590 20.7097
10.592076 96.582 20.3871
10.668830 96.574 20.0645
10.746141 96.567 19.7416
10.824012 96.561 19.4180
10.902447 96.556 19.0930
10.981451 96.552 18.7662
11.061027 96.549 18.4373
11.141180 96.548 18.1055
11.221913 96.547 17.7709
11.303232 96.547 17.4328
11.385140 96.548 17.0912
11.467641 96.550 16.7460
11.550741 96.552 16.3972
11.634442 96.555 16.0452
11.718750 96.559 15.6901
11.803669 96.563 15.3325
11.889203 96.567 14.9730
11.975357 96.571 14.6124
12.062136 96.575 14.2515
12.149543 96.579 13.8914
12.237583 96.583 13.5328
12.326262 96.587 13.1772
12.415583 96.590 12.8256
12.505552 96.594 12.4789
12.596172 96.597 12.1383
12.687449 96.600 11.8047
12.779387 96.604 11.4790
12.871992 96.607 11.1617
12.965268 96.611 10.8533
13.059220 96.615 10.5541
13.153852 96.619 10.2638
13.249170 96.624 9.9823
13.345179 96.630 9.7091
13.441884 96.637 9.4432
13.539289 96.644 9.1837
13.637401 96.652 8.9293
13.736223 96.661 8.6790
13.835761 96.671 8.4313
13.936021 96.681 8.1849
14.037007 96.691 7.9388
14.138725 96.701 7.6921
14.241180 96.711 7.4442
14.344377 96.720 7.1946
14.448323 96.729 6.9436
14.553021 96.736 6.6917
14.658478 96.742 6.4396
14.764700 96.746 6.1886
14.871691 96.748 5.9402
14.979457 96.749 5.6962
15.088005 96.747 5.4582
15.197339 96.743 5.2279
15.307465 96.738 5.0068
15.418389 96.732 4.7959
15.530117 96.724 4.5959
15.642655 96.716 4.4069
15.756008 96.707 4.2280
15.870182 96.699 4.0579
15.985184 96.691 3.8945
16.101019 96.684 3.7350
16.217694 96.677 3.5764
16.335214 96.672 3.4150
16.453586 96.668 3.2474
16.572815 96.664 3.0702
16.692909 96.661 2.8802
16.813872 96.658 2.6754
16.935713 96.654 2.4539
17.058436 96.649 2.2152
17.182048 96.643 1.9598
17.306556 96.635 1.6889
17.431967 96.624 1.4047
17.558286 96.611 1.1102
17.685521 96.595 0.8090
17.813677 96.576 0.5045
17.942762 96.554 0.2008
18.072783 96.530 -0.0986
18.203746 96.505 -0.3907
18.335658 96.479 -0.6733
18.468526 96.452 -0.9449
18.602356 96.425 -1.2050
18.737156 96.400 -1.4543
18.872934 96.376 -1.6942
19.009695 96.355 -1.9274
19.147447 96.336 -2.1569
19.286197 96.321 -2.3862
19.425953 96.308 -2.6191
19.566721 96.299 -2.8591
19.708510 96.293 -3.1094
19.851326 96.289 -3.3726
19.995177 96.287 -3.6503
20.140070 96.286 -3.9434
20.286013 96.287 -4.2518
20.433014 96.288 -4.5743
20.581080 96.288 -4.9089
20.730219 96.288 -5.2530
20.880439 96.287 -5.6034
21.031747 96.285 -5.9565
21.184152 96.281 -6.3088
21.337661 96.276 -6.6569
21.492282 96.269 -6.9975
21.648024 96.262 -7.3281
21.804895 96.253 -7.6466
21.962902 96.244 -7.9517
22.122054 96.234 -8.2425
22.282360 96.224 -8.5189
22.443827 96.214 -8.7811
22.606464 96.204 -9.0298
22.770280 96.194 -9.2654
22.935283 96.184 -9.4890
23.101481 96.174 -9.7013
23.268884 96.164 -9.9034
23.437500 96.154 -10.0964
23.607338 96.145 -10.2815
23.778406 96.135 -10.4604
23.950714 96.126 -10.6349
24.124271 96.117 -10.8072
24.299086 96.109 -10.9794
24.475167 96.100 -11.1538
24.652524 96.091 -11.3322
24.831166 96.081 -11.5158
25.011103 96.071 -11.7054
25.192344 96.060 -11.9012
25.374898 96.048 -12.1024
25.558775 96.035 -12.3085
25.743984 96.021 -12.5186
25.930536 96.006 -12.7324
26.118439 95.990 -12.9504
26.307704 95.975 -13.1737
26.498341 95.960 -13.4043
26.690359 95.945 -13.6444
26.883768 95.931 -13.8960
27.078579 95.916 -14.1604
27.274801 95.901 -14.4376
27.472446 95.884 -14.7261
27.671522 95.867 -15.0225
27.872042 95.848 -15.3223
28.074014 95.828 -15.6208
28.277450 95.807 -15.9133
28.482360 95.786 -16.1967
28.688755 95.766 -16.4694
28.896645 95.748 -16.7325
29.106042 95.733 -16.9893
29.316957 95.720 -17.2441
29.529400 95.709 -17.5023
29.743382 95.701 -17.7682
29.958915 95.694 -18.0445
30.176009 95.687 -18.3315
30.394677 95.679 -18.6271
30.614929 95.670 -18.9269
30.836778 95.658 -19.2255
31.060234 95.644 -19.5168
31.285309 95.628 -19.7963
31.512015 95.611 -20.0605
31.740364 95.593 -20.3085
31.970368 95.575 -20.5414
32.202039 95.558 -20.7625
32.435388 95.540 -20.9758
32.670428 95.523 -21.1859
32.907171 95.507 -21.3966
33.145630 95.490 -21.6107
33.385817 95.472 -21.8296
33.627745 95.452 -22.0531
33.871425 95.432 -22.2803
34.116871 95.409 -22.5094
34.364096 95.385 -22.7388
34.613113 95.359 -22.9669
34.863934 95.332 -23.1931
35.116572 95.305 -23.4172
35.371041 95.277 -23.6395
35.627354 95.248 -23.8607
35.885525 95.220 -24.0812
36.145566 95.192 -24.3013
36.407492 95.164 -24.5211
36.671316 95.137 -24.7412
36.937051 95.111 -24.9623
37.204712 95.086 -25.1858
37.474313 95.061 -25.4133
37.745867 95.038 -25.6466
38.019389 95.015 -25.8864
38.294893 94.991 -26.1320
38.572394 94.967 -26.3807
38.851905 94.941 -26.6291
39.133442 94.914 -26.8726
39.417019 94.887 -27.1075
39.702651 94.859 -27.3324
39.990353 94.831 -27.5477
40.280140 94.805 -27.7562
40.572026 94.778 -27.9620
40.866028 94.753 -28.1688
41.162160 94.727 -28.3794
41.460438 94.702 -28.5946
41.760877 94.675 -28.8141
42.063494 94.648 -29.0366
42.368303 94.619 -29.2613
42.675322 94.589 -29.4871
42.984565 94.559 -29.7135
43.296048 94.528 -29.9395
43.609789 94.496 -30.1636
43.925804 94.463 -30.3844
44.244108 94.430 -30.6006
44.564719 94.397 -30.8118
44.887654 94.366 -31.0194
45.212928 94.334 -31.2255
45.540560 94.304 -31.4325
45.870565 94.274 -31.6416
46.202962 94.244 -31.8525
46.537768 94.214 -32.0634
46.875000 94.184 -32.2717
47.214676 94.153 -32.4754
47.556813 94.122 -32.6737
47.901429 94.090 -32.8672
48.248542 94.059 -33.0577
48.598171 94.028 -33.2463
48.950334 93.996 -33.4335
49.305048 93.963 -33.6183
49.662333 93.929 -33.7993
50.022206 93.895 -33.9752
50.384688 93.860 -34.1467
50.749796 93.826 -34.3159
51.117550 93.791 -34.4860
51.487969 93.758 -34.6605
51.861072 93.724 -34.8411
52.236879 93.689 -35.0276
52.615409 93.654 -35.2183
52.996681 93.618 -35.4108
53.380717 93.582 -35.6031
53.767536 93.546 -35.7943
54.157158 93.509 -35.9838
54.549603 93.473 -36.1719
54.944892 93.438 -36.3591
55.343045 93.402 -36.5460
55.744084 93.368 -36.7334
56.148028 93.334 -36.9222
56.554900 93.300 -37.1133
56.964720 93.266 -37.3071
57.377510 93.232 -37.5038
57.793291 93.197 -37.7028
58.212085 93.161 -37.9033
58.633914 93.125 -38.1036
59.058799 93.087 -38.3019
59.486764 93.047 -38.4961
59.917829 93.007 -38.6846
60.352019 92.965 -38.8668
60.789354 92.923 -39.0432
61.229859 92.880 -39.2150
61.673556 92.835 -39.3830
62.120468 92.790 -39.5479
62.570618 92.744 -39.7096
63.024031 92.697 -39.8681
63.480729 92.650 -40.0240
63.940736 92.601 -40.1783
64.404077 92.553 -40.3321
64.870776 92.504 -40.4860
65.340856 92.455 -40.6403
65.814343 92.406 -40.7950
66.291261 92.358 -40.9507
66.771635 92.310 -41.1080
67.255489 92.263 -41.2672
67.742850 92.217 -41.4279
68.233743 92.172 -41.5891
68.728193 92.127 -41.7495
69.226226 92.083 -41.9081
69.727867 92.039 -42.0639
70.233144 91.996 -42.2161
70.742083 91.952 -42.3640
71.254709 91.908 -42.5071
71.771050 91.864 -42.6448
72.291132 91.818 -42.7761
72.814984 91.772 -42.9002
73.342631 91.724 -43.0168
73.874102 91.676 -43.1270
74.409424 91.628 -43.2324
74.948626 91.578 -43.3346
75.491734 91.528 -43.4348
76.038779 91.478 -43.5339
76.589787 91.428 -43.6331
77.144788 91.378 -43.7334
77.703811 91.327 -43.8361
78.266885 91.277 -43.9417
78.834039 91.227 -44.0502
79.405303 91.177 -44.1617
79.980706 91.127 -44.2770
80.560280 91.077 -44.3972
81.144053 91.027 -44.5242
81.732056 90.977 -44.6590
82.324320 90.926 -44.8010
82.920876 90.874 -44.9478
83.521755 90.820 -45.0959
84.126988 90.765 -45.2415
84.736607 90.708 -45.3804
85.350643 90.650 -45.5092
85.969129 90.591 -45.6250
86.592097 90.531 -45.7261
87.219579 90.471 -45.8128
87.851608 90.412 -45.8875
88.488217 90.352 -45.9534
89.129439 90.292 -46.0134
89.775308 90.233 -46.0695
90.425856 90.173 -46.1224
91.081119 90.113 -46.1720
91.741131 90.053 -46.2168
92.405925 89.993 -46.2555
93.075536 89.934 -46.2891
93.750000 89.876 -46.3208
94.429351 89.819 -46.3539
95.113625 89.762 -46.3887
95.802858 89.705 -46.4240
96.497085 89.647 -46.4592
97.196342 89.589 -46.4948
97.900667 89.531 -46.5303
98.610096 89.471 -46.5643
99.324665 89.411 -46.5947
100.044413 89.350 -46.6204
100.769376 89.289 -46.6406
