* Measurement data measured by REW V5.30.3
* Source: EXCL: Microphone (Realtek(R) Audio), MICROPHONE (Master Volume), L, volume: 1.000
* Format: 256k Log Swept Sine, 1 sweep at -18.0 dBFS with no timing reference
* Dated: Jan 6, 2024 4:50:07 PM
* REW Settings:
*  C-weighting compensation: Off
*  Target level: 75.0 dB
* Note: Kiwi Ears Forteza R
* Measurement: R Kiwi Ears Forteza
* Smoothing: 1/12 octave
* Frequency Step: 96 ppo
* Start Frequency: 0.36621094 Hz
*
* Freq(Hz) SPL(dB) Phase(degrees)
0.366211 96.099 -17.9920
0.368865 96.095 -18.0082
0.371538 96.089 -18.0325
0.374230 96.081 -18.0631
0.376942 96.072 -18.0982
0.379673 96.063 -18.1369
0.382424 96.053 -18.1784
0.385196 96.044 -18.2221
0.387987 96.033 -18.2679
0.390798 96.023 -18.3155
0.393630 96.013 -18.3649
0.396483 96.002 -18.4161
0.399356 95.992 -18.4691
0.402250 95.981 -18.5238
0.405165 95.971 -18.5804
0.408101 95.960 -18.6387
0.411058 95.949 -18.6988
0.414037 95.938 -18.7608
0.417037 95.927 -18.8245
0.420059 95.916 -18.8902
0.423103 95.905 -18.9576
0.426169 95.894 -19.0270
0.429257 95.882 -19.0982
0.432367 95.871 -19.1714
0.435501 95.859 -19.2464
0.438656 95.848 -19.3234
0.441835 95.836 -19.4023
0.445037 95.824 -19.4831
0.448262 95.813 -19.5658
0.451510 95.801 -19.6506
0.454782 95.789 -19.7373
0.458077 95.777 -19.8259
0.461397 95.764 -19.9166
0.464740 95.752 -20.0092
0.468108 95.740 -20.1038
0.471500 95.727 -20.2004
0.474917 95.715 -20.2990
0.478358 95.702 -20.3996
0.481825 95.690 -20.5022
0.485316 95.677 -20.6068
0.488833 95.664 -20.7134
0.492375 95.651 -20.8219
0.495943 95.638 -20.9325
0.499537 95.625 -21.0451
0.503157 95.611 -21.1596
0.506803 95.598 -21.2761
0.510475 95.585 -21.3946
0.514174 95.571 -21.5150
0.517900 95.557 -21.6373
0.521653 95.544 -21.7616
0.525433 95.530 -21.8877
0.529241 95.516 -22.0158
0.533076 95.502 -22.1457
0.536939 95.488 -22.2775
0.540830 95.473 -22.4110
0.544749 95.459 -22.5464
0.548696 95.445 -22.6835
0.552673 95.430 -22.8223
0.556677 95.415 -22.9629
0.560711 95.401 -23.1051
0.564774 95.386 -23.2488
0.568867 95.371 -23.3942
0.572989 95.356 -23.5411
0.577141 95.340 -23.6894
0.581324 95.325 -23.8392
0.585536 95.310 -23.9903
0.589779 95.294 -24.1427
0.594053 95.278 -24.2963
0.598358 95.263 -24.4511
0.602694 95.247 -24.6069
0.607061 95.231 -24.7638
0.611460 95.215 -24.9216
0.615891 95.198 -25.0802
0.620354 95.182 -25.2396
0.624849 95.165 -25.3996
0.629377 95.149 -25.5601
0.633938 95.132 -25.7211
0.638532 95.115 -25.8824
0.643159 95.098 -26.0438
0.647819 95.081 -26.2054
0.652514 95.064 -26.3668
0.657242 95.047 -26.5281
0.662005 95.029 -26.6890
0.666802 95.012 -26.8493
0.671634 94.994 -27.0090
0.676501 94.976 -27.1679
0.681403 94.958 -27.3257
0.686341 94.940 -27.4823
0.691314 94.922 -27.6376
0.696324 94.903 -27.7912
0.701369 94.885 -27.9431
0.706452 94.866 -28.0931
0.711571 94.847 -28.2411
0.716727 94.827 -28.3870
0.721921 94.807 -28.5309
0.727153 94.787 -28.6730
0.732422 94.765 -28.8138
0.737729 94.742 -28.9538
0.743075 94.719 -29.0936
0.748460 94.694 -29.2337
0.753883 94.668 -29.3745
0.759346 94.642 -29.5162
0.764849 94.615 -29.6591
0.770391 94.588 -29.8032
0.775974 94.559 -29.9484
0.781597 94.531 -30.0950
0.787261 94.501 -30.2427
0.792965 94.471 -30.3916
0.798712 94.441 -30.5417
0.804499 94.410 -30.6930
0.810329 94.379 -30.8453
0.816201 94.347 -30.9987
0.822116 94.314 -31.1530
0.828073 94.281 -31.3083
0.834073 94.248 -31.4645
0.840118 94.214 -31.6214
0.846205 94.180 -31.7791
0.852337 94.145 -31.9374
0.858514 94.110 -32.0963
0.864735 94.074 -32.2557
0.871001 94.038 -32.4155
0.877313 94.002 -32.5755
0.883670 93.965 -32.7357
0.890074 93.927 -32.8959
0.896523 93.890 -33.0559
0.903020 93.852 -33.2158
0.909564 93.814 -33.3752
0.916155 93.775 -33.5341
0.922793 93.736 -33.6923
0.929480 93.697 -33.8495
0.936216 93.658 -34.0056
0.943000 93.619 -34.1604
0.949833 93.579 -34.3137
0.956716 93.539 -34.4652
0.963649 93.499 -34.6146
0.970632 93.459 -34.7618
0.977666 93.419 -34.9064
0.984750 93.379 -35.0481
0.991886 93.339 -35.1867
0.999074 93.299 -35.3217
1.006313 93.258 -35.4529
1.013605 93.218 -35.5798
1.020950 93.179 -35.7022
1.028349 93.139 -35.8196
1.035801 93.099 -35.9315
1.043306 93.060 -36.0375
1.050867 93.021 -36.1372
1.058482 92.983 -36.2300
1.066152 92.944 -36.3154
1.073878 92.906 -36.3929
1.081659 92.868 -36.4618
1.089498 92.831 -36.5214
1.097393 92.794 -36.5711
1.105345 92.756 -36.6101
1.113355 92.719 -36.6378
1.121422 92.681 -36.6538
1.129549 92.642 -36.6576
1.137734 92.604 -36.6491
1.145978 92.564 -36.6281
1.154283 92.525 -36.5946
1.162647 92.484 -36.5487
1.171072 92.444 -36.4902
1.179558 92.403 -36.4194
1.188106 92.362 -36.3363
1.196715 92.321 -36.2410
1.205387 92.279 -36.1338
1.214122 92.238 -36.0148
1.222920 92.196 -35.8841
1.231781 92.155 -35.7422
1.240708 92.114 -35.5892
1.249698 92.073 -35.4254
1.258754 92.032 -35.2513
1.267875 91.992 -35.0672
1.277063 91.953 -34.8736
1.286317 91.914 -34.6709
1.295638 91.876 -34.4598
1.305027 91.839 -34.2408
1.314484 91.802 -34.0145
1.324009 91.767 -33.7818
1.333603 91.733 -33.5433
1.343267 91.701 -33.3000
1.353001 91.670 -33.0526
1.362805 91.640 -32.8022
1.372681 91.612 -32.5497
1.382628 91.587 -32.2963
1.392647 91.563 -32.0430
1.402739 91.541 -31.7910
1.412904 91.522 -31.5411
1.423142 91.506 -31.2943
1.433455 91.492 -31.0511
1.443842 91.480 -30.8115
1.454305 91.472 -30.5750
1.464843 91.467 -30.3401
1.475458 91.464 -30.1049
1.486150 91.465 -29.8673
1.496919 91.469 -29.6255
1.507766 91.475 -29.3787
1.518692 91.485 -29.1265
1.529697 91.497 -28.8690
1.540782 91.513 -28.6066
1.551947 91.531 -28.3403
1.563193 91.551 -28.0708
1.574521 91.575 -27.7992
1.585931 91.601 -27.5266
1.597423 91.630 -27.2541
1.608998 91.661 -26.9828
1.620658 91.694 -26.7139
1.632402 91.730 -26.4488
1.644231 91.768 -26.1885
1.656146 91.809 -25.9344
1.668147 91.851 -25.6877
1.680235 91.895 -25.4497
1.692410 91.942 -25.2217
1.704674 91.990 -25.0050
1.717027 92.040 -24.8008
1.729469 92.091 -24.6103
1.742002 92.144 -24.4349
1.754625 92.198 -24.2755
1.767340 92.253 -24.1334
1.780147 92.310 -24.0093
1.793046 92.367 -23.9038
1.806040 92.426 -23.8171
1.819127 92.487 -23.7487
1.832309 92.549 -23.6976
1.845587 92.614 -23.6623
1.858961 92.681 -23.6415
1.872431 92.751 -23.6338
1.886000 92.823 -23.6386
1.899666 92.899 -23.6555
1.913432 92.977 -23.6844
1.927298 93.059 -23.7256
1.941264 93.142 -23.7793
1.955331 93.229 -23.8459
1.969500 93.317 -23.9257
1.983772 93.407 -24.0193
1.998147 93.500 -24.1269
2.012626 93.593 -24.2492
2.027211 93.688 -24.3864
2.041901 93.784 -24.5391
2.056697 93.881 -24.7078
2.071601 93.978 -24.8929
2.086613 94.075 -25.0950
2.101733 94.172 -25.3147
2.116963 94.268 -25.5524
2.132303 94.364 -25.8088
2.147755 94.459 -26.0844
2.163318 94.553 -26.3799
2.178995 94.646 -26.6957
2.194785 94.738 -27.0321
2.210689 94.830 -27.3891
2.226709 94.920 -27.7666
2.242844 95.011 -28.1639
2.259097 95.101 -28.5803
2.275467 95.192 -29.0149
2.291956 95.282 -29.4665
2.308565 95.373 -29.9343
2.325294 95.463 -30.4170
2.342144 95.553 -30.9136
2.359116 95.643 -31.4232
2.376211 95.733 -31.9448
2.393430 95.823 -32.4776
2.410774 95.912 -33.0208
2.428243 96.000 -33.5736
2.445839 96.088 -34.1356
2.463562 96.175 -34.7062
2.481415 96.261 -35.2854
2.499396 96.346 -35.8730
2.517508 96.430 -36.4696
2.535750 96.513 -37.0759
2.554126 96.595 -37.6934
2.572634 96.675 -38.3236
2.591276 96.755 -38.9682
2.610054 96.833 -39.6283
2.628967 96.910 -40.3042
2.648018 96.986 -40.9953
2.667206 97.061 -41.7006
2.686534 97.134 -42.4186
2.706002 97.207 -43.1477
2.725610 97.279 -43.8860
2.745361 97.349 -44.6317
2.765255 97.418 -45.3829
2.785294 97.487 -46.1378
2.805477 97.554 -46.8947
2.825807 97.620 -47.6522
2.846284 97.686 -48.4089
2.866909 97.750 -49.1643
2.887684 97.813 -49.9180
2.908609 97.876 -50.6709
2.929686 97.937 -51.4245
2.950916 97.997 -52.1808
2.972299 98.055 -52.9420
2.993838 98.112 -53.7096
3.015532 98.168 -54.4839
3.037384 98.222 -55.2648
3.059394 98.275 -56.0514
3.081564 98.327 -56.8422
3.103894 98.377 -57.6357
3.126386 98.427 -58.4300
3.149041 98.475 -59.2231
3.171861 98.523 -60.0132
3.194845 98.569 -60.7984
3.217996 98.615 -61.5772
3.241315 98.660 -62.3486
3.264803 98.705 -63.1120
3.288461 98.748 -63.8681
3.312291 98.791 -64.6179
3.336293 98.833 -65.3631
3.360469 98.873 -66.1051
3.384820 98.913 -66.8447
3.409348 98.951 -67.5820
3.434054 98.988 -68.3168
3.458938 99.025 -69.0480
3.484003 99.061 -69.7747
3.509250 99.096 -70.4952
3.534679 99.132 -71.2081
3.560293 99.167 -71.9117
3.586092 99.202 -72.6045
3.612079 99.237 -73.2851
3.638253 99.273 -73.9527
3.664618 99.308 -74.6068
3.691173 99.344 -75.2476
3.717921 99.380 -75.8758
3.744862 99.415 -76.4920
3.771999 99.451 -77.0973
3.799332 99.487 -77.6923
3.826864 99.523 -78.2777
3.854595 99.559 -78.8541
3.882527 99.596 -79.4218
3.910661 99.634 -79.9809
3.938999 99.674 -80.5315
3.967543 99.714 -81.0733
3.996294 99.756 -81.6057
4.025252 99.800 -82.1280
4.054421 99.845 -82.6396
4.083801 99.891 -83.1401
4.113394 99.939 -83.6296
4.143201 99.988 -84.1089
4.173225 100.039 -84.5794
4.203466 100.092 -85.0427
4.233926 100.146 -85.5006
4.264606 100.201 -85.9548
4.295509 100.258 -86.4069
4.326636 100.317 -86.8582
4.357989 100.378 -87.3092
4.389569 100.441 -87.7601
4.421378 100.505 -88.2102
4.453417 100.572 -88.6591
4.485688 100.641 -89.1065
4.518193 100.711 -89.5529
4.550934 100.783 -89.9992
4.583912 100.857 -90.4471
4.617129 100.932 -90.8983
4.650587 101.008 -91.3544
4.684287 101.085 -91.8172
4.718231 101.163 -92.2878
4.752421 101.242 -92.7669
4.786859 101.321 -93.2547
4.821547 101.401 -93.7507
4.856485 101.482 -94.2545
4.891677 101.564 -94.7654
4.927125 101.646 -95.2832
4.962829 101.728 -95.8078
4.998791 101.810 -96.3394
5.035015 101.891 -96.8782
5.071500 101.972 -97.4248
5.108251 102.052 -97.9796
5.145267 102.131 -98.5432
5.182552 102.209 -99.1157
5.220107 102.286 -99.6966
5.257934 102.362 -100.2849
5.296035 102.437 -100.8793
5.334412 102.510 -101.4783
5.373067 102.582 -102.0803
5.412003 102.652 -102.6843
5.451221 102.720 -103.2897
5.490722 102.787 -103.8963
5.530510 102.851 -104.5045
5.570587 102.913 -105.1143
5.610953 102.973 -105.7253
5.651613 103.031 -106.3363
5.692567 103.087 -106.9455
5.733818 103.141 -107.5511
5.775367 103.193 -108.1511
5.817218 103.244 -108.7443
5.859372 103.292 -109.3298
5.901831 103.338 -109.9078
5.944598 103.382 -110.4781
5.987675 103.424 -111.0408
6.031065 103.464 -111.5952
6.074768 103.503 -112.1403
6.118788 103.541 -112.6749
6.163127 103.577 -113.1977
6.207788 103.612 -113.7080
6.252772 103.646 -114.2051
6.298082 103.679 -114.6892
6.343721 103.712 -115.1606
6.389690 103.743 -115.6198
6.435992 103.774 -116.0671
6.482630 103.805 -116.5031
6.529606 103.836 -116.9277
6.576922 103.867 -117.3411
6.624581 103.898 -117.7434
6.672585 103.929 -118.1348
6.720938 103.961 -118.5163
6.769640 103.993 -118.8889
6.818696 104.026 -119.2541
6.868107 104.059 -119.6133
6.917876 104.093 -119.9679
6.968006 104.128 -120.3186
7.018499 104.163 -120.6660
7.069358 104.199 -121.0107
7.120586 104.236 -121.3538
7.172184 104.273 -121.6962
7.224157 104.311 -122.0395
7.276506 104.349 -122.3847
7.329235 104.387 -122.7328
7.382345 104.425 -123.0844
7.435841 104.464 -123.4396
7.489724 104.502 -123.7986
7.543997 104.540 -124.1615
7.598664 104.577 -124.5284
7.653728 104.614 -124.8996
7.709189 104.650 -125.2752
7.765053 104.685 -125.6551
7.821322 104.719 -126.0389
7.877998 104.753 -126.4259
7.935086 104.785 -126.8155
7.992587 104.815 -127.2068
8.050504 104.845 -127.5992
8.108841 104.873 -127.9922
8.167601 104.900 -128.3853
8.226787 104.926 -128.7780
8.286402 104.950 -129.1695
8.346449 104.974 -129.5590
8.406931 104.996 -129.9458
8.467851 105.017 -130.3295
8.529212 105.038 -130.7097
8.591018 105.057 -131.0865
8.653272 105.076 -131.4599
8.715977 105.095 -131.8298
8.779137 105.113 -132.1963
8.842754 105.132 -132.5596
8.906833 105.149 -132.9199
8.971375 105.167 -133.2779
9.036386 105.185 -133.6344
9.101867 105.204 -133.9901
9.167823 105.222 -134.3458
9.234257 105.241 -134.7022
9.301172 105.260 -135.0598
9.368572 105.279 -135.4196
9.436460 105.298 -135.7823
9.504841 105.317 -136.1487
9.573717 105.337 -136.5194
9.643092 105.356 -136.8948
9.712970 105.375 -137.2751
9.783354 105.394 -137.6604
9.854248 105.413 -138.0509
9.925656 105.431 -138.4464
9.997581 105.449 -138.8468
10.070028 105.466 -139.2517
10.143000 105.482 -139.6604
10.216500 105.497 -140.0722
10.290533 105.512 -140.4865
10.365103 105.526 -140.9025
10.440212 105.539 -141.3195
10.515866 105.551 -141.7365
10.592069 105.563 -142.1528
10.668823 105.574 -142.5675
10.746134 105.584 -142.9801
10.824005 105.594 -143.3901
10.902440 105.604 -143.7969
10.981443 105.613 -144.2002
11.061020 105.623 -144.6000
11.141172 105.632 -144.9960
11.221906 105.642 -145.3887
11.303225 105.653 -145.7783
11.385133 105.664 -146.1653
11.467634 105.675 -146.5501
11.550734 105.688 -146.9334
11.634435 105.701 -147.3161
11.718742 105.714 -147.6989
11.803661 105.729 -148.0826
11.889195 105.744 -148.4679
11.975349 105.760 -148.8554
12.062128 105.776 -149.2458
12.149535 105.793 -149.6397
12.237576 105.810 -150.0371
12.326254 105.827 -150.4383
12.415575 105.844 -150.8432
12.505544 105.861 -151.2514
12.596164 105.877 -151.6625
12.687441 105.892 -152.0757
12.779379 105.907 -152.4901
12.871984 105.921 -152.9046
12.965260 105.934 -153.3179
13.059211 105.946 -153.7285
13.153843 105.957 -154.1350
13.249161 105.966 -154.5358
13.345170 105.975 -154.9294
13.441875 105.983 -155.3144
13.539280 105.990 -155.6896
13.637391 105.997 -156.0540
13.736214 106.003 -156.4068
13.835752 106.010 -156.7479
13.936011 106.017 -157.0773
14.036998 106.024 -157.3957
14.138716 106.033 -157.7041
14.241171 106.043 -158.0044
14.344368 106.054 -158.2985
14.448313 106.067 -158.5888
14.553011 106.081 -158.8781
14.658468 106.097 -159.1692
14.764689 106.114 -159.4648
14.871680 106.133 -159.7676
14.979446 106.151 -160.0798
15.087994 106.171 -160.4030
15.197328 106.189 -160.7384
15.307454 106.207 -161.0860
15.418378 106.224 -161.4454
15.530106 106.239 -161.8150
15.642643 106.251 -162.1929
15.755996 106.260 -162.5760
15.870171 106.267 -162.9611
15.985172 106.270 -163.3446
16.101007 106.270 -163.7227
16.217682 106.268 -164.0920
16.335201 106.263 -164.4494
16.453573 106.257 -164.7929
16.572803 106.249 -165.1208
16.692898 106.241 -165.4330
16.813862 106.233 -165.7302
16.935701 106.226 -166.0144
17.058424 106.220 -166.2885
17.182035 106.216 -166.5561
17.306543 106.214 -166.8214
17.431953 106.214 -167.0886
17.558273 106.215 -167.3617
17.685509 106.218 -167.6442
17.813665 106.221 -167.9385
17.942751 106.225 -168.2463
18.072771 106.229 -168.5680
18.203733 106.232 -168.9028
18.335646 106.233 -169.2491
18.468513 106.233 -169.6044
18.602345 106.232 -169.9658
18.737144 106.228 -170.3302
18.872921 106.223 -170.6946
19.009682 106.216 -171.0565
19.147434 106.208 -171.4136
19.286184 106.200 -171.7648
19.425940 106.191 -172.1095
19.566708 106.182 -172.4476
19.708496 106.173 -172.7799
19.851313 106.165 -173.1073
19.995163 106.158 -173.4309
20.140057 106.151 -173.7520
20.285999 106.145 -174.0718
20.433001 106.140 -174.3909
20.581066 106.135 -174.7101
20.730206 106.131 -175.0299
20.880424 106.127 -175.3503
21.031733 106.123 -175.6715
21.184137 106.119 -175.9934
21.337646 106.115 -176.3159
21.492268 106.111 -176.6386
21.648010 106.107 -176.9611
21.804880 106.102 -177.2826
21.962887 106.096 -177.6018
22.122040 106.089 -177.9175
22.282345 106.082 -178.2280
22.443811 106.073 -178.5313
22.606449 106.064 -178.8260
22.770266 106.055 -179.1106
22.935268 106.045 -179.3845
23.101467 106.036 -179.6480
23.268869 106.027 -179.9021
23.437485 106.020 179.8508
23.607323 106.014 179.6078
23.778391 106.009 179.3652
23.950699 106.006 179.1191
24.124256 106.003 178.8658
24.299070 106.002 178.6022
24.475151 106.000 178.3260
24.652508 105.998 178.0361
24.831150 105.995 177.7326
25.011087 105.990 177.4170
25.192327 105.982 177.0920
25.374882 105.972 176.7614
25.558758 105.959 176.4297
25.743967 105.942 176.1021
25.930519 105.924 175.7837
26.118422 105.903 175.4792
26.307686 105.881 175.1920
26.498322 105.859 174.9236
26.690340 105.838 174.6731
26.883749 105.820 174.4365
27.078560 105.804 174.2072
27.274782 105.793 173.9766
27.472427 105.785 173.7352
27.671503 105.779 173.4745
27.872023 105.775 173.1891
28.073996 105.771 172.8773
28.277431 105.764 172.5428
28.482342 105.753 172.1941
28.688736 105.737 171.8429
28.896626 105.718 171.5022
29.106022 105.694 171.1833
29.316936 105.669 170.8934
29.529379 105.645 170.6336
29.743361 105.623 170.3986
29.958893 105.605 170.1779
30.175987 105.591 169.9586
30.394655 105.580 169.7296
30.614908 105.571 169.4838
30.836756 105.560 169.2211
31.060211 105.547 168.9473
31.285286 105.532 168.6726
31.511992 105.513 168.4071
31.740341 105.494 168.1570
31.970345 105.475 167.9218
32.202015 105.460 167.6931
32.435364 105.448 167.4570
32.670403 105.438 167.1982
32.907146 105.430 166.9053
33.145607 105.419 166.5754
33.385796 105.403 166.2155
33.627724 105.380 165.8414
33.871403 105.350 165.4739
34.116848 105.313 165.1323
34.364071 105.274 164.8292
34.613087 105.234 164.5673
34.863907 105.198 164.3386
35.116547 105.167 164.1284
35.371017 105.141 163.9201
35.627331 105.120 163.7010
35.885502 105.100 163.4660
36.145542 105.080 163.2176
36.407467 105.060 162.9635
36.671291 105.039 162.7118
36.937027 105.019 162.4672
37.204689 105.001 162.2289
37.474289 104.984 161.9907
37.745842 104.970 161.7444
38.019363 104.957 161.4830
38.294868 104.944 161.2033
38.572369 104.928 160.9071
38.851879 104.909 160.6001
39.133415 104.886 160.2895
39.416992 104.859 159.9826
39.702625 104.829 159.6854
39.990326 104.795 159.4033
40.280113 104.759 159.1421
40.571999 104.721 158.9079
40.866001 104.684 158.7061
41.162132 104.650 158.5368
41.460411 104.622 158.3911
41.760849 104.605 158.2470
42.063465 104.599 158.0716
42.368275 104.604 157.8276
42.675293 104.614 157.4857
42.984535 104.622 157.0362
43.296021 104.622 156.4957
43.609760 104.607 155.9051
43.925774 104.577 155.3190
44.244080 104.533 154.7893
44.564690 104.484 154.3484
44.887623 104.437 154.0006
45.212898 104.397 153.7248
45.540531 104.366 153.4874
45.870537 104.342 153.2600
46.202934 104.320 153.0305
46.537739 104.296 152.8045
46.874969 104.268 152.5982
47.214645 104.234 152.4295
47.556782 104.195 152.3148
47.901398 104.150 152.2712
48.248512 104.101 152.3188
48.598141 104.052 152.4733
48.950302 104.011 152.7304
49.305016 103.984 153.0507
49.662300 103.977 153.3588
50.022175 103.986 153.5661
50.384655 104.002 153.6075
50.749763 104.009 153.4696
51.117516 103.997 153.1925
51.487934 103.962 152.8474
51.861038 103.905 152.5029
52.236843 103.835 152.2003
52.615372 103.760 151.9482
52.996643 103.686 151.7351
53.380680 103.615 151.5475
53.767498 103.552 151.3776
54.157120 103.498 151.2194
54.549564 103.457 151.0593
54.944855 103.429 150.8744
55.343006 103.414 150.6403
55.744045 103.407 150.3448
56.147991 103.402 149.9948
56.554863 103.395 149.6143
56.964684 103.384 149.2340
57.377472 103.369 148.8796
57.793251 103.352 148.5640
58.212044 103.334 148.2848
58.633873 103.316 148.0297
59.058758 103.296 147.7847
59.486721 103.272 147.5421
59.917786 103.242 147.3037
60.351974 103.204 147.0775
60.789310 103.160 146.8715
61.229816 103.111 146.6906
61.673512 103.058 146.5346
62.120422 103.006 146.3980
62.570572 102.956 146.2691
63.023983 102.911 146.1313
63.480682 102.868 145.9709
63.940689 102.827 145.7868
64.404030 102.786 145.5941
64.870728 102.745 145.4150
65.340805 102.707 145.2639
65.814293 102.676 145.1366
66.291214 102.652 145.0143
66.771591 102.634 144.8766
67.255447 102.618 144.7121
67.742805 102.600 144.5205
68.233696 102.577 144.3083
68.728142 102.546 144.0849
69.226173 102.507 143.8625
69.727814 102.459 143.6574
70.233093 102.403 143.4858
70.742035 102.343 143.3562
71.254662 102.285 143.2610
71.771004 102.231 143.1764
72.291084 102.184 143.0716
72.814934 102.141 142.9243
73.342583 102.100 142.7327
73.874054 102.058 142.5162
74.409378 102.014 142.3047
74.948578 101.971 142.1242
75.491684 101.932 141.9842
76.038727 101.899 141.8755
76.589737 101.872 141.7785
77.144737 101.850 141.6761
77.703758 101.827 141.5627
78.266830 101.801 141.4425
