* Measurement data measured by REW V5.31.3
* Source: EXCL: Microphone (USB Sound Device        ), MICROPHONE (Master Volume), R, volume: 0.390
* Format: 256k Log Swept Sine, 1 sweep at -12.0 dBFS with no timing reference
* Dated: May 31, 2025 2:02:40 PM
* REW Settings:
*  C-weighting compensation: Off
*  Target level: 75.0 dB
* Note: Kiwi Ears Astral L
* Measurement: L May 31
* Smoothing: 1/12 octave
* Frequency Step: 96 ppo
* Start Frequency: 0.36621094 Hz
*
* Freq(Hz) SPL(dB) Phase(degrees)
0.366211 91.445 -69.8267
0.368865 91.452 -69.9115
0.371538 91.464 -70.0383
0.374230 91.478 -70.1971
0.376942 91.494 -70.3795
0.379673 91.511 -70.5791
0.382424 91.528 -70.7918
0.385196 91.547 -71.0151
0.387987 91.565 -71.2475
0.390798 91.584 -71.4882
0.393630 91.603 -71.7368
0.396483 91.622 -71.9930
0.399356 91.641 -72.2569
0.402250 91.661 -72.5283
0.405165 91.680 -72.8073
0.408101 91.700 -73.0938
0.411058 91.720 -73.3879
0.414037 91.740 -73.6896
0.417037 91.760 -73.9989
0.420059 91.780 -74.3158
0.423103 91.801 -74.6402
0.426169 91.822 -74.9723
0.429257 91.842 -75.3120
0.432368 91.863 -75.6593
0.435501 91.884 -76.0141
0.438656 91.905 -76.3764
0.441835 91.927 -76.7463
0.445037 91.948 -77.1237
0.448262 91.970 -77.5084
0.451510 91.992 -77.9006
0.454782 92.014 -78.3001
0.458077 92.036 -78.7069
0.461397 92.058 -79.1209
0.464740 92.081 -79.5421
0.468108 92.103 -79.9703
0.471500 92.126 -80.4054
0.474917 92.149 -80.8475
0.478358 92.172 -81.2964
0.481825 92.195 -81.7520
0.485316 92.219 -82.2141
0.488833 92.242 -82.6828
0.492375 92.266 -83.1577
0.495943 92.290 -83.6390
0.499537 92.314 -84.1263
0.503157 92.339 -84.6195
0.506803 92.363 -85.1186
0.510475 92.388 -85.6233
0.514175 92.413 -86.1335
0.517900 92.438 -86.6491
0.521653 92.463 -87.1699
0.525434 92.488 -87.6957
0.529241 92.514 -88.2264
0.533076 92.540 -88.7618
0.536939 92.565 -89.3016
0.540830 92.592 -89.8458
0.544749 92.618 -90.3941
0.548696 92.644 -90.9464
0.552673 92.671 -91.5025
0.556677 92.698 -92.0621
0.560711 92.725 -92.6252
0.564774 92.752 -93.1914
0.568867 92.780 -93.7607
0.572989 92.808 -94.3329
0.577141 92.835 -94.9077
0.581324 92.864 -95.4850
0.585536 92.892 -96.0647
0.589779 92.920 -96.6464
0.594053 92.949 -97.2301
0.598358 92.978 -97.8157
0.602694 93.007 -98.4028
0.607061 93.036 -98.9914
0.611460 93.066 -99.5814
0.615891 93.096 -100.1725
0.620354 93.126 -100.7647
0.624849 93.156 -101.3578
0.629377 93.186 -101.9517
0.633938 93.217 -102.5463
0.638532 93.248 -103.1414
0.643159 93.279 -103.7371
0.647819 93.310 -104.3331
0.652514 93.342 -104.9294
0.657242 93.374 -105.5260
0.662005 93.406 -106.1228
0.666802 93.438 -106.7197
0.671634 93.470 -107.3168
0.676501 93.503 -107.9140
0.681403 93.536 -108.5113
0.686341 93.569 -109.1088
0.691314 93.602 -109.7065
0.696324 93.636 -110.3044
0.701370 93.670 -110.9027
0.706452 93.704 -111.5015
0.711571 93.738 -112.1013
0.716728 93.772 -112.7024
0.721921 93.807 -113.3056
0.727153 93.841 -113.9117
0.732422 93.876 -114.5221
0.737729 93.910 -115.1379
0.743075 93.944 -115.7607
0.748460 93.978 -116.3912
0.753883 94.012 -117.0302
0.759346 94.046 -117.6779
0.764849 94.081 -118.3344
0.770391 94.115 -118.9995
0.775974 94.150 -119.6731
0.781597 94.185 -120.3549
0.787261 94.220 -121.0446
0.792966 94.256 -121.7417
0.798712 94.291 -122.4460
0.804500 94.327 -123.1571
0.810329 94.363 -123.8746
0.816201 94.399 -124.5980
0.822116 94.436 -125.3271
0.828073 94.472 -126.0614
0.834074 94.509 -126.8004
0.840118 94.546 -127.5439
0.846206 94.583 -128.2914
0.852338 94.620 -129.0425
0.858514 94.658 -129.7968
0.864735 94.696 -130.5538
0.871001 94.734 -131.3133
0.877313 94.772 -132.0749
0.883670 94.810 -132.8381
0.890074 94.848 -133.6025
0.896524 94.887 -134.3680
0.903020 94.925 -135.1340
0.909564 94.964 -135.9002
0.916155 95.003 -136.6664
0.922794 95.042 -137.4323
0.929481 95.081 -138.1974
0.936216 95.120 -138.9617
0.943000 95.159 -139.7248
0.949834 95.199 -140.4865
0.956717 95.238 -141.2465
0.963649 95.278 -142.0047
0.970632 95.318 -142.7610
0.977666 95.357 -143.5151
0.984750 95.397 -144.2669
0.991886 95.437 -145.0163
0.999074 95.477 -145.7632
1.006314 95.517 -146.5076
1.013606 95.557 -147.2495
1.020951 95.596 -147.9888
1.028349 95.636 -148.7255
1.035801 95.676 -149.4597
1.043307 95.716 -150.1916
1.050867 95.756 -150.9214
1.058482 95.796 -151.6492
1.066152 95.835 -152.3757
1.073878 95.875 -153.1014
1.081660 95.914 -153.8274
1.089498 95.954 -154.5551
1.097393 95.993 -155.2865
1.105345 96.033 -156.0237
1.113355 96.072 -156.7689
1.121423 96.111 -157.5240
1.129549 96.150 -158.2901
1.137734 96.189 -159.0681
1.145979 96.229 -159.8583
1.154283 96.268 -160.6608
1.162647 96.307 -161.4755
1.171072 96.346 -162.3021
1.179558 96.385 -163.1403
1.188106 96.424 -163.9897
1.196715 96.462 -164.8500
1.205387 96.501 -165.7205
1.214122 96.540 -166.6007
1.222920 96.578 -167.4902
1.231782 96.617 -168.3882
1.240708 96.655 -169.2942
1.249699 96.694 -170.2074
1.258754 96.732 -171.1271
1.267876 96.770 -172.0526
1.277063 96.808 -172.9830
1.286318 96.846 -173.9175
1.295639 96.884 -174.8553
1.305027 96.921 -175.7955
1.314484 96.959 -176.7370
1.324009 96.996 -177.6792
1.333604 97.033 -178.6208
1.343268 97.070 -179.5610
1.353002 97.107 179.5012
1.362806 97.144 178.5669
1.372681 97.180 177.6370
1.382628 97.217 176.7126
1.392647 97.253 175.7946
1.402739 97.288 174.8837
1.412904 97.324 173.9809
1.423142 97.359 173.0865
1.433455 97.394 172.2007
1.443843 97.429 171.3228
1.454305 97.464 170.4517
1.464844 97.498 169.5851
1.475459 97.532 168.7202
1.486150 97.565 167.8542
1.496920 97.599 166.9847
1.507767 97.632 166.1100
1.518693 97.664 165.2291
1.529698 97.697 164.3414
1.540783 97.729 163.4468
1.551948 97.760 162.5455
1.563194 97.792 161.6379
1.574521 97.822 160.7242
1.585931 97.853 159.8050
1.597423 97.883 158.8807
1.608999 97.913 157.9520
1.620658 97.942 157.0195
1.632402 97.971 156.0837
1.644232 97.999 155.1454
1.656146 98.027 154.2053
1.668147 98.054 153.2640
1.680235 98.081 152.3223
1.692411 98.108 151.3809
1.704675 98.134 150.4407
1.717028 98.159 149.5024
1.729470 98.184 148.5669
1.742003 98.209 147.6347
1.754626 98.233 146.7067
1.767341 98.256 145.7832
1.780147 98.279 144.8647
1.793047 98.301 143.9510
1.806040 98.323 143.0415
1.819128 98.344 142.1345
1.832310 98.364 141.2279
1.845587 98.384 140.3188
1.858961 98.403 139.4042
1.872432 98.422 138.4820
1.886001 98.439 137.5505
1.899667 98.456 136.6091
1.913433 98.472 135.6575
1.927299 98.487 134.6960
1.941265 98.502 133.7253
1.955332 98.515 132.7461
1.969501 98.528 131.7595
1.983773 98.540 130.7665
1.998148 98.552 129.7686
2.012627 98.562 128.7671
2.027212 98.572 127.7635
2.041902 98.581 126.7595
2.056698 98.589 125.7568
2.071602 98.596 124.7572
2.086614 98.602 123.7626
2.101734 98.608 122.7750
2.116964 98.613 121.7960
2.132304 98.616 120.8275
2.147756 98.619 119.8705
2.163320 98.621 118.9259
2.178996 98.623 117.9932
2.194786 98.623 117.0711
2.210690 98.622 116.1570
2.226710 98.620 115.2480
2.242845 98.616 114.3414
2.259098 98.612 113.4350
2.275468 98.606 112.5277
2.291957 98.599 111.6188
2.308566 98.591 110.7082
2.325295 98.581 109.7963
2.342145 98.571 108.8837
2.359117 98.559 107.9714
2.376212 98.546 107.0604
2.393431 98.533 106.1522
2.410775 98.518 105.2484
2.428244 98.503 104.3505
2.445840 98.486 103.4607
2.463564 98.469 102.5809
2.481416 98.452 101.7132
2.499397 98.433 100.8597
2.517509 98.414 100.0223
2.535752 98.394 99.2022
2.554127 98.373 98.4003
2.572635 98.351 97.6162
2.591277 98.328 96.8490
2.610055 98.304 96.0974
2.628968 98.278 95.3600
2.648019 98.251 94.6356
2.667208 98.223 93.9232
2.686535 98.194 93.2222
2.706003 98.164 92.5321
2.725612 98.133 91.8528
2.745363 98.101 91.1842
2.765257 98.069 90.5266
2.785295 98.038 89.8803
2.805478 98.006 89.2461
2.825808 97.975 88.6247
2.846285 97.944 88.0172
2.866910 97.914 87.4251
2.887685 97.885 86.8499
2.908611 97.857 86.2936
2.929688 97.830 85.7582
2.950917 97.804 85.2455
2.972301 97.777 84.7569
2.993839 97.752 84.2928
3.015534 97.726 83.8531
3.037386 97.701 83.4369
3.059396 97.677 83.0427
3.081565 97.654 82.6689
3.103896 97.632 82.3135
3.126388 97.611 81.9748
3.149043 97.592 81.6505
3.171862 97.576 81.3389
3.194847 97.562 81.0381
3.217998 97.551 80.7470
3.241317 97.543 80.4649
3.264805 97.539 80.1923
3.288463 97.538 79.9307
3.312293 97.541 79.6824
3.336295 97.548 79.4501
3.360471 97.559 79.2354
3.384822 97.573 79.0382
3.409350 97.591 78.8573
3.434056 97.612 78.6899
3.458940 97.636 78.5328
3.484005 97.664 78.3817
3.509252 97.694 78.2324
3.534681 97.728 78.0805
3.560295 97.764 77.9218
3.586094 97.803 77.7527
3.612081 97.845 77.5706
3.638255 97.891 77.3739
3.664620 97.939 77.1628
3.691175 97.991 76.9388
3.717923 98.046 76.7038
3.744864 98.105 76.4590
3.772001 98.167 76.2051
3.799335 98.233 75.9419
3.826866 98.301 75.6685
3.854597 98.371 75.3835
3.882529 98.442 75.0852
3.910664 98.515 74.7716
3.939002 98.587 74.4409
3.967546 98.660 74.0912
3.996296 98.732 73.7210
4.025255 98.804 73.3294
4.054423 98.876 72.9159
4.083804 98.948 72.4811
4.113396 99.020 72.0262
4.143204 99.092 71.5527
4.173227 99.163 71.0627
4.203468 99.234 70.5580
4.233928 99.304 70.0405
4.264609 99.373 69.5119
4.295512 99.439 68.9731
4.326639 99.504 68.4249
4.357992 99.566 67.8668
4.389572 99.625 67.2981
4.421380 99.682 66.7175
4.453419 99.736 66.1240
4.485691 99.787 65.5180
4.518196 99.835 64.9009
4.550936 99.881 64.2753
4.583914 99.924 63.6444
4.617131 99.965 63.0119
4.650589 100.002 62.3810
4.684289 100.037 61.7547
4.718233 100.068 61.1347
4.752424 100.096 60.5215
4.786862 100.121 59.9144
4.821549 100.143 59.3125
4.856488 100.161 58.7152
4.891680 100.176 58.1230
4.927127 100.188 57.5377
4.962831 100.197 56.9616
4.998794 100.204 56.3979
5.035017 100.208 55.8498
5.071503 100.211 55.3199
5.108253 100.212 54.8103
5.145270 100.210 54.3221
5.182555 100.207 53.8552
5.220110 100.202 53.4092
5.257937 100.195 52.9835
5.296038 100.186 52.5779
5.334415 100.177 52.1922
5.373071 100.168 51.8269
5.412006 100.159 51.4827
5.451224 100.150 51.1606
5.490725 100.142 50.8616
5.530514 100.136 50.5865
5.570590 100.130 50.3351
5.610957 100.126 50.1065
5.651616 100.123 49.8984
5.692570 100.121 49.7078
5.733821 100.122 49.5317
5.775370 100.125 49.3671
5.817221 100.131 49.2119
5.859375 100.140 49.0648
5.901834 100.152 48.9253
5.944602 100.167 48.7926
5.987679 100.186 48.6651
6.031068 100.207 48.5402
6.074771 100.231 48.4143
6.118792 100.257 48.2834
6.163131 100.285 48.1441
6.207792 100.315 47.9936
6.252776 100.348 47.8304
6.298086 100.382 47.6539
6.343725 100.418 47.4639
6.389694 100.455 47.2600
6.435996 100.492 47.0417
6.482634 100.530 46.8081
6.529610 100.568 46.5580
6.576926 100.605 46.2907
6.624585 100.640 46.0056
6.672590 100.675 45.7032
6.720942 100.708 45.3845
6.769645 100.739 45.0514
6.818700 100.768 44.7062
6.868111 100.795 44.3511
6.917881 100.819 43.9877
6.968010 100.840 43.6173
7.018504 100.858 43.2406
7.069362 100.873 42.8589
7.120590 100.885 42.4742
7.172189 100.894 42.0893
7.224161 100.900 41.7072
7.276511 100.902 41.3307
7.329239 100.903 40.9619
7.382350 100.900 40.6022
7.435845 100.895 40.2525
7.489729 100.887 39.9136
7.544002 100.877 39.5868
7.598669 100.866 39.2735
7.653732 100.854 38.9750
7.709194 100.841 38.6925
7.765058 100.827 38.4261
7.821327 100.813 38.1754
7.878004 100.799 37.9395
7.935091 100.785 37.7168
7.992592 100.773 37.5060
8.050510 100.761 37.3060
8.108847 100.751 37.1155
8.167607 100.742 36.9332
8.226793 100.735 36.7570
8.286408 100.730 36.5842
8.346454 100.726 36.4118
8.406936 100.724 36.2373
8.467856 100.724 36.0588
8.529218 100.725 35.8747
8.591024 100.728 35.6835
8.653278 100.732 35.4837
8.715983 100.736 35.2736
8.779143 100.741 35.0518
8.842760 100.746 34.8177
8.906839 100.752 34.5709
8.971381 100.756 34.3118
9.036392 100.761 34.0412
9.101873 100.764 33.7597
9.167829 100.766 33.4682
9.234263 100.767 33.1675
9.301178 100.766 32.8590
9.368578 100.763 32.5443
9.436467 100.759 32.2254
9.504847 100.754 31.9041
9.573723 100.747 31.5818
9.643099 100.738 31.2600
9.712976 100.728 30.9398
9.783361 100.717 30.6224
9.854255 100.705 30.3091
9.925663 100.693 30.0007
9.997588 100.680 29.6976
10.070035 100.666 29.4000
10.143007 100.653 29.1075
10.216507 100.640 28.8199
10.290540 100.628 28.5367
10.365109 100.617 28.2573
10.440219 100.606 27.9807
10.515873 100.596 27.7059
10.592076 100.587 27.4316
10.668830 100.579 27.1570
10.746141 100.572 26.8812
10.824012 100.566 26.6033
10.902447 100.560 26.3229
10.981451 100.555 26.0392
11.061027 100.551 25.7520
11.141180 100.548 25.4612
11.221913 100.544 25.1670
11.303232 100.541 24.8699
11.385140 100.538 24.5701
11.467641 100.535 24.2682
11.550741 100.533 23.9648
11.634442 100.530 23.6606
11.718750 100.527 23.3563
11.803669 100.525 23.0524
11.889203 100.522 22.7493
11.975357 100.520 22.4473
12.062136 100.518 22.1467
12.149543 100.517 21.8476
12.237583 100.515 21.5500
12.326262 100.514 21.2539
12.415583 100.514 20.9590
12.505552 100.514 20.6653
12.596172 100.514 20.3727
12.687449 100.514 20.0812
12.779387 100.514 19.7909
12.871992 100.515 19.5019
12.965268 100.515 19.2146
13.059220 100.515 18.9295
13.153852 100.515 18.6472
13.249170 100.515 18.3684
13.345179 100.515 18.0937
13.441884 100.514 17.8237
13.539289 100.513 17.5591
13.637401 100.512 17.3002
13.736223 100.511 17.0472
13.835761 100.511 16.8002
13.936021 100.510 16.5587
14.037007 100.510 16.3223
14.138725 100.510 16.0903
14.241180 100.511 15.8617
14.344377 100.512 15.6354
14.448323 100.513 15.4104
14.553021 100.515 15.1858
14.658478 100.516 14.9606
14.764700 100.518 14.7341
14.871691 100.519 14.5062
14.979457 100.520 14.2768
15.088005 100.520 14.0461
15.197339 100.519 13.8147
15.307465 100.517 13.5835
15.418389 100.514 13.3533
15.530117 100.509 13.1251
15.642655 100.504 12.8998
15.756008 100.498 12.6782
15.870182 100.492 12.4606
15.985184 100.484 12.2471
16.101019 100.477 12.0375
16.217694 100.469 11.8309
16.335214 100.461 11.6267
16.453586 100.453 11.4234
16.572815 100.446 11.2197
16.692909 100.438 11.0142
16.813872 100.431 10.8058
16.935713 100.424 10.5932
17.058436 100.416 10.3759
17.182048 100.408 10.1534
17.306556 100.400 9.9260
17.431967 100.391 9.6937
17.558286 100.381 9.4573
17.685521 100.371 9.2177
17.813677 100.360 8.9753
17.942762 100.349 8.7312
18.072783 100.337 8.4860
18.203746 100.325 8.2399
18.335658 100.313 7.9930
18.468526 100.301 7.7454
18.602356 100.289 7.4967
18.737156 100.278 7.2465
18.872934 100.267 6.9944
19.009695 100.257 6.7401
19.147447 100.246 6.4832
19.286197 100.237 6.2237
19.425953 100.227 5.9618
19.566721 100.218 5.6976
19.708510 100.210 5.4316
19.851326 100.201 5.1644
19.995177 100.193 4.8962
20.140070 100.186 4.6276
20.286013 100.179 4.3589
20.433014 100.172 4.0903
20.581080 100.166 3.8224
20.730219 100.160 3.5553
20.880439 100.154 3.2893
21.031747 100.149 3.0248
21.184152 100.144 2.7625
21.337661 100.139 2.5026
21.492282 100.134 2.2458
21.648024 100.130 1.9927
21.804895 100.125 1.7433
21.962902 100.121 1.4978
22.122054 100.117 1.2561
22.282360 100.114 1.0180
22.443827 100.110 0.7830
22.606464 100.107 0.5507
22.770280 100.103 0.3206
22.935283 100.099 0.0927
23.101481 100.095 -0.1331
23.268884 100.090 -0.3566
23.437500 100.085 -0.5773
23.607338 100.079 -0.7948
23.778406 100.072 -1.0089
23.950714 100.065 -1.2192
24.124271 100.057 -1.4261
24.299086 100.049 -1.6301
24.475167 100.041 -1.8321
24.652524 100.032 -2.0332
24.831166 100.023 -2.2345
25.011103 100.014 -2.4370
25.192344 100.004 -2.6414
25.374898 99.993 -2.8482
25.558775 99.982 -3.0575
25.743984 99.970 -3.2690
25.930536 99.958 -3.4827
26.118439 99.945 -3.6980
26.307704 99.932 -3.9149
26.498341 99.918 -4.1333
26.690359 99.904 -4.3534
26.883768 99.890 -4.5755
27.078579 99.876 -4.7998
27.274801 99.862 -5.0265
27.472446 99.849 -5.2557
27.671522 99.835 -5.4874
27.872042 99.822 -5.7214
28.074014 99.808 -5.9574
28.277450 99.795 -6.1953
28.482360 99.782 -6.4346
28.688755 99.770 -6.6752
28.896645 99.758 -6.9165
29.106042 99.746 -7.1581
29.316957 99.734 -7.3992
29.529400 99.722 -7.6392
29.743382 99.710 -7.8771
29.958915 99.699 -8.1122
30.176009 99.688 -8.3441
30.394677 99.676 -8.5721
30.614929 99.665 -8.7963
30.836778 99.655 -9.0168
31.060234 99.644 -9.2336
31.285309 99.634 -9.4473
31.512015 99.623 -9.6580
31.740364 99.613 -9.8661
31.970368 99.602 -10.0723
32.202039 99.592 -10.2770
32.435388 99.581 -10.4811
32.670428 99.570 -10.6853
32.907171 99.559 -10.8904
33.145630 99.547 -11.0971
33.385817 99.535 -11.3057
33.627745 99.522 -11.5161
33.871425 99.508 -11.7283
34.116871 99.494 -11.9418
34.364096 99.478 -12.1563
34.613113 99.462 -12.3717
34.863934 99.446 -12.5880
35.116572 99.429 -12.8052
35.371041 99.412 -13.0234
35.627354 99.394 -13.2428
35.885525 99.376 -13.4635
36.145566 99.358 -13.6854
36.407492 99.340 -13.9083
36.671316 99.322 -14.1317
36.937051 99.304 -14.3555
37.204712 99.285 -14.5789
37.474313 99.267 -14.8014
37.745867 99.249 -15.0227
38.019389 99.230 -15.2424
38.294893 99.212 -15.4604
38.572394 99.194 -15.6766
38.851905 99.176 -15.8910
39.133442 99.158 -16.1036
39.417019 99.140 -16.3142
39.702651 99.122 -16.5227
39.990353 99.104 -16.7289
40.280140 99.085 -16.9326
40.572026 99.066 -17.1339
40.866028 99.046 -17.3331
41.162160 99.027 -17.5306
41.460438 99.007 -17.7266
41.760877 98.986 -17.9214
42.063494 98.966 -18.1152
42.368303 98.945 -18.3083
42.675322 98.923 -18.5009
42.984565 98.901 -18.6931
43.296048 98.879 -18.8855
43.609789 98.857 -19.0781
43.925804 98.835 -19.2712
44.244108 98.812 -19.4647
44.564719 98.789 -19.6585
44.887654 98.766 -19.8525
45.212928 98.743 -20.0464
45.540560 98.720 -20.2397
45.870565 98.696 -20.4322
46.202962 98.672 -20.6232
46.537768 98.648 -20.8121
46.875000 98.624 -20.9987
47.214676 98.600 -21.1825
47.556813 98.576 -21.3635
47.901429 98.551 -21.5416
48.248542 98.527 -21.7169
48.598171 98.502 -21.8897
48.950334 98.477 -22.0605
49.305048 98.453 -22.2297
49.662333 98.428 -22.3978
50.022206 98.403 -22.5654
50.384688 98.379 -22.7327
50.749796 98.354 -22.8998
51.117550 98.329 -23.0670
51.487969 98.304 -23.2346
51.861072 98.278 -23.4026
52.236879 98.253 -23.5713
52.615409 98.227 -23.7399
52.996681 98.201 -23.9077
53.380717 98.174 -24.0731
53.767536 98.147 -24.2352
54.157158 98.120 -24.3932
54.549603 98.094 -24.5479
54.944892 98.067 -24.7003
55.343045 98.041 -24.8523
55.744084 98.015 -25.0055
56.148028 97.989 -25.1608
56.554900 97.963 -25.3189
56.964720 97.936 -25.4799
57.377510 97.909 -25.6434
57.793291 97.881 -25.8090
58.212085 97.852 -25.9760
58.633914 97.823 -26.1436
59.058799 97.793 -26.3111
59.486764 97.762 -26.4779
59.917829 97.730 -26.6434
60.352019 97.698 -26.8072
60.789354 97.666 -26.9689
61.229859 97.634 -27.1281
61.673556 97.600 -27.2842
62.120468 97.567 -27.4365
62.570618 97.533 -27.5844
63.024031 97.499 -27.7274
63.480729 97.465 -27.8649
63.940736 97.431 -27.9966
64.404077 97.396 -28.1227
64.870776 97.362 -28.2440
65.340856 97.327 -28.3619
65.814343 97.293 -28.4777
66.291261 97.258 -28.5920
66.771635 97.224 -28.7057
67.255489 97.190 -28.8188
67.742850 97.155 -28.9316
68.233743 97.121 -29.0448
68.728193 97.086 -29.1589
69.226226 97.052 -29.2745
69.727867 97.017 -29.3915
70.233144 96.982 -29.5085
70.742083 96.947 -29.6239
71.254709 96.912 -29.7357
71.771050 96.877 -29.8433
72.291132 96.842 -29.9473
72.814984 96.807 -30.0489
73.342631 96.773 -30.1493
73.874102 96.739 -30.2497
74.409424 96.705 -30.3506
74.948626 96.671 -30.4515
75.491734 96.636 -30.5510
76.038779 96.600 -30.6478
76.589787 96.565 -30.7411
77.144788 96.529 -30.8316
77.703811 96.493 -30.9202
78.266885 96.457 -31.0077
78.834039 96.420 -31.0953
79.405303 96.384 -31.1843
79.980706 96.347 -31.2764
80.560280 96.310 -31.3735
81.144053 96.273 -31.4772
81.732056 96.234 -31.5880
82.324320 96.194 -31.7048
82.920876 96.153 -31.8251
83.521755 96.109 -31.9449
84.126988 96.064 -32.0603
84.736607 96.017 -32.1677
85.350643 95.968 -32.2639
85.969129 95.919 -32.3472
86.592097 95.869 -32.4169
87.219579 95.819 -32.4736
87.851608 95.770 -32.5186
88.488217 95.720 -32.5533
89.129439 95.672 -32.5800
89.775308 95.624 -32.6005
90.425856 95.576 -32.6172
91.081119 95.529 -32.6327
91.741131 95.483 -32.6483
92.405925 95.436 -32.6637
93.075536 95.389 -32.6764
93.750000 95.342 -32.6844
