* Measurement data measured by REW V5.31
* Source: EXCL: Microphone (USB Sound Device        ), MICROPHONE (Master Volume), L, volume: 0.250
* Format: 256k Log Swept Sine, 1 sweep at -10.0 dBFS with no timing reference
* Dated: Jul 1, 2024 1:23:13 AM
* REW Settings:
*  C-weighting compensation: Off
*  Target level: 75.0 dB
* Note: KZ AS10 PRO R
* Measurement: R KZ AS10 PRO
* Smoothing: 1/12 octave
* Frequency Step: 96 ppo
* Start Frequency: 0.36621094 Hz
*
* Freq(Hz) SPL(dB) Phase(degrees)
0.366211 85.381 162.1281
0.368865 85.377 162.1102
0.371538 85.371 162.0833
0.374230 85.363 162.0495
0.376942 85.354 162.0107
0.379673 85.345 161.9680
0.382424 85.335 161.9224
0.385196 85.325 161.8743
0.387987 85.315 161.8241
0.390798 85.305 161.7718
0.393630 85.294 161.7177
0.396483 85.284 161.6616
0.399356 85.273 161.6037
0.402250 85.262 161.5439
0.405165 85.252 161.4822
0.408101 85.241 161.4186
0.411058 85.230 161.3531
0.414037 85.219 161.2857
0.417037 85.208 161.2163
0.420059 85.196 161.1449
0.423103 85.185 161.0716
0.426169 85.174 160.9963
0.429257 85.162 160.9189
0.432368 85.151 160.8395
0.435501 85.139 160.7581
0.438656 85.128 160.6746
0.441835 85.116 160.5891
0.445037 85.104 160.5015
0.448262 85.092 160.4118
0.451510 85.080 160.3199
0.454782 85.068 160.2260
0.458077 85.056 160.1300
0.461397 85.043 160.0318
0.464740 85.031 159.9314
0.468108 85.019 159.8289
0.471500 85.006 159.7243
0.474917 84.993 159.6175
0.478358 84.981 159.5085
0.481825 84.968 159.3973
0.485316 84.955 159.2839
0.488833 84.942 159.1684
0.492375 84.929 159.0507
0.495943 84.916 158.9308
0.499537 84.902 158.8087
0.503157 84.889 158.6844
0.506803 84.875 158.5579
0.510475 84.862 158.4292
0.514175 84.848 158.2984
0.517900 84.834 158.1654
0.521653 84.820 158.0303
0.525434 84.806 157.8930
0.529241 84.792 157.7536
0.533076 84.778 157.6120
0.536939 84.764 157.4684
0.540830 84.749 157.3227
0.544749 84.735 157.1749
0.548696 84.720 157.0251
0.552673 84.706 156.8732
0.556677 84.691 156.7194
0.560711 84.676 156.5636
0.564774 84.661 156.4059
0.568867 84.646 156.2463
0.572989 84.630 156.0848
0.577141 84.615 155.9215
0.581324 84.600 155.7565
0.585536 84.584 155.5897
0.589779 84.568 155.4213
0.594053 84.552 155.2513
0.598358 84.537 155.0797
0.602694 84.521 154.9066
0.607061 84.504 154.7320
0.611460 84.488 154.5562
0.615891 84.472 154.3790
0.620354 84.455 154.2006
0.624849 84.439 154.0211
0.629377 84.422 153.8406
0.633938 84.405 153.6591
0.638532 84.388 153.4768
0.643159 84.371 153.2938
0.647819 84.354 153.1101
0.652514 84.336 152.9259
0.657242 84.319 152.7413
0.662005 84.301 152.5565
0.666802 84.283 152.3715
0.671634 84.265 152.1866
0.676501 84.247 152.0017
0.681403 84.229 151.8172
0.686341 84.211 151.6332
0.691314 84.193 151.4498
0.696324 84.174 151.2672
0.701370 84.155 151.0856
0.706452 84.136 150.9050
0.711571 84.117 150.7255
0.716728 84.097 150.5472
0.721921 84.076 150.3699
0.727153 84.055 150.1934
0.732422 84.032 150.0171
0.737729 84.009 149.8404
0.743075 83.984 149.6628
0.748460 83.957 149.4834
0.753883 83.930 149.3021
0.759346 83.903 149.1183
0.764849 83.874 148.9321
0.770391 83.845 148.7431
0.775974 83.816 148.5515
0.781597 83.786 148.3570
0.787261 83.755 148.1599
0.792966 83.724 147.9599
0.798712 83.693 147.7572
0.804500 83.661 147.5518
0.810329 83.628 147.3436
0.816201 83.595 147.1327
0.822116 83.562 146.9191
0.828073 83.528 146.7028
0.834074 83.493 146.4840
0.840118 83.458 146.2626
0.846206 83.423 146.0386
0.852338 83.387 145.8122
0.858514 83.350 145.5834
0.864735 83.313 145.3522
0.871001 83.276 145.1188
0.877313 83.237 144.8831
0.883670 83.199 144.6454
0.890074 83.160 144.4057
0.896524 83.120 144.1641
0.903020 83.080 143.9207
0.909564 83.039 143.6757
0.916155 82.997 143.4292
0.922794 82.956 143.1813
0.929481 82.913 142.9323
0.936216 82.870 142.6822
0.943000 82.827 142.4314
0.949834 82.783 142.1799
0.956717 82.738 141.9280
0.963649 82.693 141.6760
0.970632 82.647 141.4241
0.977666 82.601 141.1726
0.984750 82.554 140.9217
0.991886 82.506 140.6718
0.999074 82.459 140.4233
1.006314 82.410 140.1764
1.013606 82.361 139.9316
1.020951 82.311 139.6892
1.028349 82.261 139.4497
1.035801 82.210 139.2135
1.043307 82.159 138.9811
1.050867 82.107 138.7531
1.058482 82.055 138.5298
1.066152 82.002 138.3119
1.073878 81.948 138.0999
1.081660 81.894 137.8943
1.089498 81.839 137.6954
1.097393 81.784 137.5038
1.105345 81.727 137.3196
1.113355 81.669 137.1431
1.121423 81.611 136.9742
1.129549 81.551 136.8132
1.137734 81.489 136.6599
1.145979 81.427 136.5144
1.154283 81.363 136.3768
1.162647 81.299 136.2471
1.171072 81.233 136.1252
1.179558 81.166 136.0112
1.188106 81.097 135.9051
1.196715 81.028 135.8068
1.205387 80.958 135.7165
1.214122 80.887 135.6340
1.222920 80.815 135.5593
1.231782 80.742 135.4925
1.240708 80.668 135.4334
1.249699 80.594 135.3821
1.258754 80.518 135.3384
1.267876 80.443 135.3024
1.277063 80.366 135.2738
1.286318 80.290 135.2526
1.295639 80.213 135.2387
1.305027 80.135 135.2318
1.314484 80.058 135.2319
1.324009 79.980 135.2387
1.333604 79.902 135.2520
1.343268 79.824 135.2715
1.353002 79.746 135.2969
1.362806 79.669 135.3279
1.372681 79.592 135.3641
1.382628 79.515 135.4051
1.392647 79.439 135.4504
1.402739 79.363 135.4998
1.412904 79.289 135.5527
1.423142 79.215 135.6090
1.433455 79.141 135.6686
1.443843 79.069 135.7319
1.454305 78.998 135.7997
1.464844 78.927 135.8736
1.475459 78.856 135.9555
1.486150 78.786 136.0476
1.496920 78.715 136.1517
1.507767 78.644 136.2691
1.518693 78.573 136.4009
1.529698 78.502 136.5474
1.540783 78.431 136.7090
1.551948 78.359 136.8856
1.563194 78.288 137.0771
1.574521 78.216 137.2833
1.585931 78.145 137.5038
1.597423 78.075 137.7383
1.608999 78.005 137.9863
1.620658 77.936 138.2473
1.632402 77.867 138.5204
1.644232 77.800 138.8052
1.656146 77.734 139.1006
1.668147 77.670 139.4059
1.680235 77.607 139.7199
1.692411 77.546 140.0417
1.704675 77.487 140.3700
1.717028 77.431 140.7036
1.729470 77.377 141.0410
1.742003 77.326 141.3810
1.754626 77.277 141.7219
1.767341 77.233 142.0626
1.780147 77.191 142.4018
1.793047 77.154 142.7387
1.806040 77.120 143.0730
1.819128 77.091 143.4054
1.832310 77.066 143.7372
1.845587 77.045 144.0704
1.858961 77.030 144.4069
1.872432 77.019 144.7481
1.886001 77.013 145.0943
1.899667 77.011 145.4452
1.913433 77.014 145.7997
1.927299 77.021 146.1563
1.941265 77.032 146.5132
1.955332 77.046 146.8684
1.969501 77.065 147.2199
1.983773 77.087 147.5654
1.998148 77.112 147.9027
2.012627 77.141 148.2296
2.027212 77.172 148.5440
2.041902 77.205 148.8434
2.056698 77.241 149.1259
2.071602 77.279 149.3890
2.086614 77.318 149.6308
2.101734 77.359 149.8491
2.116964 77.400 150.0418
2.132304 77.443 150.2073
2.147756 77.486 150.3438
2.163320 77.530 150.4503
2.178996 77.575 150.5260
2.194786 77.621 150.5709
2.210690 77.668 150.5857
2.226710 77.718 150.5715
2.242845 77.769 150.5295
2.259098 77.824 150.4607
2.275468 77.880 150.3660
2.291957 77.940 150.2463
2.308566 78.001 150.1022
2.325295 78.065 149.9342
2.342145 78.131 149.7430
2.359117 78.198 149.5289
2.376212 78.267 149.2926
2.393431 78.336 149.0345
2.410775 78.406 148.7548
2.428244 78.477 148.4540
2.445840 78.547 148.1322
2.463564 78.617 147.7895
2.481416 78.685 147.4257
2.499397 78.753 147.0406
2.517509 78.819 146.6334
2.535752 78.884 146.2030
2.554127 78.947 145.7478
2.572635 79.009 145.2662
2.591277 79.069 144.7565
2.610055 79.128 144.2180
2.628968 79.186 143.6506
2.648019 79.244 143.0554
2.667208 79.301 142.4337
2.686535 79.357 141.7878
2.706003 79.412 141.1197
2.725612 79.467 140.4320
2.745363 79.521 139.7270
2.765257 79.574 139.0072
2.785295 79.626 138.2748
2.805478 79.678 137.5322
2.825808 79.728 136.7810
2.846285 79.777 136.0229
2.866910 79.825 135.2588
2.887685 79.872 134.4887
2.908611 79.917 133.7117
2.929688 79.962 132.9258
2.950917 80.004 132.1281
2.972301 80.046 131.3160
2.993839 80.086 130.4877
3.015534 80.124 129.6427
3.037386 80.161 128.7815
3.059396 80.197 127.9054
3.081565 80.231 127.0166
3.103896 80.264 126.1172
3.126388 80.296 125.2101
3.149043 80.327 124.2978
3.171862 80.357 123.3831
3.194847 80.386 122.4684
3.217998 80.415 121.5558
3.241317 80.442 120.6467
3.264805 80.469 119.7415
3.288463 80.495 118.8392
3.312293 80.520 117.9380
3.336295 80.544 117.0354
3.360471 80.567 116.1294
3.384822 80.588 115.2192
3.409350 80.609 114.3049
3.434056 80.628 113.3876
3.458940 80.647 112.4692
3.484005 80.665 111.5522
3.509252 80.683 110.6394
3.534681 80.700 109.7337
3.560295 80.717 108.8382
3.586094 80.734 107.9558
3.612081 80.751 107.0888
3.638255 80.769 106.2387
3.664620 80.786 105.4059
3.691175 80.804 104.5899
3.717923 80.821 103.7895
3.744864 80.838 103.0035
3.772001 80.856 102.2308
3.799335 80.873 101.4710
3.826866 80.891 100.7237
3.854597 80.909 99.9894
3.882529 80.928 99.2685
3.910664 80.948 98.5619
3.939002 80.970 97.8708
3.967546 80.994 97.1965
3.996296 81.019 96.5403
4.025255 81.046 95.9037
4.054423 81.076 95.2877
4.083804 81.107 94.6927
4.113396 81.140 94.1185
4.143204 81.175 93.5640
4.173227 81.212 93.0278
4.203468 81.251 92.5081
4.233928 81.292 92.0031
4.264609 81.336 91.5109
4.295512 81.382 91.0303
4.326639 81.432 90.5601
4.357992 81.484 90.1001
4.389572 81.540 89.6509
4.421380 81.600 89.2133
4.453419 81.662 88.7882
4.485691 81.728 88.3754
4.518196 81.797 87.9740
4.550936 81.870 87.5819
4.583914 81.945 87.1965
4.617131 82.022 86.8148
4.650589 82.103 86.4339
4.684289 82.185 86.0513
4.718233 82.270 85.6652
4.752424 82.357 85.2748
4.786862 82.446 84.8802
4.821549 82.538 84.4822
4.856488 82.632 84.0812
4.891680 82.728 83.6774
4.927127 82.825 83.2703
4.962831 82.924 82.8590
4.998794 83.024 82.4424
5.035017 83.125 82.0192
5.071503 83.225 81.5882
5.108253 83.325 81.1484
5.145270 83.425 80.6995
5.182555 83.525 80.2416
5.220110 83.625 79.7755
5.257937 83.724 79.3023
5.296038 83.823 78.8233
5.334415 83.921 78.3399
5.373071 84.017 77.8532
5.412006 84.112 77.3640
5.451224 84.206 76.8727
5.490725 84.297 76.3792
5.530514 84.386 75.8834
5.570590 84.473 75.3853
5.610957 84.559 74.8857
5.651616 84.642 74.3862
5.692570 84.723 73.8886
5.733821 84.801 73.3952
5.775370 84.878 72.9078
5.817221 84.952 72.4279
5.859375 85.025 71.9562
5.901834 85.094 71.4927
5.944602 85.162 71.0375
5.987679 85.227 70.5909
6.031068 85.290 70.1536
6.074771 85.351 69.7271
6.118792 85.411 69.3126
6.163131 85.469 68.9117
6.207792 85.526 68.5252
6.252776 85.581 68.1538
6.298086 85.635 67.7973
6.343725 85.688 67.4552
6.389694 85.740 67.1272
6.435996 85.792 66.8126
6.482634 85.843 66.5112
6.529610 85.893 66.2227
6.576926 85.944 65.9470
6.624585 85.995 65.6839
6.672590 86.046 65.4329
6.720942 86.098 65.1931
6.769645 86.149 64.9630
6.818700 86.201 64.7407
6.868111 86.254 64.5247
6.917881 86.307 64.3133
6.968010 86.361 64.1056
7.018504 86.416 63.9006
7.069362 86.471 63.6977
7.120590 86.527 63.4957
7.172189 86.583 63.2930
7.224161 86.639 63.0880
7.276511 86.696 62.8793
7.329239 86.752 62.6656
7.382350 86.809 62.4465
7.435845 86.865 62.2215
7.489729 86.920 61.9906
7.544002 86.975 61.7534
7.598669 87.030 61.5098
7.653732 87.083 61.2595
7.709194 87.135 61.0023
7.765058 87.185 60.7384
7.821327 87.234 60.4682
7.878004 87.281 60.1925
7.935091 87.327 59.9120
7.992592 87.371 59.6278
8.050510 87.413 59.3405
8.108847 87.454 59.0508
8.167607 87.492 58.7590
8.226793 87.528 58.4660
8.286408 87.563 58.1727
8.346454 87.596 57.8799
8.406936 87.627 57.5887
8.467856 87.657 57.2994
8.529218 87.686 57.0123
8.591024 87.713 56.7276
8.653278 87.739 56.4453
8.715983 87.764 56.1656
8.779143 87.788 55.8885
8.842760 87.812 55.6138
8.906839 87.835 55.3412
8.971381 87.858 55.0701
9.036392 87.881 54.7996
9.101873 87.903 54.5290
9.167829 87.926 54.2574
9.234263 87.948 53.9843
9.301178 87.971 53.7088
9.368578 87.993 53.4300
9.436467 88.016 53.1470
9.504847 88.039 52.8589
9.573723 88.061 52.5651
9.643099 88.083 52.2649
9.712976 88.104 51.9581
9.783361 88.123 51.6444
9.854255 88.141 51.3233
9.925663 88.156 50.9949
9.997588 88.168 50.6591
10.070035 88.178 50.3161
10.143007 88.186 49.9663
10.216507 88.191 49.6101
10.290540 88.195 49.2480
10.365109 88.197 48.8803
10.440219 88.198 48.5076
10.515873 88.198 48.1305
10.592076 88.197 47.7495
10.668830 88.195 47.3652
10.746141 88.194 46.9779
10.824012 88.192 46.5880
10.902447 88.191 46.1959
10.981451 88.189 45.8019
11.061027 88.188 45.4061
11.141180 88.187 45.0086
11.221913 88.187 44.6096
11.303232 88.187 44.2090
11.385140 88.187 43.8069
11.467641 88.188 43.4033
11.550741 88.190 42.9983
11.634442 88.193 42.5917
11.718750 88.197 42.1839
11.803669 88.202 41.7747
11.889203 88.207 41.3645
11.975357 88.214 40.9535
12.062136 88.222 40.5420
12.149543 88.231 40.1302
12.237583 88.240 39.7185
12.326262 88.251 39.3074
12.415583 88.262 38.8971
12.505552 88.273 38.4882
12.596172 88.286 38.0808
12.687449 88.298 37.6754
12.779387 88.312 37.2722
12.871992 88.325 36.8715
12.965268 88.340 36.4733
13.059220 88.355 36.0780
13.153852 88.370 35.6855
13.249170 88.387 35.2961
13.345179 88.404 34.9098
13.441884 88.421 34.5267
13.539289 88.439 34.1471
13.637401 88.457 33.7710
13.736223 88.476 33.3987
13.835761 88.494 33.0306
13.936021 88.513 32.6668
14.037007 88.531 32.3076
14.138725 88.549 31.9535
14.241180 88.567 31.6047
14.344377 88.584 31.2614
14.448323 88.601 30.9238
14.553021 88.618 30.5919
14.658478 88.634 30.2657
14.764700 88.649 29.9450
14.871691 88.665 29.6295
14.979457 88.680 29.3189
15.088005 88.695 29.0126
15.197339 88.710 28.7102
15.307465 88.724 28.4111
15.418389 88.738 28.1148
15.530117 88.751 27.8208
15.642655 88.763 27.5288
15.756008 88.775 27.2385
15.870182 88.785 26.9496
15.985184 88.795 26.6621
16.101019 88.803 26.3760
16.217694 88.811 26.0912
16.335214 88.817 25.8078
16.453586 88.823 25.5256
16.572815 88.828 25.2445
16.692909 88.832 24.9641
16.813872 88.836 24.6840
16.935713 88.840 24.4035
17.058436 88.843 24.1217
17.182048 88.847 23.8378
17.306556 88.850 23.5508
17.431967 88.852 23.2599
17.558286 88.854 22.9644
17.685521 88.856 22.6637
17.813677 88.857 22.3575
17.942762 88.857 22.0459
18.072783 88.856 21.7292
18.203746 88.855 21.4080
18.335658 88.853 21.0833
18.468526 88.850 20.7558
18.602356 88.847 20.4265
18.737156 88.844 20.0963
18.872934 88.841 19.7657
19.009695 88.838 19.4350
19.147447 88.836 19.1039
19.286197 88.836 18.7721
19.425953 88.836 18.4387
19.566721 88.838 18.1024
19.708510 88.841 17.7622
19.851326 88.845 17.4166
19.995177 88.851 17.0648
20.140070 88.857 16.7059
20.286013 88.864 16.3395
20.433014 88.872 15.9658
20.581080 88.881 15.5855
20.730219 88.889 15.1994
20.880439 88.898 14.8090
21.031747 88.906 14.4158
21.184152 88.915 14.0215
21.337661 88.924 13.6277
21.492282 88.932 13.2359
21.648024 88.940 12.8473
21.804895 88.949 12.4631
21.962902 88.957 12.0840
22.122054 88.965 11.7105
22.282360 88.973 11.3432
22.443827 88.980 10.9822
22.606464 88.987 10.6277
22.770280 88.994 10.2799
22.935283 89.001 9.9387
23.101481 89.008 9.6039
23.268884 89.014 9.2752
23.437500 89.019 8.9519
23.607338 89.025 8.6333
23.778406 89.029 8.3182
23.950714 89.033 8.0055
24.124271 89.037 7.6941
24.299086 89.039 7.3831
24.475167 89.041 7.0720
24.652524 89.041 6.7606
24.831166 89.040 6.4491
25.011103 89.038 6.1384
25.192344 89.034 5.8293
25.374898 89.029 5.5225
25.558775 89.023 5.2186
25.743984 89.016 4.9173
25.930536 89.010 4.6173
26.118439 89.003 4.3165
26.307704 88.997 4.0119
26.498341 88.992 3.7003
26.690359 88.986 3.3785
26.883768 88.981 3.0441
27.078579 88.975 2.6962
27.274801 88.968 2.3356
27.472446 88.959 1.9651
27.671522 88.948 1.5893
27.872042 88.935 1.2137
28.074014 88.920 0.8442
28.277450 88.903 0.4859
28.482360 88.886 0.1420
28.688755 88.870 -0.1865
28.896645 88.856 -0.5015
29.106042 88.845 -0.8068
29.316957 88.837 -1.1081
29.529400 88.831 -1.4112
29.743382 88.829 -1.7211
29.958915 88.827 -2.0407
30.176009 88.827 -2.3708
30.394677 88.827 -2.7097
30.614929 88.826 -3.0537
30.836778 88.823 -3.3986
31.060234 88.820 -3.7402
31.285309 88.816 -4.0755
31.512015 88.810 -4.4030
31.740364 88.805 -4.7231
31.970368 88.800 -5.0371
32.202039 88.794 -5.3471
32.435388 88.788 -5.6550
32.670428 88.782 -5.9622
32.907171 88.775 -6.2692
33.145630 88.768 -6.5761
33.385817 88.759 -6.8827
33.627745 88.749 -7.1892
33.871425 88.739 -7.4959
34.116871 88.728 -7.8041
34.364096 88.717 -8.1146
34.613113 88.705 -8.4284
34.863934 88.692 -8.7458
35.116572 88.678 -9.0663
35.371041 88.663 -9.3888
35.627354 88.648 -9.7124
35.885525 88.632 -10.0362
36.145566 88.615 -10.3600
36.407492 88.599 -10.6842
36.671316 88.583 -11.0095
36.937051 88.568 -11.3365
37.204712 88.552 -11.6649
37.474313 88.536 -11.9937
37.745867 88.520 -12.3215
38.019389 88.504 -12.6466
38.294893 88.489 -12.9683
38.572394 88.474 -13.2870
38.851905 88.459 -13.6037
39.133442 88.445 -13.9203
39.417019 88.430 -14.2377
39.702651 88.416 -14.5560
39.990353 88.400 -14.8735
40.280140 88.383 -15.1880
40.572026 88.365 -15.4969
40.866028 88.347 -15.7988
41.162160 88.328 -16.0936
41.460438 88.308 -16.3827
41.760877 88.289 -16.6680
42.063494 88.270 -16.9513
42.368303 88.251 -17.2341
42.675322 88.232 -17.5177
42.984565 88.213 -17.8042
43.296048 88.194 -18.0963
43.609789 88.176 -18.3972
43.925804 88.158 -18.7090
44.244108 88.139 -19.0314
44.564719 88.118 -19.3611
44.887654 88.096 -19.6926
45.212928 88.073 -20.0205
45.540560 88.050 -20.3421
45.870565 88.027 -20.6583
46.202962 88.005 -20.9730
46.537768 87.983 -21.2911
46.875000 87.962 -21.6147
47.214676 87.940 -21.9421
47.556813 87.916 -22.2674
47.901429 87.891 -22.5838
48.248542 87.865 -22.8865
48.598171 87.840 -23.1746
48.950334 87.815 -23.4516
49.305048 87.792 -23.7230
49.662333 87.770 -23.9941
50.022206 87.748 -24.2679
50.384688 87.726 -24.5449
50.749796 87.704 -24.8242
51.117550 87.681 -25.1053
51.487969 87.658 -25.3886
51.861072 87.636 -25.6753
52.236879 87.612 -25.9659
52.615409 87.588 -26.2590
52.996681 87.563 -26.5516
53.380717 87.537 -26.8397
53.767536 87.512 -27.1208
54.157158 87.487 -27.3952
54.549603 87.463 -27.6662
54.944892 87.441 -27.9386
55.343045 87.420 -28.2165
55.744084 87.400 -28.5025
56.148028 87.379 -28.7970
56.554900 87.357 -29.0993
56.964720 87.334 -29.4075
57.377510 87.310 -29.7185
57.793291 87.283 -30.0283
58.212085 87.254 -30.3320
58.633914 87.224 -30.6260
59.058799 87.193 -30.9096
59.486764 87.162 -31.1853
59.917829 87.132 -31.4577
60.352019 87.102 -31.7308
60.789354 87.072 -32.0070
61.229859 87.042 -32.2859
61.673556 87.012 -32.5665
62.120468 86.981 -32.8476
62.570618 86.950 -33.1288
63.024031 86.919 -33.4099
63.480729 86.888 -33.6907
63.940736 86.856 -33.9706
64.404077 86.824 -34.2485
64.870776 86.791 -34.5233
65.340856 86.758 -34.7940
65.814343 86.724 -35.0598
66.291261 86.691 -35.3212
66.771635 86.657 -35.5793
67.255489 86.623 -35.8362
67.742850 86.590 -36.0939
68.233743 86.556 -36.3540
68.728193 86.522 -36.6171
69.226226 86.488 -36.8834
69.727867 86.452 -37.1524
70.233144 86.417 -37.4233
70.742083 86.381 -37.6948
71.254709 86.344 -37.9654
71.771050 86.308 -38.2336
72.291132 86.272 -38.4986
72.814984 86.237 -38.7608
73.342631 86.203 -39.0219
73.874102 86.171 -39.2836
74.409424 86.139 -39.5469
74.948626 86.108 -39.8125
75.491734 86.077 -40.0807
76.038779 86.046 -40.3508
76.589787 86.014 -40.6203
77.144788 85.981 -40.8855
77.703811 85.947 -41.1442
78.266885 85.913 -41.3977
78.834039 85.878 -41.6502
79.405303 85.844 -41.9057
79.980706 85.809 -42.1667
80.560280 85.773 -42.4349
81.144053 85.737 -42.7113
81.732056 85.699 -42.9961
82.324320 85.661 -43.2874
82.920876 85.621 -43.5818
83.521755 85.580 -43.8754
84.126988 85.537 -44.1647
84.736607 85.494 -44.4472
85.350643 85.451 -44.7215
85.969129 85.407 -44.9872
86.592097 85.362 -45.2443
87.219579 85.317 -45.4934
87.851608 85.271 -45.7355
88.488217 85.225 -45.9718
89.129439 85.179 -46.2032
89.775308 85.134 -46.4298
90.425856 85.090 -46.6523
91.081119 85.048 -46.8722
91.741131 85.009 -47.0918
92.405925 84.973 -47.3119
93.075536 84.939 -47.5317
93.750000 84.908 -47.7502
94.429351 84.878 -47.9688
95.113625 84.849 -48.1914
95.802858 84.819 -48.4227
96.497085 84.786 -48.6651
97.196342 84.747 -48.9155
97.900667 84.701 -49.1621
98.610096 84.649 -49.3879
99.324665 84.592 -49.5818
100.044413 84.535 -49.7493
100.769376 84.480 -49.9078
101.499592 84.428 -50.0721
