* Measurement data measured by REW V5.31
* Source: EXCL: Microphone (USB Sound Device        ), MICROPHONE (Master Volume), L, volume: 0.390
* Format: 256k Log Swept Sine, 1 sweep at -4.0 dBFS with no timing reference
* Dated: Aug 23, 2024 12:54:37 AM
* REW Settings:
*  C-weighting compensation: Off
*  Target level: 75.0 dB
* Note: KZ AS24 Pro 1000 L
* Measurement: L AS24 Pro 1000
* Smoothing: 1/12 octave
* Frequency Step: 96 ppo
* Start Frequency: 0.36621094 Hz
*
* Freq(Hz) SPL(dB) Phase(degrees)
0.366211 82.403 158.3080
0.368865 82.393 158.2887
0.371538 82.377 158.2599
0.374230 82.357 158.2234
0.376942 82.335 158.1812
0.379673 82.311 158.1346
0.382424 82.286 158.0843
0.385196 82.261 158.0310
0.387987 82.235 157.9750
0.390798 82.208 157.9163
0.393630 82.182 157.8551
0.396483 82.155 157.7913
0.399356 82.128 157.7251
0.402250 82.101 157.6563
0.405165 82.074 157.5849
0.408101 82.046 157.5110
0.411058 82.018 157.4345
0.414037 81.990 157.3553
0.417037 81.962 157.2735
0.420059 81.934 157.1890
0.423103 81.905 157.1018
0.426169 81.876 157.0119
0.429257 81.847 156.9192
0.432368 81.818 156.8237
0.435501 81.788 156.7254
0.438656 81.759 156.6242
0.441835 81.729 156.5202
0.445037 81.699 156.4132
0.448262 81.668 156.3034
0.451510 81.638 156.1906
0.454782 81.607 156.0748
0.458077 81.576 155.9560
0.461397 81.545 155.8342
0.464740 81.513 155.7094
0.468108 81.482 155.5815
0.471500 81.450 155.4505
0.474917 81.418 155.3164
0.478358 81.385 155.1792
0.481825 81.353 155.0388
0.485316 81.320 154.8953
0.488833 81.287 154.7486
0.492375 81.254 154.5986
0.495943 81.220 154.4455
0.499537 81.186 154.2892
0.503157 81.152 154.1296
0.506803 81.118 153.9668
0.510475 81.083 153.8008
0.514175 81.049 153.6315
0.517900 81.014 153.4589
0.521653 80.978 153.2831
0.525434 80.943 153.1041
0.529241 80.907 152.9217
0.533076 80.871 152.7362
0.536939 80.835 152.5474
0.540830 80.798 152.3553
0.544749 80.761 152.1601
0.548696 80.724 151.9617
0.552673 80.687 151.7601
0.556677 80.649 151.5554
0.560711 80.611 151.3476
0.564774 80.573 151.1367
0.568867 80.534 150.9227
0.572989 80.496 150.7058
0.577141 80.457 150.4859
0.581324 80.417 150.2632
0.585536 80.378 150.0376
0.589779 80.338 149.8093
0.594053 80.298 149.5783
0.598358 80.257 149.3447
0.602694 80.216 149.1086
0.607061 80.175 148.8701
0.611460 80.134 148.6293
0.615891 80.092 148.3862
0.620354 80.050 148.1412
0.624849 80.008 147.8941
0.629377 79.966 147.6453
0.633938 79.923 147.3948
0.638532 79.880 147.1429
0.643159 79.836 146.8897
0.647819 79.792 146.6353
0.652514 79.748 146.3801
0.657242 79.704 146.1241
0.662005 79.659 145.8678
0.666802 79.614 145.6112
0.671634 79.568 145.3546
0.676501 79.523 145.0985
0.681403 79.476 144.8430
0.686341 79.430 144.5884
0.691314 79.383 144.3351
0.696324 79.335 144.0835
0.701370 79.287 143.8338
0.706452 79.237 143.5862
0.711571 79.186 143.3411
0.716728 79.132 143.0984
0.721921 79.073 142.8580
0.727153 79.008 142.6191
0.732422 78.935 142.3809
0.737729 78.852 142.1421
0.743075 78.758 141.9011
0.748460 78.655 141.6568
0.753883 78.543 141.4080
0.759346 78.424 141.1541
0.764849 78.298 140.8944
0.770391 78.165 140.6286
0.775974 78.027 140.3564
0.781597 77.883 140.0776
0.787261 77.734 139.7918
0.792966 77.580 139.4989
0.798712 77.420 139.1987
0.804500 77.256 138.8910
0.810329 77.086 138.5755
0.816201 76.912 138.2521
0.822116 76.734 137.9205
0.828073 76.551 137.5805
0.834074 76.364 137.2319
0.840118 76.173 136.8743
0.846206 75.978 136.5076
0.852338 75.779 136.1316
0.858514 75.577 135.7458
0.864735 75.372 135.3502
0.871001 75.164 134.9444
0.877313 74.953 134.5281
0.883670 74.740 134.1010
0.890074 74.524 133.6629
0.896524 74.307 133.2135
0.903020 74.088 132.7524
0.909564 73.867 132.2794
0.916155 73.646 131.7942
0.922794 73.424 131.2964
0.929481 73.201 130.7859
0.936216 72.979 130.2622
0.943000 72.757 129.7251
0.949834 72.535 129.1743
0.956717 72.315 128.6096
0.963649 72.097 128.0308
0.970632 71.881 127.4374
0.977666 71.667 126.8295
0.984750 71.457 126.2067
0.991886 71.250 125.5690
0.999074 71.047 124.9162
1.006314 70.850 124.2483
1.013606 70.657 123.5653
1.020951 70.470 122.8674
1.028349 70.290 122.1546
1.035801 70.117 121.4272
1.043307 69.953 120.6857
1.050867 69.796 119.9304
1.058482 69.649 119.1618
1.066152 69.512 118.3805
1.073878 69.385 117.5866
1.081660 69.270 116.7800
1.089498 69.165 115.9595
1.097393 69.072 115.1227
1.105345 68.989 114.2652
1.113355 68.917 113.3805
1.121423 68.855 112.4604
1.129549 68.802 111.4943
1.137734 68.759 110.4692
1.145979 68.725 109.3687
1.154283 68.699 108.1709
1.162647 68.682 106.8470
1.171072 68.674 105.3566
1.179558 68.674 103.6424
1.188106 68.683 101.6196
1.196715 68.699 99.1577
1.205387 68.724 96.0463
1.214122 68.757 91.9276
1.222920 68.797 86.1541
1.231782 68.845 77.4880
1.240708 68.901 63.5688
1.249699 68.964 41.1082
1.258754 69.034 11.8083
1.267876 69.111 -13.1131
1.277063 69.194 -28.9908
1.286318 69.284 -38.7382
1.295639 69.381 -45.0882
1.305027 69.483 -49.5190
1.314484 69.591 -52.7966
1.324009 69.704 -55.3378
1.333604 69.822 -57.3835
1.343268 69.946 -59.0813
1.353002 70.073 -60.5257
1.362806 70.205 -61.7804
1.372681 70.341 -62.8893
1.382628 70.479 -63.8838
1.392647 70.621 -64.7873
1.402739 70.766 -65.6172
1.412904 70.914 -66.3874
1.423142 71.064 -67.1090
1.433455 71.217 -67.7912
1.443843 71.373 -68.4427
1.454305 71.533 -69.0710
1.464844 71.698 -69.6837
1.475459 71.871 -70.2874
1.486150 72.053 -70.8873
1.496920 72.245 -71.4869
1.507767 72.448 -72.0882
1.518693 72.661 -72.6918
1.529698 72.885 -73.2975
1.540783 73.119 -73.9048
1.551948 73.362 -74.5130
1.563194 73.615 -75.1213
1.574521 73.876 -75.7290
1.585931 74.144 -76.3352
1.597423 74.419 -76.9395
1.608999 74.700 -77.5413
1.620658 74.985 -78.1399
1.632402 75.275 -78.7350
1.644232 75.567 -79.3262
1.656146 75.861 -79.9132
1.668147 76.156 -80.4956
1.680235 76.450 -81.0732
1.692411 76.743 -81.6458
1.704675 77.033 -82.2133
1.717028 77.319 -82.7756
1.729470 77.600 -83.3325
1.742003 77.875 -83.8841
1.754626 78.142 -84.4306
1.767341 78.400 -84.9723
1.780147 78.648 -85.5099
1.793047 78.886 -86.0443
1.806040 79.111 -86.5773
1.819128 79.326 -87.1112
1.832310 79.528 -87.6489
1.845587 79.720 -88.1937
1.858961 79.902 -88.7483
1.872432 80.075 -89.3145
1.886001 80.239 -89.8928
1.899667 80.395 -90.4830
1.913433 80.543 -91.0842
1.927299 80.684 -91.6950
1.941265 80.819 -92.3139
1.955332 80.946 -92.9392
1.969501 81.068 -93.5694
1.983773 81.184 -94.2026
1.998148 81.295 -94.8372
2.012627 81.400 -95.4717
2.027212 81.501 -96.1044
2.041902 81.599 -96.7338
2.056698 81.692 -97.3585
2.071602 81.783 -97.9769
2.086614 81.871 -98.5876
2.101734 81.957 -99.1896
2.116964 82.042 -99.7818
2.132304 82.125 -100.3634
2.147756 82.208 -100.9342
2.163320 82.290 -101.4948
2.178996 82.371 -102.0466
2.194786 82.452 -102.5921
2.210690 82.530 -103.1347
2.226710 82.607 -103.6777
2.242845 82.680 -104.2238
2.259098 82.750 -104.7748
2.275468 82.817 -105.3312
2.291957 82.880 -105.8929
2.308566 82.939 -106.4591
2.325295 82.995 -107.0288
2.342145 83.048 -107.6005
2.359117 83.097 -108.1727
2.376212 83.143 -108.7437
2.393431 83.186 -109.3118
2.410775 83.227 -109.8751
2.428244 83.265 -110.4317
2.445840 83.301 -110.9796
2.463564 83.335 -111.5170
2.481416 83.367 -112.0421
2.499397 83.397 -112.5534
2.517509 83.425 -113.0498
2.535752 83.452 -113.5311
2.554127 83.477 -113.9977
2.572635 83.500 -114.4514
2.591277 83.520 -114.8944
2.610055 83.538 -115.3287
2.628968 83.552 -115.7560
2.648019 83.564 -116.1774
2.667208 83.572 -116.5931
2.686535 83.578 -117.0031
2.706003 83.581 -117.4069
2.725612 83.581 -117.8036
2.745363 83.580 -118.1924
2.765257 83.576 -118.5720
2.785295 83.571 -118.9410
2.805478 83.564 -119.2981
2.825808 83.556 -119.6416
2.846285 83.548 -119.9700
2.866910 83.538 -120.2816
2.887685 83.528 -120.5749
2.908611 83.518 -120.8486
2.929688 83.507 -121.1020
2.950917 83.494 -121.3345
2.972301 83.480 -121.5463
2.993839 83.465 -121.7376
3.015534 83.448 -121.9091
3.037386 83.429 -122.0615
3.059396 83.410 -122.1955
3.081565 83.389 -122.3119
3.103896 83.368 -122.4114
3.126388 83.346 -122.4949
3.149043 83.325 -122.5631
3.171862 83.305 -122.6167
3.194847 83.286 -122.6562
3.217998 83.268 -122.6820
3.241317 83.253 -122.6938
3.264805 83.240 -122.6911
3.288463 83.229 -122.6726
3.312293 83.220 -122.6366
3.336295 83.213 -122.5814
3.360471 83.208 -122.5062
3.384822 83.206 -122.4113
3.409350 83.205 -122.2982
3.434056 83.205 -122.1690
3.458940 83.208 -122.0268
3.484005 83.213 -121.8749
3.509252 83.220 -121.7169
3.534681 83.229 -121.5567
3.560295 83.241 -121.3977
3.586094 83.256 -121.2431
3.612081 83.273 -121.0952
3.638255 83.294 -120.9553
3.664620 83.318 -120.8234
3.691175 83.346 -120.6984
3.717923 83.377 -120.5793
3.744864 83.412 -120.4655
3.772001 83.450 -120.3573
3.799335 83.490 -120.2560
3.826866 83.534 -120.1635
3.854597 83.579 -120.0820
3.882529 83.626 -120.0141
3.910664 83.675 -119.9625
3.939002 83.724 -119.9295
3.967546 83.773 -119.9174
3.996296 83.823 -119.9277
4.025255 83.873 -119.9615
4.054423 83.924 -120.0190
4.083804 83.975 -120.0997
4.113396 84.026 -120.2026
4.143204 84.079 -120.3266
4.173227 84.131 -120.4705
4.203468 84.183 -120.6330
4.233928 84.235 -120.8132
4.264609 84.285 -121.0101
4.295512 84.334 -121.2231
4.326639 84.381 -121.4519
4.357992 84.425 -121.6970
4.389572 84.467 -121.9590
4.421380 84.507 -122.2387
4.453419 84.544 -122.5368
4.485691 84.578 -122.8528
4.518196 84.610 -123.1852
4.550936 84.639 -123.5317
4.583914 84.666 -123.8893
4.617131 84.690 -124.2547
4.650589 84.712 -124.6250
4.684289 84.730 -124.9974
4.718233 84.746 -125.3703
4.752424 84.758 -125.7431
4.786862 84.766 -126.1161
4.821549 84.772 -126.4902
4.856488 84.774 -126.8656
4.891680 84.772 -127.2414
4.927127 84.768 -127.6159
4.962831 84.761 -127.9866
4.998794 84.751 -128.3504
5.035017 84.740 -128.7044
5.071503 84.726 -129.0458
5.108253 84.711 -129.3725
5.145270 84.693 -129.6835
5.182555 84.674 -129.9786
5.220110 84.653 -130.2581
5.257937 84.630 -130.5223
5.296038 84.606 -130.7714
5.334415 84.581 -131.0052
5.373071 84.556 -131.2233
5.412006 84.531 -131.4249
5.451224 84.508 -131.6092
5.490725 84.485 -131.7750
5.530514 84.464 -131.9218
5.570590 84.444 -132.0495
5.610957 84.426 -132.1593
5.651616 84.409 -132.2531
5.692570 84.395 -132.3339
5.733821 84.382 -132.4047
5.775370 84.373 -132.4682
5.817221 84.367 -132.5268
5.859375 84.365 -132.5818
5.901834 84.366 -132.6338
5.944602 84.371 -132.6837
5.987679 84.380 -132.7330
6.031068 84.392 -132.7845
6.074771 84.407 -132.8414
6.118792 84.425 -132.9077
6.163131 84.446 -132.9866
6.207792 84.470 -133.0810
6.252776 84.496 -133.1922
6.298086 84.525 -133.3209
6.343725 84.556 -133.4673
6.389694 84.589 -133.6314
6.435996 84.623 -133.8139
6.482634 84.659 -134.0152
6.529610 84.694 -134.2360
6.576926 84.730 -134.4772
6.624585 84.765 -134.7389
6.672590 84.799 -135.0208
6.720942 84.833 -135.3215
6.769645 84.866 -135.6388
6.818700 84.898 -135.9702
6.868111 84.928 -136.3134
6.917881 84.956 -136.6664
6.968010 84.982 -137.0277
7.018504 85.006 -137.3963
7.069362 85.027 -137.7709
7.120590 85.047 -138.1491
7.172189 85.064 -138.5281
7.224161 85.079 -138.9046
7.276511 85.092 -139.2756
7.329239 85.104 -139.6387
7.382350 85.113 -139.9926
7.435845 85.121 -140.3362
7.489729 85.128 -140.6683
7.544002 85.134 -140.9877
7.598669 85.139 -141.2927
7.653732 85.144 -141.5818
7.709194 85.149 -141.8539
7.765058 85.155 -142.1086
7.821327 85.161 -142.3461
7.878004 85.168 -142.5672
7.935091 85.176 -142.7731
7.992592 85.186 -142.9649
8.050510 85.199 -143.1435
8.108847 85.213 -143.3098
8.167607 85.230 -143.4650
8.226793 85.249 -143.6109
8.286408 85.270 -143.7498
8.346454 85.294 -143.8842
8.406936 85.321 -144.0162
8.467856 85.350 -144.1476
8.529218 85.381 -144.2794
8.591024 85.414 -144.4130
8.653278 85.449 -144.5497
8.715983 85.485 -144.6908
8.779143 85.523 -144.8374
8.842760 85.561 -144.9902
8.906839 85.601 -145.1493
8.971381 85.640 -145.3144
9.036392 85.680 -145.4850
9.101873 85.720 -145.6605
9.167829 85.760 -145.8404
9.234263 85.799 -146.0240
9.301178 85.837 -146.2103
9.368578 85.874 -146.3982
9.436467 85.911 -146.5864
9.504847 85.947 -146.7737
9.573723 85.981 -146.9590
9.643099 86.015 -147.1418
9.712976 86.046 -147.3212
9.783361 86.076 -147.4966
9.854255 86.102 -147.6676
9.925663 86.127 -147.8336
9.997588 86.148 -147.9947
10.070035 86.167 -148.1510
10.143007 86.184 -148.3027
10.216507 86.198 -148.4503
10.290540 86.211 -148.5943
10.365109 86.223 -148.7349
10.440219 86.233 -148.8728
10.515873 86.243 -149.0086
10.592076 86.251 -149.1426
10.668830 86.259 -149.2754
10.746141 86.267 -149.4072
10.824012 86.273 -149.5380
10.902447 86.279 -149.6679
10.981451 86.284 -149.7967
11.061027 86.288 -149.9244
11.141180 86.291 -150.0506
11.221913 86.293 -150.1749
11.303232 86.293 -150.2969
11.385140 86.293 -150.4161
11.467641 86.292 -150.5323
11.550741 86.290 -150.6454
11.634442 86.288 -150.7551
11.718750 86.285 -150.8614
11.803669 86.282 -150.9647
11.889203 86.279 -151.0651
11.975357 86.276 -151.1634
12.062136 86.273 -151.2603
12.149543 86.270 -151.3564
12.237583 86.267 -151.4525
12.326262 86.264 -151.5497
12.415583 86.261 -151.6486
12.505552 86.258 -151.7502
12.596172 86.254 -151.8548
12.687449 86.250 -151.9630
12.779387 86.246 -152.0750
12.871992 86.241 -152.1909
12.965268 86.235 -152.3104
13.059220 86.229 -152.4334
13.153852 86.222 -152.5591
13.249170 86.214 -152.6872
13.345179 86.206 -152.8172
13.441884 86.199 -152.9484
13.539289 86.190 -153.0804
13.637401 86.182 -153.2131
13.736223 86.174 -153.3463
13.835761 86.166 -153.4803
13.936021 86.159 -153.6155
14.037007 86.152 -153.7525
14.138725 86.145 -153.8920
14.241180 86.139 -154.0351
14.344377 86.134 -154.1826
14.448323 86.129 -154.3354
14.553021 86.125 -154.4942
14.658478 86.121 -154.6595
14.764700 86.118 -154.8316
14.871691 86.115 -155.0104
14.979457 86.113 -155.1955
15.088005 86.111 -155.3862
15.197339 86.108 -155.5817
15.307465 86.107 -155.7809
15.418389 86.105 -155.9824
15.530117 86.103 -156.1852
15.642655 86.101 -156.3883
15.756008 86.100 -156.5907
15.870182 86.099 -156.7919
15.985184 86.099 -156.9915
16.101019 86.100 -157.1894
16.217694 86.101 -157.3859
16.335214 86.104 -157.5813
16.453586 86.108 -157.7761
16.572815 86.112 -157.9708
16.692909 86.118 -158.1655
16.813872 86.125 -158.3604
16.935713 86.133 -158.5553
17.058436 86.141 -158.7496
17.182048 86.150 -158.9425
17.306556 86.159 -159.1330
17.431967 86.168 -159.3197
17.558286 86.177 -159.5014
17.685521 86.185 -159.6768
17.813677 86.194 -159.8450
17.942762 86.203 -160.0051
18.072783 86.213 -160.1569
18.203746 86.222 -160.3005
18.335658 86.232 -160.4362
18.468526 86.243 -160.5650
18.602356 86.254 -160.6879
18.737156 86.266 -160.8060
18.872934 86.279 -160.9206
19.009695 86.292 -161.0327
19.147447 86.305 -161.1431
19.286197 86.319 -161.2522
19.425953 86.332 -161.3604
19.566721 86.344 -161.4674
19.708510 86.356 -161.5730
19.851326 86.367 -161.6767
19.995177 86.377 -161.7781
20.140070 86.386 -161.8767
20.286013 86.394 -161.9724
20.433014 86.401 -162.0651
20.581080 86.408 -162.1553
20.730219 86.414 -162.2434
20.880439 86.419 -162.3303
21.031747 86.425 -162.4169
21.184152 86.430 -162.5046
21.337661 86.435 -162.5943
21.492282 86.440 -162.6873
21.648024 86.445 -162.7844
21.804895 86.450 -162.8865
21.962902 86.454 -162.9939
22.122054 86.457 -163.1068
22.282360 86.460 -163.2251
22.443827 86.462 -163.3485
22.606464 86.463 -163.4764
22.770280 86.464 -163.6083
22.935283 86.465 -163.7437
23.101481 86.465 -163.8823
23.268884 86.466 -164.0241
23.437500 86.466 -164.1695
23.607338 86.467 -164.3188
23.778406 86.468 -164.4730
23.950714 86.469 -164.6324
24.124271 86.471 -164.7973
24.299086 86.472 -164.9674
24.475167 86.474 -165.1418
24.652524 86.476 -165.3189
24.831166 86.477 -165.4966
25.011103 86.479 -165.6727
25.192344 86.481 -165.8453
25.374898 86.485 -166.0134
25.558775 86.489 -166.1771
25.743984 86.495 -166.3380
25.930536 86.503 -166.4988
26.118439 86.513 -166.6631
26.307704 86.524 -166.8345
26.498341 86.536 -167.0155
26.690359 86.547 -167.2072
26.883768 86.558 -167.4080
27.078579 86.566 -167.6137
27.274801 86.571 -167.8178
27.472446 86.573 -168.0124
27.671522 86.572 -168.1894
27.872042 86.568 -168.3420
28.074014 86.564 -168.4659
28.277450 86.559 -168.5604
28.482360 86.557 -168.6289
28.688755 86.557 -168.6780
28.896645 86.560 -168.7166
29.106042 86.567 -168.7543
29.316957 86.575 -168.7996
29.529400 86.586 -168.8586
29.743382 86.597 -168.9339
29.958915 86.606 -169.0249
30.176009 86.615 -169.1282
30.394677 86.621 -169.2391
30.614929 86.625 -169.3525
30.836778 86.627 -169.4644
31.060234 86.627 -169.5725
31.285309 86.628 -169.6765
31.512015 86.628 -169.7777
31.740364 86.628 -169.8785
31.970368 86.629 -169.9816
32.202039 86.630 -170.0890
32.435388 86.632 -170.2023
32.670428 86.633 -170.3217
32.907171 86.634 -170.4467
33.145630 86.635 -170.5760
33.385817 86.636 -170.7083
33.627745 86.637 -170.8419
33.871425 86.638 -170.9758
34.116871 86.638 -171.1091
34.364096 86.640 -171.2414
34.613113 86.642 -171.3726
34.863934 86.644 -171.5029
35.116572 86.647 -171.6325
35.371041 86.650 -171.7617
35.627354 86.653 -171.8903
35.885525 86.657 -172.0175
36.145566 86.660 -172.1423
36.407492 86.664 -172.2640
36.671316 86.668 -172.3822
36.937051 86.672 -172.4977
37.204712 86.677 -172.6122
37.474313 86.683 -172.7287
37.745867 86.689 -172.8501
38.019389 86.694 -172.9780
38.294893 86.699 -173.1123
38.572394 86.701 -173.2505
38.851905 86.702 -173.3883
39.133442 86.702 -173.5210
39.417019 86.700 -173.6452
39.702651 86.697 -173.7604
39.990353 86.696 -173.8692
40.280140 86.695 -173.9766
40.572026 86.695 -174.0878
40.866028 86.695 -174.2061
41.162160 86.694 -174.3316
41.460438 86.692 -174.4607
41.760877 86.689 -174.5877
42.063494 86.684 -174.7070
42.368303 86.679 -174.8153
42.675322 86.676 -174.9127
42.984565 86.674 -175.0028
43.296048 86.674 -175.0914
43.609789 86.676 -175.1852
43.925804 86.681 -175.2897
44.244108 86.686 -175.4091
44.564719 86.691 -175.5446
44.887654 86.696 -175.6950
45.212928 86.699 -175.8561
45.540560 86.699 -176.0207
45.870565 86.696 -176.1799
46.202962 86.692 -176.3256
46.537768 86.687 -176.4527
46.875000 86.683 -176.5617
47.214676 86.681 -176.6589
47.556813 86.682 -176.7542
47.901429 86.686 -176.8570
48.248542 86.690 -176.9715
48.598171 86.694 -177.0953
48.950334 86.696 -177.2204
49.305048 86.697 -177.3383
49.662333 86.698 -177.4448
50.022206 86.701 -177.5437
50.384688 86.706 -177.6448
50.749796 86.713 -177.7594
51.117550 86.719 -177.8942
51.487969 86.724 -178.0472
51.861072 86.725 -178.2092
52.236879 86.722 -178.3677
52.615409 86.716 -178.5124
52.996681 86.709 -178.6392
53.380717 86.702 -178.7495
53.767536 86.696 -178.8484
54.157158 86.691 -178.9420
54.549603 86.688 -179.0355
54.944892 86.686 -179.1330
55.343045 86.685 -179.2378
55.744084 86.684 -179.3514
56.148028 86.683 -179.4734
56.554900 86.682 -179.6011
56.964720 86.679 -179.7305
57.377510 86.676 -179.8575
57.793291 86.672 -179.9791
58.212085 86.669 179.9057
58.633914 86.667 179.7957
59.058799 86.666 179.6870
59.486764 86.667 179.5744
59.917829 86.668 179.4529
60.352019 86.668 179.3209
60.789354 86.668 179.1812
61.229859 86.665 179.0391
61.673556 86.660 178.9001
62.120468 86.655 178.7664
62.570618 86.649 178.6375
63.024031 86.643 178.5110
63.480729 86.636 178.3851
63.940736 86.629 178.2590
64.404077 86.622 178.1328
64.870776 86.616 178.0064
65.340856 86.609 177.8798
65.814343 86.602 177.7526
66.291261 86.596 177.6246
66.771635 86.590 177.4956
67.255489 86.584 177.3664
67.742850 86.579 177.2382
68.233743 86.574 177.1118
68.728193 86.569 176.9878
69.226226 86.564 176.8656
69.727867 86.559 176.7449
70.233144 86.554 176.6263
70.742083 86.548 176.5110
71.254709 86.541 176.4001
71.771050 86.534 176.2937
72.291132 86.527 176.1903
72.814984 86.521 176.0880
73.342631 86.514 175.9843
73.874102 86.508 175.8768
74.409424 86.502 175.7631
74.948626 86.496 175.6416
75.491734 86.491 175.5135
76.038779 86.485 175.3829
76.589787 86.480 175.2546
77.144788 86.476 175.1316
77.703811 86.473 175.0136
78.266885 86.471 174.8988
78.834039 86.471 174.7853
79.405303 86.471 174.6711
79.980706 86.471 174.5539
80.560280 86.471 174.4308
81.144053 86.467 174.3015
81.732056 86.461 174.1694
