* Measurement data measured by REW V5.31.3
* Source: EXCL: Microphone (USB Sound Device        ), MICROPHONE (Master Volume), R, volume: 0.390
* Format: 256k Log Swept Sine, 1 sweep at -15.0 dBFS with no timing reference
* Dated: May 5, 2025 11:36:49 PM
* REW Settings:
*  C-weighting compensation: Off
*  Target level: 75.0 dB
* Note: KZ AM16 L
* Measurement: L KZ AM16
* Smoothing: 1/12 octave
* Frequency Step: 96 ppo
* Start Frequency: 0.36621094 Hz
*
* Freq(Hz) SPL(dB) Phase(degrees)
0.366211 94.846 156.6864
0.368865 94.841 156.6622
0.371538 94.832 156.6259
0.374230 94.821 156.5802
0.376942 94.809 156.5277
0.379673 94.796 156.4698
0.382424 94.782 156.4079
0.385196 94.768 156.3426
0.387987 94.754 156.2743
0.390798 94.739 156.2032
0.393630 94.724 156.1294
0.396483 94.710 156.0529
0.399356 94.695 155.9738
0.402250 94.680 155.8921
0.405165 94.665 155.8076
0.408101 94.649 155.7205
0.411058 94.634 155.6306
0.414037 94.619 155.5380
0.417037 94.603 155.4427
0.420059 94.587 155.3445
0.423103 94.572 155.2435
0.426169 94.556 155.1396
0.429257 94.540 155.0329
0.432368 94.524 154.9232
0.435501 94.507 154.8107
0.438656 94.491 154.6952
0.441835 94.474 154.5767
0.445037 94.458 154.4552
0.448262 94.441 154.3307
0.451510 94.424 154.2031
0.454782 94.407 154.0725
0.458077 94.390 153.9388
0.461397 94.373 153.8019
0.464740 94.356 153.6620
0.468108 94.338 153.5189
0.471500 94.321 153.3726
0.474917 94.303 153.2231
0.478358 94.285 153.0705
0.481825 94.267 152.9147
0.485316 94.249 152.7556
0.488833 94.231 152.5933
0.492375 94.212 152.4277
0.495943 94.194 152.2589
0.499537 94.175 152.0868
0.503157 94.157 151.9115
0.506803 94.138 151.7328
0.510475 94.119 151.5509
0.514175 94.099 151.3658
0.517900 94.080 151.1773
0.521653 94.061 150.9856
0.525434 94.041 150.7906
0.529241 94.021 150.5923
0.533076 94.001 150.3908
0.536939 93.981 150.1861
0.540830 93.961 149.9781
0.544749 93.941 149.7670
0.548696 93.920 149.5526
0.552673 93.900 149.3351
0.556677 93.879 149.1145
0.560711 93.858 148.8907
0.564774 93.837 148.6639
0.568867 93.816 148.4341
0.572989 93.794 148.2013
0.577141 93.773 147.9656
0.581324 93.751 147.7270
0.585536 93.729 147.4855
0.589779 93.707 147.2413
0.594053 93.685 146.9944
0.598358 93.663 146.7448
0.602694 93.640 146.4927
0.607061 93.618 146.2381
0.611460 93.595 145.9812
0.615891 93.572 145.7219
0.620354 93.549 145.4604
0.624849 93.526 145.1968
0.629377 93.502 144.9313
0.633938 93.478 144.6639
0.638532 93.455 144.3948
0.643159 93.431 144.1240
0.647819 93.407 143.8518
0.652514 93.382 143.5783
0.657242 93.358 143.3037
0.662005 93.333 143.0281
0.666802 93.308 142.7517
0.671634 93.283 142.4746
0.676501 93.258 142.1972
0.681403 93.232 141.9195
0.686341 93.207 141.6418
0.691314 93.181 141.3643
0.696324 93.155 141.0873
0.701370 93.128 140.8108
0.706452 93.102 140.5351
0.711571 93.074 140.2603
0.716728 93.046 139.9863
0.721921 93.017 139.7129
0.727153 92.986 139.4395
0.732422 92.954 139.1654
0.737729 92.919 138.8896
0.743075 92.882 138.6109
0.748460 92.843 138.3283
0.753883 92.804 138.0411
0.759346 92.763 137.7488
0.764849 92.721 137.4510
0.770391 92.679 137.1474
0.775974 92.636 136.8380
0.781597 92.592 136.5224
0.787261 92.548 136.2008
0.792966 92.504 135.8729
0.798712 92.459 135.5388
0.804500 92.413 135.1983
0.810329 92.367 134.8514
0.816201 92.320 134.4980
0.822116 92.272 134.1382
0.828073 92.224 133.7718
0.834074 92.175 133.3989
0.840118 92.125 133.0194
0.846206 92.074 132.6333
0.852338 92.023 132.2406
0.858514 91.971 131.8412
0.864735 91.917 131.4353
0.871001 91.863 131.0228
0.877313 91.808 130.6037
0.883670 91.752 130.1781
0.890074 91.695 129.7460
0.896524 91.637 129.3076
0.903020 91.578 128.8628
0.909564 91.517 128.4118
0.916155 91.455 127.9548
0.922794 91.392 127.4919
0.929481 91.328 127.0231
0.936216 91.263 126.5488
0.943000 91.196 126.0691
0.949834 91.127 125.5843
0.956717 91.057 125.0945
0.963649 90.986 124.6002
0.970632 90.912 124.1017
0.977666 90.837 123.5992
0.984750 90.761 123.0932
0.991886 90.682 122.5842
0.999074 90.602 122.0725
1.006314 90.520 121.5587
1.013606 90.436 121.0435
1.020951 90.349 120.5273
1.028349 90.261 120.0108
1.035801 90.170 119.4948
1.043307 90.077 118.9799
1.050867 89.982 118.4670
1.058482 89.885 117.9569
1.066152 89.785 117.4503
1.073878 89.682 116.9480
1.081660 89.578 116.4504
1.089498 89.471 115.9580
1.097393 89.363 115.4706
1.105345 89.253 114.9879
1.113355 89.143 114.5090
1.121423 89.032 114.0334
1.129549 88.921 113.5601
1.137734 88.809 113.0886
1.145979 88.698 112.6183
1.154283 88.586 112.1487
1.162647 88.474 111.6794
1.171072 88.361 111.2098
1.179558 88.247 110.7397
1.188106 88.132 110.2684
1.196715 88.015 109.7957
1.205387 87.896 109.3210
1.214122 87.776 108.8438
1.222920 87.653 108.3636
1.231782 87.527 107.8799
1.240708 87.398 107.3922
1.249699 87.265 106.8998
1.258754 87.129 106.4022
1.267876 86.988 105.8988
1.277063 86.842 105.3888
1.286318 86.692 104.8717
1.295639 86.535 104.3466
1.305027 86.373 103.8128
1.314484 86.205 103.2696
1.324009 86.029 102.7162
1.333604 85.846 102.1517
1.343268 85.655 101.5753
1.353002 85.455 100.9861
1.362806 85.247 100.3833
1.372681 85.028 99.7660
1.382628 84.800 99.1334
1.392647 84.561 98.4847
1.402739 84.310 97.8192
1.412904 84.046 97.1362
1.423142 83.769 96.4356
1.433455 83.478 95.7171
1.443843 83.170 94.9811
1.454305 82.844 94.2283
1.464844 82.497 93.4597
1.475459 82.125 92.6765
1.486150 81.725 91.8795
1.496920 81.295 91.0688
1.507767 80.834 90.2436
1.518693 80.341 89.4025
1.529698 79.816 88.5433
1.540783 79.262 87.6630
1.551948 78.679 86.7580
1.563194 78.070 85.8239
1.574521 77.437 84.8556
1.585931 76.782 83.8469
1.597423 76.109 82.7901
1.608999 75.421 81.6764
1.620658 74.720 80.4945
1.632402 74.010 79.2310
1.644232 73.295 77.8686
1.656146 72.579 76.3861
1.668147 71.867 74.7562
1.680235 71.162 72.9436
1.692411 70.470 70.9021
1.704675 69.795 68.5705
1.717028 69.145 65.8658
1.729470 68.525 62.6753
1.742003 67.942 58.8427
1.754626 67.403 54.1512
1.767341 66.916 48.3037
1.780147 66.490 40.9104
1.793047 66.133 31.5214
1.806040 65.854 19.7882
1.819128 65.661 5.8377
1.832310 65.560 -9.3326
1.845587 65.555 -24.0860
1.858961 65.647 -37.0846
1.872432 65.834 -47.8607
1.886001 66.111 -56.5893
1.899667 66.473 -63.6668
1.913433 66.912 -69.4795
1.927299 67.419 -74.3343
1.941265 67.987 -78.4584
1.955332 68.607 -82.0167
1.969501 69.269 -85.1288
1.983773 69.966 -87.8822
1.998148 70.688 -90.3419
2.012627 71.427 -92.5566
2.027212 72.174 -94.5635
2.041902 72.922 -96.3914
2.056698 73.662 -98.0629
2.071602 74.387 -99.5958
2.086614 75.089 -101.0046
2.101734 75.760 -102.3015
2.116964 76.394 -103.4969
2.132304 76.986 -104.6008
2.147756 77.530 -105.6234
2.163320 78.024 -106.5765
2.178996 78.466 -107.4739
2.194786 78.859 -108.3322
2.210690 79.207 -109.1692
2.226710 79.513 -110.0016
2.242845 79.784 -110.8419
2.259098 80.022 -111.6973
2.275468 80.231 -112.5708
2.291957 80.414 -113.4620
2.308566 80.572 -114.3683
2.325295 80.707 -115.2858
2.342145 80.820 -116.2098
2.359117 80.914 -117.1351
2.376212 80.990 -118.0562
2.393431 81.049 -118.9672
2.410775 81.094 -119.8622
2.428244 81.127 -120.7350
2.445840 81.149 -121.5796
2.463564 81.163 -122.3900
2.481416 81.170 -123.1607
2.499397 81.172 -123.8874
2.517509 81.170 -124.5676
2.535752 81.164 -125.2012
2.554127 81.155 -125.7921
2.572635 81.141 -126.3471
2.591277 81.119 -126.8758
2.610055 81.089 -127.3869
2.628968 81.048 -127.8869
2.648019 80.996 -128.3795
2.667208 80.932 -128.8656
2.686535 80.856 -129.3439
2.706003 80.770 -129.8117
2.725612 80.672 -130.2644
2.745363 80.565 -130.6966
2.765257 80.448 -131.1015
2.785295 80.323 -131.4710
2.805478 80.190 -131.7962
2.825808 80.049 -132.0669
2.846285 79.902 -132.2721
2.866910 79.748 -132.4002
2.887685 79.587 -132.4397
2.908611 79.418 -132.3797
2.929688 79.239 -132.2105
2.950917 79.047 -131.9243
2.972301 78.839 -131.5138
2.993839 78.616 -130.9722
3.015534 78.376 -130.2919
3.037386 78.123 -129.4644
3.059396 77.860 -128.4805
3.081565 77.589 -127.3307
3.103896 77.317 -126.0058
3.126388 77.049 -124.4975
3.149043 76.791 -122.7997
3.171862 76.550 -120.9090
3.194847 76.332 -118.8263
3.217998 76.145 -116.5565
3.241317 75.996 -114.1088
3.264805 75.890 -111.4954
3.288463 75.832 -108.7303
3.312293 75.825 -105.8295
3.336295 75.868 -102.8140
3.360471 75.959 -99.7150
3.384822 76.095 -96.5747
3.409350 76.270 -93.4445
3.434056 76.479 -90.3790
3.458940 76.716 -87.4313
3.484005 76.976 -84.6476
3.509252 77.251 -82.0648
3.534681 77.537 -79.7092
3.560295 77.828 -77.5964
3.586094 78.122 -75.7327
3.612081 78.414 -74.1160
3.638255 78.704 -72.7373
3.664620 78.993 -71.5820
3.691175 79.283 -70.6318
3.717923 79.576 -69.8663
3.744864 79.872 -69.2653
3.772001 80.171 -68.8095
3.799335 80.472 -68.4809
3.826866 80.773 -68.2634
3.854597 81.071 -68.1423
3.882529 81.362 -68.1052
3.910664 81.645 -68.1415
3.939002 81.916 -68.2433
3.967546 82.173 -68.4051
3.996296 82.415 -68.6243
4.025255 82.640 -68.9007
4.054423 82.849 -69.2354
4.083804 83.041 -69.6282
4.113396 83.219 -70.0764
4.143204 83.382 -70.5741
4.173227 83.532 -71.1128
4.203468 83.669 -71.6825
4.233928 83.795 -72.2729
4.264609 83.909 -72.8743
4.295512 84.013 -73.4784
4.326639 84.107 -74.0794
4.357992 84.190 -74.6747
4.389572 84.263 -75.2652
4.421380 84.325 -75.8548
4.453419 84.376 -76.4478
4.485691 84.416 -77.0464
4.518196 84.444 -77.6495
4.550936 84.462 -78.2523
4.583914 84.470 -78.8478
4.617131 84.469 -79.4271
4.650589 84.459 -79.9807
4.684289 84.441 -80.4996
4.718233 84.415 -80.9767
4.752424 84.382 -81.4072
4.786862 84.341 -81.7898
4.821549 84.291 -82.1252
4.856488 84.234 -82.4147
4.891680 84.169 -82.6587
4.927127 84.097 -82.8566
4.962831 84.022 -83.0060
4.998794 83.943 -83.1035
5.035017 83.864 -83.1446
5.071503 83.784 -83.1241
5.108253 83.706 -83.0368
5.145270 83.630 -82.8779
5.182555 83.556 -82.6447
5.220110 83.483 -82.3376
5.257937 83.413 -81.9607
5.296038 83.348 -81.5214
5.334415 83.288 -81.0296
5.373071 83.235 -80.4961
5.412006 83.193 -79.9318
5.451224 83.162 -79.3455
5.490725 83.144 -78.7436
5.530514 83.139 -78.1301
5.570590 83.148 -77.5095
5.610957 83.169 -76.8889
5.651616 83.203 -76.2794
5.692570 83.247 -75.6947
5.733821 83.300 -75.1499
5.775370 83.361 -74.6590
5.817221 83.429 -74.2336
5.859375 83.505 -73.8809
5.901834 83.587 -73.6043
5.944602 83.675 -73.4037
5.987679 83.769 -73.2783
6.031068 83.866 -73.2269
6.074771 83.964 -73.2489
6.118792 84.062 -73.3445
6.163131 84.158 -73.5142
6.207792 84.250 -73.7587
6.252776 84.337 -74.0778
6.298086 84.419 -74.4697
6.343725 84.495 -74.9294
6.389694 84.566 -75.4494
6.435996 84.631 -76.0210
6.482634 84.689 -76.6353
6.529610 84.740 -77.2853
6.576926 84.782 -77.9664
6.624585 84.816 -78.6763
6.672590 84.842 -79.4134
6.720942 84.860 -80.1744
6.769645 84.869 -80.9529
6.818700 84.872 -81.7406
6.868111 84.867 -82.5285
6.917881 84.856 -83.3086
6.968010 84.839 -84.0756
7.018504 84.816 -84.8267
7.069362 84.788 -85.5602
7.120590 84.755 -86.2741
7.172189 84.718 -86.9646
7.224161 84.680 -87.6272
7.276511 84.640 -88.2568
7.329239 84.601 -88.8493
7.382350 84.563 -89.4026
7.435845 84.527 -89.9168
7.489729 84.494 -90.3945
7.544002 84.465 -90.8392
7.598669 84.441 -91.2549
7.653732 84.424 -91.6448
7.709194 84.415 -92.0116
7.765058 84.415 -92.3580
7.821327 84.423 -92.6888
7.878004 84.441 -93.0107
7.935091 84.467 -93.3324
7.992592 84.502 -93.6622
8.050510 84.547 -94.0071
8.108847 84.600 -94.3719
8.167607 84.662 -94.7596
8.226793 84.731 -95.1733
8.286408 84.807 -95.6165
8.346454 84.888 -96.0925
8.406936 84.972 -96.6041
8.467856 85.061 -97.1520
8.529218 85.151 -97.7351
8.591024 85.244 -98.3505
8.653278 85.336 -98.9942
8.715983 85.429 -99.6624
8.779143 85.520 -100.3513
8.842760 85.609 -101.0576
8.906839 85.696 -101.7769
8.971381 85.781 -102.5037
9.036392 85.862 -103.2316
9.101873 85.941 -103.9541
9.167829 86.017 -104.6660
9.234263 86.090 -105.3631
9.301178 86.161 -106.0418
9.368578 86.229 -106.6981
9.436467 86.296 -107.3279
9.504847 86.361 -107.9278
9.573723 86.426 -108.4953
9.643099 86.491 -109.0294
9.712976 86.555 -109.5303
9.783361 86.621 -109.9986
9.854255 86.688 -110.4350
9.925663 86.757 -110.8409
9.997588 86.827 -111.2184
10.070035 86.901 -111.5702
10.143007 86.976 -111.9000
10.216507 87.054 -112.2115
10.290540 87.134 -112.5082
10.365109 87.216 -112.7928
10.440219 87.299 -113.0681
10.515873 87.384 -113.3370
10.592076 87.470 -113.6019
10.668830 87.556 -113.8647
10.746141 87.641 -114.1262
10.824012 87.726 -114.3869
10.902447 87.810 -114.6467
10.981451 87.893 -114.9050
11.061027 87.973 -115.1613
11.141180 88.051 -115.4146
11.221913 88.126 -115.6634
11.303232 88.200 -115.9064
11.385140 88.270 -116.1421
11.467641 88.338 -116.3696
11.550741 88.404 -116.5882
11.634442 88.467 -116.7973
11.718750 88.528 -116.9967
11.803669 88.587 -117.1864
11.889203 88.645 -117.3672
11.975357 88.700 -117.5399
12.062136 88.754 -117.7057
12.149543 88.807 -117.8661
12.237583 88.858 -118.0222
12.326262 88.908 -118.1757
12.415583 88.957 -118.3280
12.505552 89.003 -118.4802
12.596172 89.048 -118.6335
12.687449 89.091 -118.7884
12.779387 89.133 -118.9456
12.871992 89.172 -119.1053
12.965268 89.209 -119.2676
13.059220 89.245 -119.4326
13.153852 89.278 -119.6002
13.249170 89.310 -119.7705
13.345179 89.340 -119.9436
13.441884 89.369 -120.1200
13.539289 89.396 -120.3006
13.637401 89.423 -120.4864
13.736223 89.448 -120.6788
13.835761 89.474 -120.8795
13.936021 89.499 -121.0905
14.037007 89.523 -121.3136
14.138725 89.548 -121.5508
14.241180 89.572 -121.8038
14.344377 89.595 -122.0740
14.448323 89.618 -122.3623
14.553021 89.640 -122.6689
14.658478 89.660 -122.9938
14.764700 89.680 -123.3360
14.871691 89.698 -123.6941
14.979457 89.714 -124.0662
15.088005 89.729 -124.4501
15.197339 89.743 -124.8436
15.307465 89.756 -125.2443
15.418389 89.769 -125.6502
15.530117 89.781 -126.0595
15.642655 89.794 -126.4713
15.756008 89.808 -126.8847
15.870182 89.822 -127.3000
15.985184 89.839 -127.7175
16.101019 89.858 -128.1383
16.217694 89.879 -128.5636
16.335214 89.902 -128.9947
16.453586 89.928 -129.4325
16.572815 89.956 -129.8779
16.692909 89.986 -130.3310
16.813872 90.017 -130.7912
16.935713 90.050 -131.2575
17.058436 90.084 -131.7280
17.182048 90.119 -132.2005
17.306556 90.154 -132.6723
17.431967 90.190 -133.1407
17.558286 90.226 -133.6032
17.685521 90.263 -134.0573
17.813677 90.300 -134.5011
17.942762 90.339 -134.9335
18.072783 90.378 -135.3536
18.203746 90.419 -135.7615
18.335658 90.461 -136.1573
18.468526 90.503 -136.5418
18.602356 90.547 -136.9158
18.737156 90.591 -137.2800
18.872934 90.636 -137.6350
19.009695 90.680 -137.9812
19.147447 90.724 -138.3188
19.286197 90.768 -138.6476
19.425953 90.811 -138.9674
19.566721 90.853 -139.2779
19.708510 90.893 -139.5790
19.851326 90.933 -139.8708
19.995177 90.971 -140.1534
20.140070 91.008 -140.4276
20.286013 91.043 -140.6942
20.433014 91.077 -140.9542
20.581080 91.110 -141.2088
20.730219 91.141 -141.4592
20.880439 91.170 -141.7064
21.031747 91.197 -141.9513
21.184152 91.223 -142.1950
21.337661 91.247 -142.4383
21.492282 91.269 -142.6821
21.648024 91.289 -142.9274
21.804895 91.308 -143.1755
21.962902 91.326 -143.4276
22.122054 91.342 -143.6851
22.282360 91.356 -143.9495
22.443827 91.370 -144.2219
22.606464 91.382 -144.5033
22.770280 91.393 -144.7941
22.935283 91.403 -145.0945
23.101481 91.412 -145.4040
23.268884 91.419 -145.7221
23.437500 91.426 -146.0478
23.607338 91.433 -146.3804
23.778406 91.439 -146.7194
23.950714 91.445 -147.0647
24.124271 91.452 -147.4163
24.299086 91.460 -147.7746
24.475167 91.469 -148.1400
24.652524 91.479 -148.5126
24.831166 91.490 -148.8925
25.011103 91.502 -149.2788
25.192344 91.515 -149.6704
25.374898 91.529 -150.0656
25.558775 91.544 -150.4624
25.743984 91.559 -150.8587
25.930536 91.576 -151.2526
26.118439 91.593 -151.6427
26.307704 91.611 -152.0277
26.498341 91.630 -152.4069
26.690359 91.651 -152.7798
26.883768 91.671 -153.1463
27.078579 91.693 -153.5059
27.274801 91.715 -153.8584
27.472446 91.737 -154.2033
27.671522 91.759 -154.5404
27.872042 91.781 -154.8693
28.074014 91.802 -155.1900
28.277450 91.823 -155.5028
28.482360 91.843 -155.8081
28.688755 91.862 -156.1065
28.896645 91.880 -156.3990
29.106042 91.897 -156.6863
29.316957 91.913 -156.9695
29.529400 91.928 -157.2495
29.743382 91.942 -157.5275
29.958915 91.954 -157.8046
30.176009 91.965 -158.0823
30.394677 91.974 -158.3618
30.614929 91.982 -158.6444
30.836778 91.989 -158.9310
31.060234 91.995 -159.2222
31.285309 92.000 -159.5183
31.512015 92.003 -159.8193
31.740364 92.006 -160.1251
31.970368 92.009 -160.4356
32.202039 92.010 -160.7511
32.435388 92.012 -161.0721
32.670428 92.015 -161.3991
32.907171 92.017 -161.7324
33.145630 92.020 -162.0724
33.385817 92.023 -162.4185
33.627745 92.027 -162.7702
33.871425 92.031 -163.1261
34.116871 92.035 -163.4849
34.364096 92.039 -163.8449
34.613113 92.044 -164.2047
34.863934 92.049 -164.5626
35.116572 92.054 -164.9171
35.371041 92.058 -165.2668
35.627354 92.063 -165.6106
35.885525 92.068 -165.9477
36.145566 92.073 -166.2778
36.407492 92.079 -166.6012
36.671316 92.083 -166.9183
36.937051 92.088 -167.2300
37.204712 92.093 -167.5371
37.474313 92.096 -167.8398
37.745867 92.099 -168.1384
38.019389 92.101 -168.4329
38.294893 92.102 -168.7237
38.572394 92.103 -169.0114
38.851905 92.103 -169.2971
39.133442 92.102 -169.5822
39.417019 92.101 -169.8683
39.702651 92.099 -170.1563
39.990353 92.097 -170.4471
40.280140 92.094 -170.7407
40.572026 92.091 -171.0371
40.866028 92.087 -171.3363
41.162160 92.083 -171.6382
41.460438 92.079 -171.9430
41.760877 92.075 -172.2504
42.063494 92.070 -172.5599
42.368303 92.065 -172.8703
42.675322 92.060 -173.1798
42.984565 92.055 -173.4865
43.296048 92.050 -173.7893
43.609789 92.046 -174.0877
43.925804 92.042 -174.3827
44.244108 92.039 -174.6758
44.564719 92.037 -174.9691
44.887654 92.035 -175.2643
45.212928 92.034 -175.5626
45.540560 92.032 -175.8642
45.870565 92.030 -176.1688
46.202962 92.027 -176.4760
46.537768 92.024 -176.7851
46.875000 92.020 -177.0954
47.214676 92.015 -177.4062
47.556813 92.009 -177.7165
47.901429 92.002 -178.0257
48.248542 91.994 -178.3331
48.598171 91.985 -178.6383
48.950334 91.976 -178.9407
49.305048 91.966 -179.2401
49.662333 91.956 -179.5359
50.022206 91.945 -179.8275
50.384688 91.934 179.8859
50.749796 91.923 179.6043
51.117550 91.911 179.3275
51.487969 91.900 179.0539
51.861072 91.890 178.7811
52.236879 91.879 178.5062
52.615409 91.869 178.2266
52.996681 91.858 177.9410
53.380717 91.847 177.6501
53.767536 91.835 177.3560
54.157158 91.821 177.0616
54.549603 91.807 176.7686
54.944892 91.793 176.4772
55.343045 91.780 176.1863
55.744084 91.767 175.8937
56.148028 91.754 175.5978
56.554900 91.742 175.2979
56.964720 91.730 174.9943
57.377510 91.717 174.6883
57.793291 91.705 174.3813
58.212085 91.691 174.0746
58.633914 91.678 173.7696
59.058799 91.663 173.4676
59.486764 91.647 173.1703
59.917829 91.631 172.8786
60.352019 91.614 172.5928
60.789354 91.596 172.3120
61.229859 91.578 172.0344
61.673556 91.559 171.7581
62.120468 91.539 171.4818
62.570618 91.519 171.2050
63.024031 91.498 170.9276
63.480729 91.476 170.6499
63.940736 91.454 170.3722
64.404077 91.431 170.0947
64.870776 91.408 169.8179
65.340856 91.386 169.5424
65.814343 91.363 169.2682
66.291261 91.341 168.9956
66.771635 91.319 168.7242
67.255489 91.297 168.4541
67.742850 91.275 168.1855
68.233743 91.252 167.9192
68.728193 91.229 167.6562
69.226226 91.205 167.3973
69.727867 91.181 167.1427
70.233144 91.156 166.8915
70.742083 91.131 166.6425
71.254709 91.105 166.3947
71.771050 91.079 166.1475
72.291132 91.053 165.9005
72.814984 91.026 165.6541
73.342631 90.999 165.4079
73.874102 90.972 165.1616
74.409424 90.945 164.9147
74.948626 90.917 164.6675
75.491734 90.890 164.4212
76.038779 90.862 164.1772
76.589787 90.833 163.9362
77.144788 90.805 163.6973
77.703811 90.776 163.4590
78.266885 90.748 163.2197
78.834039 90.719 162.9784
79.405303 90.690 162.7346
79.980706 90.660 162.4880
80.560280 90.630 162.2387
81.144053 90.599 161.9868
81.732056 90.567 161.7326
82.324320 90.534 161.4767
82.920876 90.500 161.2205
83.521755 90.463 160.9665
84.126988 90.425 160.7181
84.736607 90.386 160.4789
85.350643 90.345 160.2517
85.969129 90.302 160.0386
