* Measurement data measured by REW V5.31
* Source: EXCL: Microphone (USB Sound Device        ), MICROPHONE (Master Volume), L, volume: 0.390
* Format: 256k Log Swept Sine, 1 sweep at -4.0 dBFS with no timing reference
* Dated: Aug 23, 2024 12:59:36 AM
* REW Settings:
*  C-weighting compensation: Off
*  Target level: 75.0 dB
* Note: KZ AS24 Pro 1111 L
* Measurement: L AS24 Pro 1111
* Smoothing: 1/12 octave
* Frequency Step: 96 ppo
* Start Frequency: 0.36621094 Hz
*
* Freq(Hz) SPL(dB) Phase(degrees)
0.366211 81.898 158.8574
0.368865 81.887 158.8391
0.371538 81.870 158.8117
0.374230 81.848 158.7770
0.376942 81.824 158.7369
0.379673 81.798 158.6924
0.382424 81.771 158.6445
0.385196 81.744 158.5936
0.387987 81.716 158.5400
0.390798 81.687 158.4838
0.393630 81.658 158.4251
0.396483 81.629 158.3640
0.399356 81.600 158.3004
0.402250 81.570 158.2343
0.405165 81.540 158.1657
0.408101 81.510 158.0946
0.411058 81.480 158.0209
0.414037 81.450 157.9447
0.417037 81.419 157.8658
0.420059 81.388 157.7843
0.423103 81.357 157.7001
0.426169 81.326 157.6132
0.429257 81.294 157.5237
0.432368 81.263 157.4313
0.435501 81.231 157.3362
0.438656 81.198 157.2383
0.441835 81.166 157.1376
0.445037 81.133 157.0340
0.448262 81.100 156.9276
0.451510 81.067 156.8182
0.454782 81.034 156.7059
0.458077 81.000 156.5907
0.461397 80.966 156.4725
0.464740 80.932 156.3513
0.468108 80.898 156.2271
0.471500 80.863 156.0999
0.474917 80.828 155.9696
0.478358 80.793 155.8362
0.481825 80.758 155.6997
0.485316 80.722 155.5601
0.488833 80.686 155.4174
0.492375 80.650 155.2715
0.495943 80.614 155.1224
0.499537 80.577 154.9702
0.503157 80.540 154.8148
0.506803 80.503 154.6562
0.510475 80.465 154.4944
0.514175 80.427 154.3293
0.517900 80.389 154.1611
0.521653 80.351 153.9896
0.525434 80.312 153.8150
0.529241 80.274 153.6371
0.533076 80.234 153.4560
0.536939 80.195 153.2717
0.540830 80.155 153.0842
0.544749 80.115 152.8935
0.548696 80.075 152.6997
0.552673 80.034 152.5028
0.556677 79.993 152.3027
0.560711 79.952 152.0996
0.564774 79.911 151.8934
0.568867 79.869 151.6842
0.572989 79.827 151.4721
0.577141 79.785 151.2570
0.581324 79.742 151.0391
0.585536 79.699 150.8184
0.589779 79.655 150.5950
0.594053 79.612 150.3689
0.598358 79.568 150.1403
0.602694 79.524 149.9091
0.607061 79.479 149.6756
0.611460 79.434 149.4398
0.615891 79.389 149.2019
0.620354 79.343 148.9619
0.624849 79.297 148.7200
0.629377 79.251 148.4763
0.633938 79.205 148.2310
0.638532 79.158 147.9843
0.643159 79.111 147.7364
0.647819 79.063 147.4874
0.652514 79.015 147.2375
0.657242 78.967 146.9870
0.662005 78.918 146.7362
0.666802 78.869 146.4852
0.671634 78.820 146.2344
0.676501 78.770 145.9841
0.681403 78.720 145.7345
0.686341 78.669 145.4860
0.691314 78.618 145.2390
0.696324 78.567 144.9938
0.701370 78.514 144.7507
0.706452 78.460 144.5100
0.711571 78.403 144.2719
0.716728 78.343 144.0366
0.721921 78.277 143.8036
0.727153 78.203 143.5726
0.732422 78.118 143.3424
0.737729 78.019 143.1117
0.743075 77.906 142.8790
0.748460 77.781 142.6429
0.753883 77.644 142.4024
0.759346 77.497 142.1567
0.764849 77.340 141.9051
0.770391 77.175 141.6473
0.775974 77.001 141.3829
0.781597 76.820 141.1117
0.787261 76.631 140.8334
0.792966 76.434 140.5476
0.798712 76.231 140.2543
0.804500 76.021 139.9531
0.810329 75.804 139.6438
0.816201 75.580 139.3261
0.822116 75.351 138.9997
0.828073 75.115 138.6644
0.834074 74.874 138.3198
0.840118 74.628 137.9656
0.846206 74.376 137.6015
0.852338 74.119 137.2272
0.858514 73.858 136.8423
0.864735 73.593 136.4463
0.871001 73.324 136.0390
0.877313 73.051 135.6199
0.883670 72.775 135.1885
0.890074 72.497 134.7445
0.896524 72.216 134.2872
0.903020 71.934 133.8163
0.909564 71.650 133.3312
0.916155 71.365 132.8314
0.922794 71.080 132.3162
0.929481 70.795 131.7850
0.936216 70.511 131.2373
0.943000 70.229 130.6723
0.949834 69.948 130.0893
0.956717 69.670 129.4876
0.963649 69.395 128.8663
0.970632 69.124 128.2245
0.977666 68.858 127.5614
0.984750 68.597 126.8761
0.991886 68.342 126.1674
0.999074 68.095 125.4342
1.006314 67.856 124.6754
1.013606 67.625 123.8896
1.020951 67.405 123.0753
1.028349 67.195 122.2312
1.035801 66.997 121.3553
1.043307 66.812 120.4457
1.050867 66.641 119.5000
1.058482 66.485 118.5155
1.066152 66.346 117.4886
1.073878 66.224 116.4145
1.081660 66.120 115.2865
1.089498 66.035 114.0949
1.097393 65.970 112.8254
1.105345 65.924 111.4571
1.113355 65.898 109.9605
1.121423 65.891 108.2947
1.129549 65.904 106.4023
1.137734 65.935 104.2017
1.145979 65.984 101.5721
1.154283 66.051 98.3277
1.162647 66.136 94.1707
1.171072 66.238 88.6036
1.179558 66.355 80.7683
1.188106 66.489 69.2206
1.196715 66.638 52.0345
1.205387 66.802 28.9739
1.214122 66.980 5.2602
1.222920 67.172 -13.0587
1.231782 67.377 -25.4399
1.240708 67.593 -33.7676
1.249699 67.821 -39.6057
1.258754 68.060 -43.8998
1.267876 68.308 -47.1973
1.277063 68.565 -49.8232
1.286318 68.830 -51.9783
1.295639 69.102 -53.7919
1.305027 69.380 -55.3503
1.314484 69.663 -56.7134
1.324009 69.950 -57.9236
1.333604 70.240 -59.0117
1.343268 70.532 -60.0011
1.353002 70.824 -60.9093
1.362806 71.115 -61.7500
1.372681 71.405 -62.5339
1.382628 71.691 -63.2698
1.392647 71.973 -63.9646
1.402739 72.249 -64.6244
1.412904 72.518 -65.2541
1.423142 72.780 -65.8584
1.433455 73.034 -66.4416
1.443843 73.280 -67.0078
1.454305 73.518 -67.5614
1.464844 73.751 -68.1069
1.475459 73.979 -68.6486
1.486150 74.205 -69.1899
1.496920 74.431 -69.7332
1.507767 74.658 -70.2797
1.518693 74.886 -70.8298
1.529698 75.116 -71.3831
1.540783 75.347 -71.9393
1.551948 75.580 -72.4977
1.563194 75.814 -73.0574
1.574521 76.049 -73.6180
1.585931 76.286 -74.1786
1.597423 76.523 -74.7388
1.608999 76.760 -75.2979
1.620658 76.997 -75.8555
1.632402 77.234 -76.4112
1.644232 77.470 -76.9645
1.656146 77.706 -77.5151
1.668147 77.939 -78.0627
1.680235 78.171 -78.6071
1.692411 78.401 -79.1481
1.704675 78.628 -79.6853
1.717028 78.852 -80.2188
1.729470 79.072 -80.7484
1.742003 79.289 -81.2741
1.754626 79.501 -81.7960
1.767341 79.708 -82.3143
1.780147 79.910 -82.8295
1.793047 80.106 -83.3426
1.806040 80.296 -83.8547
1.819128 80.479 -84.3679
1.832310 80.656 -84.8847
1.845587 80.826 -85.4076
1.858961 80.990 -85.9391
1.872432 81.147 -86.4805
1.886001 81.297 -87.0324
1.899667 81.442 -87.5945
1.913433 81.581 -88.1660
1.927299 81.714 -88.7459
1.941265 81.841 -89.3328
1.955332 81.963 -89.9253
1.969501 82.081 -90.5220
1.983773 82.194 -91.1214
1.998148 82.302 -91.7222
2.012627 82.406 -92.3229
2.027212 82.507 -92.9222
2.041902 82.604 -93.5188
2.056698 82.699 -94.1114
2.071602 82.791 -94.6986
2.086614 82.880 -95.2795
2.101734 82.968 -95.8528
2.116964 83.055 -96.4178
2.132304 83.140 -96.9737
2.147756 83.225 -97.5204
2.163320 83.309 -98.0584
2.178996 83.392 -98.5889
2.194786 83.474 -99.1139
2.210690 83.554 -99.6363
2.226710 83.633 -100.1591
2.242845 83.708 -100.6845
2.259098 83.781 -101.2139
2.275468 83.851 -101.7479
2.291957 83.917 -102.2862
2.308566 83.981 -102.8282
2.325295 84.041 -103.3730
2.342145 84.098 -103.9193
2.359117 84.153 -104.4659
2.376212 84.205 -105.0112
2.393431 84.254 -105.5539
2.410775 84.301 -106.0923
2.428244 84.346 -106.6248
2.445840 84.389 -107.1498
2.463564 84.431 -107.6657
2.481416 84.470 -108.1710
2.499397 84.509 -108.6646
2.517509 84.546 -109.1456
2.535752 84.581 -109.6137
2.554127 84.615 -110.0696
2.572635 84.647 -110.5147
2.591277 84.677 -110.9507
2.610055 84.705 -111.3797
2.628968 84.730 -111.8030
2.648019 84.753 -112.2215
2.667208 84.773 -112.6354
2.686535 84.791 -113.0447
2.706003 84.806 -113.4489
2.725612 84.820 -113.8474
2.745363 84.831 -114.2394
2.765257 84.841 -114.6239
2.785295 84.849 -114.9999
2.805478 84.856 -115.3662
2.825808 84.863 -115.7214
2.846285 84.868 -116.0644
2.866910 84.873 -116.3940
2.887685 84.877 -116.7089
2.908611 84.881 -117.0083
2.929688 84.885 -117.2917
2.950917 84.887 -117.5589
2.972301 84.888 -117.8101
2.993839 84.888 -118.0459
3.015534 84.887 -118.2667
3.037386 84.884 -118.4732
3.059396 84.880 -118.6660
3.081565 84.876 -118.8458
3.103896 84.870 -119.0130
3.126388 84.865 -119.1682
3.149043 84.860 -119.3120
3.171862 84.855 -119.4448
3.194847 84.851 -119.5669
3.217998 84.847 -119.6784
3.241317 84.845 -119.7792
3.264805 84.845 -119.8687
3.288463 84.846 -119.9459
3.312293 84.848 -120.0096
3.336295 84.852 -120.0585
3.360471 84.857 -120.0923
3.384822 84.863 -120.1111
3.409350 84.871 -120.1159
3.434056 84.879 -120.1085
3.458940 84.889 -120.0910
3.484005 84.900 -120.0658
3.509252 84.912 -120.0354
3.534681 84.926 -120.0025
3.560295 84.942 -119.9696
3.586094 84.959 -119.9387
3.612081 84.979 -119.9115
3.638255 85.001 -119.8888
3.664620 85.025 -119.8702
3.691175 85.052 -119.8551
3.717923 85.081 -119.8423
3.744864 85.112 -119.8315
3.772001 85.146 -119.8228
3.799335 85.182 -119.8173
3.826866 85.219 -119.8164
3.854597 85.258 -119.8219
3.882529 85.298 -119.8358
3.910664 85.339 -119.8602
3.939002 85.381 -119.8970
3.967546 85.424 -119.9479
3.996296 85.466 -120.0142
4.025255 85.509 -120.0967
4.054423 85.553 -120.1954
4.083804 85.597 -120.3099
4.113396 85.642 -120.4396
4.143204 85.688 -120.5838
4.173227 85.733 -120.7417
4.203468 85.779 -120.9128
4.233928 85.824 -121.0965
4.264609 85.869 -121.2924
4.295512 85.913 -121.5004
4.326639 85.955 -121.7206
4.357992 85.996 -121.9533
4.389572 86.035 -122.1991
4.421380 86.073 -122.4587
4.453419 86.108 -122.7324
4.485691 86.142 -123.0199
4.518196 86.174 -123.3199
4.550936 86.205 -123.6309
4.583914 86.234 -123.9506
4.617131 86.261 -124.2768
4.650589 86.286 -124.6074
4.684289 86.308 -124.9404
4.718233 86.329 -125.2747
4.752424 86.347 -125.6101
4.786862 86.362 -125.9466
4.821549 86.375 -126.2849
4.856488 86.386 -126.6251
4.891680 86.394 -126.9664
4.927127 86.400 -127.3076
4.962831 86.403 -127.6466
4.998794 86.405 -127.9812
5.035017 86.406 -128.3092
5.071503 86.405 -128.6284
5.108253 86.402 -128.9376
5.145270 86.398 -129.2360
5.182555 86.392 -129.5235
5.220110 86.385 -129.8004
5.257937 86.376 -130.0669
5.296038 86.367 -130.3229
5.334415 86.357 -130.5684
5.373071 86.346 -130.8027
5.412006 86.336 -131.0253
5.451224 86.326 -131.2354
5.490725 86.317 -131.4323
5.530514 86.309 -131.6154
5.570590 86.302 -131.7847
5.610957 86.295 -131.9410
5.651616 86.289 -132.0856
5.692570 86.285 -132.2200
5.733821 86.283 -132.3461
5.775370 86.282 -132.4652
5.817221 86.283 -132.5786
5.859375 86.287 -132.6870
5.901834 86.294 -132.7916
5.944602 86.303 -132.8943
5.987679 86.314 -132.9977
6.031068 86.327 -133.1041
6.074771 86.343 -133.2157
6.118792 86.361 -133.3343
6.163131 86.381 -133.4611
6.207792 86.403 -133.5969
6.252776 86.427 -133.7421
6.298086 86.453 -133.8969
6.343725 86.481 -134.0618
6.389694 86.510 -134.2372
6.435996 86.540 -134.4240
6.482634 86.571 -134.6229
6.529610 86.603 -134.8349
6.576926 86.634 -135.0606
6.624585 86.666 -135.3004
6.672590 86.697 -135.5541
6.720942 86.729 -135.8209
6.769645 86.760 -136.0995
6.818700 86.790 -136.3882
6.868111 86.819 -136.6857
6.917881 86.847 -136.9906
6.968010 86.874 -137.3021
7.018504 86.899 -137.6196
7.069362 86.923 -137.9420
7.120590 86.946 -138.2678
7.172189 86.967 -138.5951
7.224161 86.987 -138.9215
7.276511 87.005 -139.2451
7.329239 87.022 -139.5643
7.382350 87.038 -139.8782
7.435845 87.053 -140.1859
7.489729 87.068 -140.4868
7.544002 87.081 -140.7799
7.598669 87.094 -141.0641
7.653732 87.107 -141.3383
7.709194 87.120 -141.6018
7.765058 87.133 -141.8543
7.821327 87.147 -142.0960
7.878004 87.161 -142.3275
7.935091 87.176 -142.5495
7.992592 87.192 -142.7627
8.050510 87.209 -142.9677
8.108847 87.228 -143.1651
8.167607 87.248 -143.3556
8.226793 87.269 -143.5405
8.286408 87.292 -143.7213
8.346454 87.317 -143.8994
8.406936 87.343 -144.0763
8.467856 87.370 -144.2530
8.529218 87.399 -144.4303
8.591024 87.429 -144.6088
8.653278 87.460 -144.7895
8.715983 87.491 -144.9730
8.779143 87.523 -145.1599
8.842760 87.556 -145.3507
8.906839 87.588 -145.5451
8.971381 87.621 -145.7430
9.036392 87.654 -145.9437
9.101873 87.686 -146.1467
9.167829 87.717 -146.3514
9.234263 87.748 -146.5571
9.301178 87.779 -146.7631
9.368578 87.808 -146.9683
9.436467 87.837 -147.1716
9.504847 87.864 -147.3719
9.573723 87.891 -147.5685
9.643099 87.916 -147.7605
9.712976 87.940 -147.9475
9.783361 87.961 -148.1288
9.854255 87.981 -148.3039
9.925663 87.997 -148.4725
9.997588 88.012 -148.6344
10.070035 88.023 -148.7900
10.143007 88.033 -148.9395
10.216507 88.041 -149.0832
10.290540 88.048 -149.2218
10.365109 88.054 -149.3555
10.440219 88.059 -149.4852
10.515873 88.063 -149.6116
10.592076 88.067 -149.7354
10.668830 88.071 -149.8572
10.746141 88.075 -149.9776
10.824012 88.079 -150.0970
10.902447 88.083 -150.2159
10.981451 88.086 -150.3346
11.061027 88.089 -150.4534
11.141180 88.092 -150.5722
11.221913 88.094 -150.6911
11.303232 88.095 -150.8100
11.385140 88.097 -150.9288
11.467641 88.097 -151.0474
11.550741 88.097 -151.1656
11.634442 88.097 -151.2834
11.718750 88.096 -151.4008
11.803669 88.096 -151.5176
11.889203 88.095 -151.6342
11.975357 88.095 -151.7506
12.062136 88.094 -151.8671
12.149543 88.093 -151.9841
12.237583 88.093 -152.1019
12.326262 88.092 -152.2210
12.415583 88.091 -152.3417
12.505552 88.089 -152.4644
12.596172 88.088 -152.5894
12.687449 88.086 -152.7169
12.779387 88.083 -152.8471
12.871992 88.080 -152.9798
12.965268 88.076 -153.1152
13.059220 88.072 -153.2528
13.153852 88.067 -153.3926
13.249170 88.063 -153.5341
13.345179 88.058 -153.6770
13.441884 88.053 -153.8211
13.539289 88.048 -153.9661
13.637401 88.043 -154.1120
13.736223 88.038 -154.2587
13.835761 88.033 -154.4063
13.936021 88.029 -154.5551
14.037007 88.025 -154.7057
14.138725 88.021 -154.8583
14.241180 88.017 -155.0137
14.344377 88.013 -155.1724
14.448323 88.010 -155.3348
14.553021 88.007 -155.5015
14.658478 88.005 -155.6725
14.764700 88.002 -155.8480
14.871691 88.000 -156.0277
14.979457 87.998 -156.2111
15.088005 87.996 -156.3977
15.197339 87.994 -156.5865
15.307465 87.992 -156.7766
15.418389 87.990 -156.9668
15.530117 87.989 -157.1562
15.642655 87.987 -157.3439
15.756008 87.985 -157.5290
15.870182 87.984 -157.7110
15.985184 87.984 -157.8896
16.101019 87.984 -158.0649
16.217694 87.986 -158.2372
16.335214 87.988 -158.4069
16.453586 87.992 -158.5750
16.572815 87.997 -158.7420
16.692909 88.004 -158.9090
16.813872 88.012 -159.0766
16.935713 88.021 -159.2454
17.058436 88.032 -159.4159
17.182048 88.043 -159.5882
17.306556 88.055 -159.7623
17.431967 88.068 -159.9379
17.558286 88.080 -160.1145
17.685521 88.093 -160.2917
17.813677 88.106 -160.4688
17.942762 88.119 -160.6454
18.072783 88.132 -160.8209
18.203746 88.144 -160.9952
18.335658 88.157 -161.1678
18.468526 88.169 -161.3388
18.602356 88.181 -161.5081
18.737156 88.193 -161.6755
18.872934 88.204 -161.8410
19.009695 88.216 -162.0043
19.147447 88.226 -162.1652
19.286197 88.236 -162.3232
19.425953 88.246 -162.4779
19.566721 88.255 -162.6286
19.708510 88.263 -162.7749
19.851326 88.270 -162.9164
19.995177 88.276 -163.0529
20.140070 88.282 -163.1847
20.286013 88.288 -163.3121
20.433014 88.293 -163.4357
20.581080 88.298 -163.5564
20.730219 88.303 -163.6754
20.880439 88.308 -163.7936
21.031747 88.313 -163.9122
21.184152 88.317 -164.0319
21.337661 88.322 -164.1533
21.492282 88.326 -164.2767
21.648024 88.331 -164.4023
21.804895 88.334 -164.5297
21.962902 88.338 -164.6589
22.122054 88.341 -164.7896
22.282360 88.343 -164.9217
22.443827 88.346 -165.0552
22.606464 88.348 -165.1905
22.770280 88.351 -165.3280
22.935283 88.353 -165.4684
23.101481 88.356 -165.6122
23.268884 88.358 -165.7598
23.437500 88.360 -165.9113
23.607338 88.363 -166.0666
23.778406 88.365 -166.2248
23.950714 88.366 -166.3850
24.124271 88.367 -166.5460
24.299086 88.368 -166.7064
24.475167 88.369 -166.8654
24.652524 88.371 -167.0225
24.831166 88.373 -167.1776
25.011103 88.376 -167.3315
25.192344 88.379 -167.4851
25.374898 88.384 -167.6400
25.558775 88.389 -167.7971
25.743984 88.394 -167.9570
25.930536 88.399 -168.1192
26.118439 88.404 -168.2824
26.307704 88.409 -168.4439
26.498341 88.412 -168.6005
26.690359 88.415 -168.7489
26.883768 88.418 -168.8864
27.078579 88.421 -169.0114
27.274801 88.425 -169.1246
27.472446 88.430 -169.2287
27.671522 88.438 -169.3280
27.872042 88.448 -169.4286
28.074014 88.459 -169.5364
28.277450 88.472 -169.6566
28.482360 88.485 -169.7924
28.688755 88.497 -169.9443
28.896645 88.508 -170.1102
29.106042 88.515 -170.2855
29.316957 88.520 -170.4646
29.529400 88.522 -170.6417
29.743382 88.521 -170.8124
29.958915 88.519 -170.9739
30.176009 88.517 -171.1261
30.394677 88.514 -171.2704
30.614929 88.512 -171.4097
30.836778 88.510 -171.5468
31.060234 88.509 -171.6835
31.285309 88.507 -171.8208
31.512015 88.506 -171.9579
31.740364 88.504 -172.0939
31.970368 88.503 -172.2280
32.202039 88.503 -172.3604
32.435388 88.504 -172.4930
32.670428 88.506 -172.6290
32.907171 88.510 -172.7719
33.145630 88.515 -172.9250
33.385817 88.520 -173.0896
33.627745 88.526 -173.2650
33.871425 88.530 -173.4483
34.116871 88.533 -173.6351
34.364096 88.534 -173.8204
34.613113 88.535 -174.0001
34.863934 88.536 -174.1717
35.116572 88.536 -174.3347
35.371041 88.537 -174.4902
35.627354 88.539 -174.6406
35.885525 88.542 -174.7888
36.145566 88.545 -174.9369
36.407492 88.549 -175.0862
36.671316 88.552 -175.2368
36.937051 88.555 -175.3881
37.204712 88.558 -175.5385
37.474313 88.560 -175.6866
37.745867 88.561 -175.8313
38.019389 88.563 -175.9723
38.294893 88.564 -176.1102
38.572394 88.566 -176.2467
38.851905 88.569 -176.3839
39.133442 88.571 -176.5236
39.417019 88.574 -176.6671
39.702651 88.576 -176.8143
39.990353 88.578 -176.9640
40.280140 88.579 -177.1147
40.572026 88.580 -177.2650
40.866028 88.581 -177.4148
41.162160 88.582 -177.5652
41.460438 88.584 -177.7180
41.760877 88.585 -177.8748
42.063494 88.586 -178.0361
42.368303 88.586 -178.2006
42.675322 88.585 -178.3656
42.984565 88.583 -178.5285
43.296048 88.580 -178.6870
43.609789 88.576 -178.8409
43.925804 88.573 -178.9912
44.244108 88.569 -179.1396
44.564719 88.565 -179.2870
44.887654 88.560 -179.4328
45.212928 88.555 -179.5753
45.540560 88.549 -179.7118
45.870565 88.542 -179.8408
46.202962 88.537 -179.9625
46.537768 88.532 179.9205
46.875000 88.528 179.8038
47.214676 88.526 179.6827
47.556813 88.525 179.5541
47.901429 88.524 179.4172
48.248542 88.522 179.2739
48.598171 88.520 179.1276
48.950334 88.518 178.9813
49.305048 88.515 178.8365
49.662333 88.513 178.6922
50.022206 88.512 178.5455
50.384688 88.511 178.3940
50.749796 88.510 178.2368
51.117550 88.508 178.0757
51.487969 88.506 177.9139
51.861072 88.503 177.7546
52.236879 88.500 177.5991
52.615409 88.497 177.4472
52.996681 88.495 177.2974
53.380717 88.493 177.1482
53.767536 88.491 176.9993
54.157158 88.490 176.8511
54.549603 88.489 176.7040
54.944892 88.489 176.5576
55.343045 88.490 176.4099
55.744084 88.491 176.2582
56.148028 88.492 176.1000
56.554900 88.493 175.9345
56.964720 88.493 175.7635
57.377510 88.490 175.5917
57.793291 88.487 175.4244
58.212085 88.482 175.2656
58.633914 88.477 175.1155
59.058799 88.472 174.9710
59.486764 88.467 174.8265
59.917829 88.462 174.6771
60.352019 88.457 174.5206
60.789354 88.451 174.3578
61.229859 88.443 174.1919
61.673556 88.434 174.0261
62.120468 88.424 173.8626
62.570618 88.414 173.7017
63.024031 88.404 173.5419
63.480729 88.395 173.3807
63.940736 88.386 173.2164
64.404077 88.377 173.0488
64.870776 88.369 172.8799
65.340856 88.360 172.7120
65.814343 88.351 172.5475
66.291261 88.343 172.3876
66.771635 88.334 172.2329
67.255489 88.326 172.0834
67.742850 88.318 171.9392
68.233743 88.310 171.7996
68.728193 88.302 171.6633
69.226226 88.295 171.5281
69.727867 88.287 171.3921
70.233144 88.280 171.2538
70.742083 88.272 171.1131
71.254709 88.263 170.9708
71.771050 88.254 170.8278
72.291132 88.245 170.6851
72.814984 88.236 170.5427
73.342631 88.227 170.4009
73.874102 88.219 170.2609
74.409424 88.211 170.1248
74.948626 88.204 169.9942
75.491734 88.199 169.8672
76.038779 88.196 169.7374
76.589787 88.196 169.5962
77.144788 88.196 169.4371
77.703811 88.196 169.2589
78.266885 88.195 169.0654
78.834039 88.192 168.8614
79.405303 88.187 168.6495
79.980706 88.182 168.4288
80.560280 88.176 168.1968
81.144053 88.168 167.9533
81.732056 88.159 167.7007
82.324320 88.147 167.4431
