* Measurement data measured by REW V5.31
* Source: EXCL: Microphone (USB Sound Device        ), MICROPHONE (Master Volume), L, volume: 0.390
* Format: 256k Log Swept Sine, 1 sweep at -4.0 dBFS with no timing reference
* Dated: Aug 23, 2024 12:57:20 AM
* REW Settings:
*  C-weighting compensation: Off
*  Target level: 75.0 dB
* Note: KZ AS24 Pro 1110 L
* Measurement: L AS24 Pro 1110
* Smoothing: 1/12 octave
* Frequency Step: 96 ppo
* Start Frequency: 0.36621094 Hz
*
* Freq(Hz) SPL(dB) Phase(degrees)
0.366211 87.955 158.0681
0.368865 87.945 158.0486
0.371538 87.931 158.0194
0.374230 87.914 157.9825
0.376942 87.894 157.9398
0.379673 87.873 157.8927
0.382424 87.851 157.8420
0.385196 87.828 157.7882
0.387987 87.805 157.7318
0.390798 87.781 157.6727
0.393630 87.758 157.6111
0.396483 87.734 157.5471
0.399356 87.710 157.4806
0.402250 87.686 157.4116
0.405165 87.661 157.3401
0.408101 87.637 157.2661
0.411058 87.612 157.1896
0.414037 87.587 157.1104
0.417037 87.562 157.0287
0.420059 87.537 156.9443
0.423103 87.511 156.8572
0.426169 87.486 156.7675
0.429257 87.460 156.6751
0.432368 87.434 156.5800
0.435501 87.408 156.4821
0.438656 87.381 156.3814
0.441835 87.354 156.2779
0.445037 87.328 156.1716
0.448262 87.301 156.0624
0.451510 87.274 155.9503
0.454782 87.246 155.8354
0.458077 87.219 155.7176
0.461397 87.191 155.5968
0.464740 87.163 155.4730
0.468108 87.135 155.3463
0.471500 87.106 155.2166
0.474917 87.078 155.0838
0.478358 87.049 154.9480
0.481825 87.020 154.8092
0.485316 86.991 154.6674
0.488833 86.961 154.5224
0.492375 86.932 154.3744
0.495943 86.902 154.2232
0.499537 86.872 154.0690
0.503157 86.841 153.9117
0.506803 86.811 153.7512
0.510475 86.780 153.5876
0.514175 86.749 153.4209
0.517900 86.718 153.2511
0.521653 86.687 153.0781
0.525434 86.655 152.9020
0.529241 86.623 152.7229
0.533076 86.591 152.5406
0.536939 86.559 152.3553
0.540830 86.526 152.1668
0.544749 86.493 151.9754
0.548696 86.460 151.7809
0.552673 86.427 151.5834
0.556677 86.394 151.3830
0.560711 86.360 151.1796
0.564774 86.326 150.9734
0.568867 86.292 150.7643
0.572989 86.257 150.5524
0.577141 86.222 150.3378
0.581324 86.187 150.1204
0.585536 86.152 149.9005
0.589779 86.117 149.6780
0.594053 86.081 149.4531
0.598358 86.045 149.2258
0.602694 86.009 148.9962
0.607061 85.972 148.7644
0.611460 85.935 148.5305
0.615891 85.898 148.2947
0.620354 85.861 148.0570
0.624849 85.823 147.8176
0.629377 85.785 147.5767
0.633938 85.747 147.3343
0.638532 85.709 147.0908
0.643159 85.670 146.8461
0.647819 85.631 146.6006
0.652514 85.592 146.3544
0.657242 85.552 146.1077
0.662005 85.512 145.8608
0.666802 85.472 145.6140
0.671634 85.432 145.3674
0.676501 85.391 145.1213
0.681403 85.350 144.8761
0.686341 85.309 144.6321
0.691314 85.267 144.3895
0.696324 85.225 144.1486
0.701370 85.182 143.9099
0.706452 85.138 143.6734
0.711571 85.093 143.4396
0.716728 85.046 143.2082
0.721921 84.996 142.9793
0.727153 84.942 142.7522
0.732422 84.882 142.5262
0.737729 84.815 142.3000
0.743075 84.742 142.0724
0.748460 84.663 141.8423
0.753883 84.579 141.6087
0.759346 84.491 141.3710
0.764849 84.399 141.1287
0.770391 84.304 140.8817
0.775974 84.205 140.6295
0.781597 84.104 140.3722
0.787261 84.000 140.1095
0.792966 83.893 139.8412
0.798712 83.783 139.5674
0.804500 83.671 139.2878
0.810329 83.556 139.0023
0.816201 83.438 138.7110
0.822116 83.318 138.4136
0.828073 83.195 138.1100
0.834074 83.070 137.8002
0.840118 82.943 137.4841
0.846206 82.812 137.1615
0.852338 82.680 136.8323
0.858514 82.545 136.4966
0.864735 82.408 136.1542
0.871001 82.269 135.8050
0.877313 82.128 135.4491
0.883670 81.984 135.0863
0.890074 81.839 134.7166
0.896524 81.692 134.3399
0.903020 81.542 133.9564
0.909564 81.392 133.5660
0.916155 81.239 133.1687
0.922794 81.085 132.7647
0.929481 80.929 132.3539
0.936216 80.772 131.9366
0.943000 80.614 131.5129
0.949834 80.455 131.0830
0.956717 80.294 130.6472
0.963649 80.133 130.2057
0.970632 79.971 129.7589
0.977666 79.808 129.3073
0.984750 79.645 128.8515
0.991886 79.482 128.3918
0.999074 79.318 127.9292
1.006314 79.154 127.4644
1.013606 78.990 126.9983
1.020951 78.827 126.5321
1.028349 78.664 126.0669
1.035801 78.502 125.6041
1.043307 78.341 125.1455
1.050867 78.180 124.6927
1.058482 78.021 124.2478
1.066152 77.863 123.8129
1.073878 77.706 123.3905
1.081660 77.550 122.9829
1.089498 77.394 122.5926
1.097393 77.238 122.2215
1.105345 77.080 121.8715
1.113355 76.920 121.5442
1.121423 76.756 121.2410
1.129549 76.588 120.9636
1.137734 76.415 120.7141
1.145979 76.237 120.4948
1.154283 76.055 120.3087
1.162647 75.868 120.1595
1.171072 75.677 120.0519
1.179558 75.483 119.9913
1.188106 75.285 119.9850
1.196715 75.085 120.0418
1.205387 74.883 120.1731
1.214122 74.679 120.3937
1.222920 74.474 120.7229
1.231782 74.268 121.1867
1.240708 74.063 121.8204
1.249699 73.859 122.6736
1.258754 73.656 123.8173
1.267876 73.455 125.3574
1.277063 73.258 127.4565
1.286318 73.065 130.3757
1.295639 72.876 134.5543
1.305027 72.693 140.7614
1.314484 72.517 150.3570
1.324009 72.348 165.4576
1.333604 72.188 -172.5616
1.343268 72.037 -147.9393
1.353002 71.897 -128.3380
1.362806 71.769 -115.4724
1.372681 71.654 -107.2854
1.382628 71.554 -101.9083
1.392647 71.469 -98.2287
1.402739 71.402 -95.6202
1.412904 71.353 -93.7208
1.423142 71.324 -92.3122
1.433455 71.318 -91.2570
1.443843 71.335 -90.4660
1.454305 71.378 -89.8796
1.464844 71.449 -89.4573
1.475459 71.549 -89.1707
1.486150 71.679 -88.9986
1.496920 71.840 -88.9241
1.507767 72.032 -88.9329
1.518693 72.254 -89.0127
1.529698 72.504 -89.1528
1.540783 72.782 -89.3440
1.551948 73.085 -89.5786
1.563194 73.413 -89.8498
1.574521 73.762 -90.1520
1.585931 74.131 -90.4804
1.597423 74.518 -90.8307
1.608999 74.920 -91.1996
1.620658 75.336 -91.5838
1.632402 75.763 -91.9809
1.644232 76.199 -92.3886
1.656146 76.640 -92.8049
1.668147 77.086 -93.2281
1.680235 77.532 -93.6567
1.692411 77.976 -94.0895
1.704675 78.416 -94.5253
1.717028 78.849 -94.9633
1.729470 79.272 -95.4025
1.742003 79.682 -95.8425
1.754626 80.077 -96.2829
1.767341 80.454 -96.7235
1.780147 80.810 -97.1649
1.793047 81.145 -97.6080
1.806040 81.457 -98.0546
1.819128 81.745 -98.5076
1.832310 82.012 -98.9707
1.845587 82.258 -99.4479
1.858961 82.486 -99.9426
1.872432 82.698 -100.4568
1.886001 82.895 -100.9911
1.899667 83.078 -101.5449
1.913433 83.249 -102.1165
1.927299 83.409 -102.7040
1.941265 83.557 -103.3050
1.955332 83.695 -103.9172
1.969501 83.823 -104.5381
1.983773 83.942 -105.1654
1.998148 84.053 -105.7966
2.012627 84.156 -106.4294
2.027212 84.252 -107.0617
2.041902 84.342 -107.6913
2.056698 84.427 -108.3160
2.071602 84.508 -108.9339
2.086614 84.585 -109.5430
2.101734 84.659 -110.1417
2.116964 84.731 -110.7284
2.132304 84.803 -111.3022
2.147756 84.874 -111.8627
2.163320 84.945 -112.4105
2.178996 85.017 -112.9475
2.194786 85.087 -113.4771
2.210690 85.156 -114.0037
2.226710 85.223 -114.5318
2.242845 85.286 -115.0652
2.259098 85.345 -115.6061
2.275468 85.400 -116.1553
2.291957 85.450 -116.7126
2.308566 85.495 -117.2770
2.325295 85.535 -117.8470
2.342145 85.571 -118.4205
2.359117 85.602 -118.9954
2.376212 85.629 -119.5693
2.393431 85.652 -120.1397
2.410775 85.672 -120.7038
2.428244 85.688 -121.2589
2.445840 85.700 -121.8021
2.463564 85.710 -122.3304
2.481416 85.717 -122.8412
2.499397 85.722 -123.3319
2.517509 85.724 -123.8007
2.535752 85.723 -124.2468
2.554127 85.719 -124.6706
2.572635 85.712 -125.0738
2.591277 85.702 -125.4593
2.610055 85.687 -125.8297
2.628968 85.667 -126.1870
2.648019 85.643 -126.5326
2.667208 85.615 -126.8668
2.686535 85.583 -127.1892
2.706003 85.546 -127.4990
2.725612 85.507 -127.7950
2.745363 85.464 -128.0754
2.765257 85.419 -128.3385
2.785295 85.373 -128.5821
2.805478 85.324 -128.8036
2.825808 85.275 -129.0007
2.846285 85.225 -129.1703
2.866910 85.175 -129.3096
2.887685 85.125 -129.4156
2.908611 85.075 -129.4855
2.929688 85.025 -129.5166
2.950917 84.973 -129.5069
2.972301 84.920 -129.4550
2.993839 84.865 -129.3604
3.015534 84.809 -129.2234
3.037386 84.750 -129.0447
3.059396 84.691 -128.8257
3.081565 84.632 -128.5680
3.103896 84.573 -128.2737
3.126388 84.516 -127.9454
3.149043 84.462 -127.5856
3.171862 84.411 -127.1971
3.194847 84.365 -126.7827
3.217998 84.325 -126.3450
3.241317 84.292 -125.8856
3.264805 84.267 -125.4050
3.288463 84.249 -124.9019
3.312293 84.239 -124.3741
3.336295 84.238 -123.8191
3.360471 84.244 -123.2359
3.384822 84.257 -122.6264
3.409350 84.278 -121.9945
3.434056 84.305 -121.3467
3.458940 84.339 -120.6905
3.484005 84.379 -120.0345
3.509252 84.424 -119.3878
3.534681 84.474 -118.7592
3.560295 84.530 -118.1574
3.586094 84.591 -117.5898
3.612081 84.656 -117.0619
3.638255 84.728 -116.5773
3.664620 84.804 -116.1369
3.691175 84.888 -115.7393
3.717923 84.978 -115.3825
3.744864 85.074 -115.0648
3.772001 85.176 -114.7855
3.799335 85.283 -114.5449
3.826866 85.395 -114.3437
3.854597 85.509 -114.1834
3.882529 85.624 -114.0654
3.910664 85.739 -113.9914
3.939002 85.853 -113.9630
3.967546 85.965 -113.9819
3.996296 86.073 -114.0496
4.025255 86.179 -114.1669
4.054423 86.282 -114.3344
4.083804 86.381 -114.5510
4.113396 86.479 -114.8145
4.143204 86.574 -115.1216
4.173227 86.666 -115.4678
4.203468 86.756 -115.8487
4.233928 86.841 -116.2597
4.264609 86.923 -116.6965
4.295512 87.000 -117.1560
4.326639 87.072 -117.6361
4.357992 87.138 -118.1365
4.389572 87.198 -118.6584
4.421380 87.252 -119.2042
4.453419 87.300 -119.7758
4.485691 87.341 -120.3734
4.518196 87.377 -120.9948
4.550936 87.407 -121.6356
4.583914 87.430 -122.2901
4.617131 87.448 -122.9521
4.650589 87.460 -123.6152
4.684289 87.466 -124.2742
4.718233 87.466 -124.9256
4.752424 87.460 -125.5682
4.786862 87.447 -126.2032
4.821549 87.428 -126.8324
4.856488 87.402 -127.4570
4.891680 87.370 -128.0764
4.927127 87.331 -128.6878
4.962831 87.288 -129.2867
4.998794 87.239 -129.8676
5.035017 87.186 -130.4243
5.071503 87.128 -130.9511
5.108253 87.067 -131.4436
5.145270 87.002 -131.8989
5.182555 86.932 -132.3161
5.220110 86.858 -132.6952
5.257937 86.781 -133.0365
5.296038 86.701 -133.3401
5.334415 86.620 -133.6057
5.373071 86.538 -133.8318
5.412006 86.457 -134.0167
5.451224 86.379 -134.1579
5.490725 86.303 -134.2525
5.530514 86.229 -134.2981
5.570590 86.159 -134.2938
5.610957 86.093 -134.2416
5.651616 86.030 -134.1458
5.692570 85.973 -134.0128
5.733821 85.921 -133.8503
5.775370 85.877 -133.6654
5.817221 85.842 -133.4642
5.859375 85.815 -133.2509
5.901834 85.798 -133.0278
5.944602 85.791 -132.7976
5.987679 85.793 -132.5648
6.031068 85.804 -132.3367
6.074771 85.823 -132.1221
6.118792 85.849 -131.9306
6.163131 85.881 -131.7710
6.207792 85.921 -131.6501
6.252776 85.966 -131.5717
6.298086 86.018 -131.5372
6.343725 86.074 -131.5470
6.389694 86.136 -131.6011
6.435996 86.200 -131.6998
6.482634 86.266 -131.8438
6.529610 86.332 -132.0340
6.576926 86.397 -132.2714
6.624585 86.461 -132.5559
6.672590 86.524 -132.8861
6.720942 86.584 -133.2585
6.769645 86.642 -133.6681
6.818700 86.697 -134.1088
6.868111 86.748 -134.5751
6.917881 86.795 -135.0624
6.968010 86.837 -135.5677
7.018504 86.874 -136.0889
7.069362 86.907 -136.6232
7.120590 86.934 -137.1662
7.172189 86.957 -137.7119
7.224161 86.975 -138.2536
7.276511 86.990 -138.7853
7.329239 87.000 -139.3024
7.382350 87.006 -139.8022
7.435845 87.010 -140.2828
7.489729 87.010 -140.7422
7.544002 87.008 -141.1778
7.598669 87.005 -141.5866
7.653732 87.002 -141.9657
7.709194 86.999 -142.3128
7.765058 86.996 -142.6271
7.821327 86.995 -142.9096
7.878004 86.995 -143.1622
7.935091 86.998 -143.3875
7.992592 87.005 -143.5883
8.050510 87.016 -143.7668
8.108847 87.031 -143.9254
8.167607 87.050 -144.0667
8.226793 87.075 -144.1950
8.286408 87.104 -144.3153
8.346454 87.137 -144.4330
8.406936 87.175 -144.5531
8.467856 87.217 -144.6789
8.529218 87.264 -144.8132
8.591024 87.313 -144.9580
8.653278 87.365 -145.1159
8.715983 87.419 -145.2891
8.779143 87.475 -145.4794
8.842760 87.531 -145.6874
8.906839 87.587 -145.9128
8.971381 87.642 -146.1541
9.036392 87.697 -146.4089
9.101873 87.749 -146.6752
9.167829 87.800 -146.9508
9.234263 87.847 -147.2333
9.301178 87.892 -147.5199
9.368578 87.935 -147.8072
9.436467 87.974 -148.0912
9.504847 88.010 -148.3684
9.573723 88.043 -148.6359
9.643099 88.073 -148.8914
9.712976 88.100 -149.1329
9.783361 88.123 -149.3582
9.854255 88.143 -149.5656
9.925663 88.160 -149.7538
9.997588 88.173 -149.9225
10.070035 88.184 -150.0721
10.143007 88.193 -150.2038
10.216507 88.201 -150.3187
10.290540 88.208 -150.4185
10.365109 88.215 -150.5048
10.440219 88.222 -150.5798
10.515873 88.229 -150.6465
10.592076 88.237 -150.7073
10.668830 88.246 -150.7648
10.746141 88.255 -150.8208
10.824012 88.265 -150.8771
10.902447 88.276 -150.9355
10.981451 88.286 -150.9972
11.061027 88.296 -151.0630
11.141180 88.305 -151.1332
11.221913 88.313 -151.2078
11.303232 88.321 -151.2863
11.385140 88.327 -151.3681
11.467641 88.331 -151.4525
11.550741 88.335 -151.5388
11.634442 88.336 -151.6259
11.718750 88.337 -151.7129
11.803669 88.337 -151.7992
11.889203 88.336 -151.8845
11.975357 88.334 -151.9685
12.062136 88.331 -152.0513
12.149543 88.328 -152.1332
12.237583 88.325 -152.2147
12.326262 88.321 -152.2966
12.415583 88.316 -152.3797
12.505552 88.311 -152.4650
12.596172 88.306 -152.5534
12.687449 88.299 -152.6454
12.779387 88.293 -152.7419
12.871992 88.285 -152.8433
12.965268 88.277 -152.9497
13.059220 88.268 -153.0610
13.153852 88.258 -153.1770
13.249170 88.247 -153.2973
13.345179 88.236 -153.4213
13.441884 88.225 -153.5486
13.539289 88.213 -153.6786
13.637401 88.202 -153.8111
13.736223 88.190 -153.9458
13.835761 88.178 -154.0830
13.936021 88.166 -154.2231
14.037007 88.155 -154.3666
14.138725 88.145 -154.5146
14.241180 88.135 -154.6681
14.344377 88.126 -154.8283
14.448323 88.117 -154.9962
14.553021 88.110 -155.1726
14.658478 88.102 -155.3583
14.764700 88.096 -155.5536
14.871691 88.090 -155.7581
14.979457 88.084 -155.9714
15.088005 88.078 -156.1924
15.197339 88.073 -156.4196
15.307465 88.067 -156.6515
15.418389 88.062 -156.8862
15.530117 88.057 -157.1219
15.642655 88.052 -157.3571
15.756008 88.047 -157.5903
15.870182 88.043 -157.8206
15.985184 88.041 -158.0475
16.101019 88.039 -158.2709
16.217694 88.039 -158.4911
16.335214 88.041 -158.7089
16.453586 88.044 -158.9250
16.572815 88.049 -159.1401
16.692909 88.055 -159.3550
16.813872 88.064 -159.5700
16.935713 88.073 -159.7850
17.058436 88.084 -159.9994
17.182048 88.095 -160.2121
17.306556 88.107 -160.4219
17.431967 88.119 -160.6271
17.558286 88.132 -160.8258
17.685521 88.144 -161.0166
17.813677 88.157 -161.1982
17.942762 88.170 -161.3698
18.072783 88.183 -161.5311
18.203746 88.198 -161.6827
18.335658 88.213 -161.8256
18.468526 88.229 -161.9613
18.602356 88.246 -162.0917
18.737156 88.264 -162.2186
18.872934 88.283 -162.3439
19.009695 88.302 -162.4690
19.147447 88.321 -162.5949
19.286197 88.339 -162.7221
19.425953 88.357 -162.8503
19.566721 88.373 -162.9788
19.708510 88.388 -163.1067
19.851326 88.400 -163.2327
19.995177 88.411 -163.3555
20.140070 88.421 -163.4740
20.286013 88.428 -163.5874
20.433014 88.434 -163.6954
20.581080 88.439 -163.7979
20.730219 88.442 -163.8955
20.880439 88.445 -163.9890
21.031747 88.448 -164.0797
21.184152 88.449 -164.1688
21.337661 88.451 -164.2578
21.492282 88.452 -164.3484
21.648024 88.454 -164.4418
21.804895 88.455 -164.5395
21.962902 88.455 -164.6425
22.122054 88.456 -164.7520
22.282360 88.456 -164.8684
22.443827 88.455 -164.9923
22.606464 88.454 -165.1236
22.770280 88.452 -165.2620
22.935283 88.451 -165.4071
23.101481 88.448 -165.5582
23.268884 88.446 -165.7144
23.437500 88.443 -165.8751
23.607338 88.440 -166.0399
23.778406 88.438 -166.2084
23.950714 88.436 -166.3807
24.124271 88.434 -166.5571
24.299086 88.433 -166.7377
24.475167 88.433 -166.9227
24.652524 88.433 -167.1117
24.831166 88.435 -167.3040
25.011103 88.436 -167.4984
25.192344 88.438 -167.6933
25.374898 88.440 -167.8870
25.558775 88.443 -168.0779
25.743984 88.447 -168.2649
25.930536 88.451 -168.4475
26.118439 88.456 -168.6261
26.307704 88.463 -168.8013
26.498341 88.470 -168.9740
26.690359 88.477 -169.1451
26.883768 88.485 -169.3144
27.078579 88.492 -169.4811
27.274801 88.498 -169.6433
27.472446 88.503 -169.7981
27.671522 88.508 -169.9427
27.872042 88.511 -170.0746
28.074014 88.514 -170.1922
28.277450 88.517 -170.2961
28.482360 88.521 -170.3882
28.688755 88.526 -170.4727
28.896645 88.533 -170.5544
29.106042 88.540 -170.6385
29.316957 88.548 -170.7298
29.529400 88.556 -170.8313
29.743382 88.564 -170.9443
29.958915 88.570 -171.0681
30.176009 88.575 -171.2006
30.394677 88.578 -171.3387
30.614929 88.579 -171.4795
30.836778 88.579 -171.6205
31.060234 88.578 -171.7605
31.285309 88.577 -171.8995
31.512015 88.575 -172.0388
31.740364 88.574 -172.1799
31.970368 88.573 -172.3249
32.202039 88.573 -172.4753
32.435388 88.573 -172.6317
32.670428 88.573 -172.7939
32.907171 88.573 -172.9608
33.145630 88.573 -173.1306
33.385817 88.573 -173.3016
33.627745 88.574 -173.4721
33.871425 88.575 -173.6410
34.116871 88.576 -173.8077
34.364096 88.578 -173.9724
34.613113 88.581 -174.1353
34.863934 88.585 -174.2971
35.116572 88.588 -174.4579
35.371041 88.592 -174.6176
35.627354 88.596 -174.7755
35.885525 88.600 -174.9307
36.145566 88.604 -175.0823
36.407492 88.607 -175.2294
36.671316 88.610 -175.3716
36.937051 88.612 -175.5094
37.204712 88.615 -175.6436
37.474313 88.617 -175.7758
37.745867 88.620 -175.9077
38.019389 88.622 -176.0409
38.294893 88.624 -176.1762
38.572394 88.625 -176.3141
38.851905 88.626 -176.4541
39.133442 88.625 -176.5954
39.417019 88.624 -176.7369
39.702651 88.623 -176.8783
39.990353 88.621 -177.0196
40.280140 88.619 -177.1615
40.572026 88.617 -177.3052
40.866028 88.616 -177.4520
41.162160 88.615 -177.6023
41.460438 88.613 -177.7560
41.760877 88.612 -177.9122
42.063494 88.610 -178.0695
42.368303 88.608 -178.2267
42.675322 88.606 -178.3829
42.984565 88.604 -178.5382
43.296048 88.602 -178.6932
43.609789 88.600 -178.8484
43.925804 88.598 -179.0041
44.244108 88.595 -179.1596
44.564719 88.592 -179.3134
44.887654 88.589 -179.4641
45.212928 88.585 -179.6105
45.540560 88.582 -179.7532
45.870565 88.579 -179.8939
46.202962 88.576 179.9648
46.537768 88.574 179.8207
46.875000 88.572 179.6728
47.214676 88.569 179.5217
47.556813 88.567 179.3690
47.901429 88.564 179.2163
48.248542 88.561 179.0640
48.598171 88.559 178.9116
48.950334 88.557 178.7584
49.305048 88.555 178.6041
49.662333 88.552 178.4497
50.022206 88.549 178.2970
50.384688 88.546 178.1479
50.749796 88.543 178.0032
51.117550 88.540 177.8626
51.487969 88.538 177.7253
51.861072 88.535 177.5903
52.236879 88.533 177.4569
52.615409 88.530 177.3245
52.996681 88.528 177.1920
53.380717 88.526 177.0586
53.767536 88.523 176.9233
54.157158 88.521 176.7855
54.549603 88.518 176.6452
54.944892 88.515 176.5024
55.343045 88.513 176.3569
55.744084 88.510 176.2084
56.148028 88.507 176.0570
56.554900 88.504 175.9036
56.964720 88.501 175.7495
57.377510 88.498 175.5952
57.793291 88.496 175.4403
58.212085 88.495 175.2829
58.633914 88.493 175.1212
59.058799 88.492 174.9547
59.486764 88.490 174.7845
59.917829 88.487 174.6128
60.352019 88.483 174.4422
60.789354 88.477 174.2743
61.229859 88.471 174.1102
61.673556 88.463 173.9501
62.120468 88.455 173.7942
62.570618 88.446 173.6421
63.024031 88.437 173.4932
63.480729 88.427 173.3467
63.940736 88.418 173.2018
64.404077 88.408 173.0580
64.870776 88.399 172.9146
65.340856 88.390 172.7712
65.814343 88.381 172.6272
66.291261 88.373 172.4825
66.771635 88.365 172.3374
67.255489 88.356 172.1928
67.742850 88.348 172.0496
68.233743 88.340 171.9089
68.728193 88.332 171.7710
69.226226 88.324 171.6358
69.727867 88.316 171.5023
70.233144 88.308 171.3692
70.742083 88.301 171.2358
71.254709 88.294 171.1014
71.771050 88.287 170.9650
72.291132 88.281 170.8250
72.814984 88.276 170.6796
73.342631 88.270 170.5279
73.874102 88.266 170.3694
74.409424 88.261 170.2045
74.948626 88.256 170.0340
75.491734 88.250 169.8604
76.038779 88.244 169.6864
76.589787 88.238 169.5136
77.144788 88.233 169.3419
77.703811 88.227 169.1696
78.266885 88.222 168.9946
78.834039 88.217 168.8150
79.405303 88.211 168.6290
79.980706 88.206 168.4351
80.560280 88.200 168.2330
81.144053 88.193 168.0234
81.732056 88.185 167.8080
