* Measurement data measured by REW V5.31
* Source: EXCL: Microphone (USB Sound Device        ), MICROPHONE (Master Volume), L, volume: 0.390
* Format: 256k Log Swept Sine, 1 sweep at -10.0 dBFS with no timing reference
* Dated: Aug 28, 2024 1:03:43 PM
* REW Settings:
*  C-weighting compensation: Off
*  Target level: 75.0 dB
* Note: KZ Carol L
* Measurement: L KZ Carol
* Smoothing: 1/12 octave
* Frequency Step: 96 ppo
* Start Frequency: 0.36621094 Hz
*
* Freq(Hz) SPL(dB) Phase(degrees)
0.366211 85.103 156.6615
0.368865 85.097 156.6373
0.371538 85.087 156.6011
0.374230 85.076 156.5557
0.376942 85.063 156.5032
0.379673 85.049 156.4455
0.382424 85.035 156.3838
0.385196 85.020 156.3186
0.387987 85.005 156.2504
0.390798 84.989 156.1794
0.393630 84.974 156.1057
0.396483 84.958 156.0293
0.399356 84.943 155.9502
0.402250 84.927 155.8685
0.405165 84.911 155.7840
0.408101 84.895 155.6969
0.411058 84.879 155.6070
0.414037 84.862 155.5144
0.417037 84.846 155.4189
0.420059 84.830 155.3206
0.423103 84.813 155.2195
0.426169 84.796 155.1155
0.429257 84.779 155.0086
0.432368 84.762 154.8988
0.435501 84.745 154.7860
0.438656 84.728 154.6703
0.441835 84.710 154.5515
0.445037 84.693 154.4297
0.448262 84.675 154.3049
0.451510 84.658 154.1770
0.454782 84.640 154.0460
0.458077 84.622 153.9119
0.461397 84.603 153.7746
0.464740 84.585 153.6342
0.468108 84.567 153.4906
0.471500 84.548 153.3438
0.474917 84.530 153.1938
0.478358 84.511 153.0405
0.481825 84.492 152.8840
0.485316 84.473 152.7243
0.488833 84.453 152.5613
0.492375 84.434 152.3950
0.495943 84.415 152.2253
0.499537 84.395 152.0524
0.503157 84.375 151.8762
0.506803 84.355 151.6967
0.510475 84.335 151.5138
0.514175 84.315 151.3276
0.517900 84.294 151.1381
0.521653 84.274 150.9453
0.525434 84.253 150.7492
0.529241 84.232 150.5497
0.533076 84.211 150.3470
0.536939 84.190 150.1410
0.540830 84.169 149.9317
0.544749 84.148 149.7191
0.548696 84.126 149.5033
0.552673 84.104 149.2843
0.556677 84.082 149.0621
0.560711 84.060 148.8368
0.564774 84.038 148.6084
0.568867 84.016 148.3768
0.572989 83.993 148.1423
0.577141 83.970 147.9047
0.581324 83.948 147.6642
0.585536 83.925 147.4208
0.589779 83.901 147.1746
0.594053 83.878 146.9256
0.598358 83.854 146.6740
0.602694 83.831 146.4197
0.607061 83.807 146.1629
0.611460 83.783 145.9036
0.615891 83.759 145.6420
0.620354 83.734 145.3782
0.624849 83.710 145.1122
0.629377 83.685 144.8441
0.633938 83.660 144.5742
0.638532 83.635 144.3024
0.643159 83.609 144.0291
0.647819 83.584 143.7542
0.652514 83.558 143.4780
0.657242 83.532 143.2005
0.662005 83.506 142.9221
0.666802 83.480 142.6428
0.671634 83.454 142.3629
0.676501 83.427 142.0826
0.681403 83.400 141.8020
0.686341 83.373 141.5213
0.691314 83.346 141.2409
0.696324 83.318 140.9609
0.701370 83.291 140.6815
0.706452 83.262 140.4028
0.711571 83.234 140.1250
0.716728 83.204 139.8481
0.721921 83.173 139.5717
0.727153 83.141 139.2954
0.732422 83.106 139.0182
0.737729 83.069 138.7393
0.743075 83.030 138.4574
0.748460 82.989 138.1714
0.753883 82.947 137.8807
0.759346 82.903 137.5847
0.764849 82.859 137.2829
0.770391 82.814 136.9752
0.775974 82.769 136.6613
0.781597 82.723 136.3411
0.787261 82.677 136.0145
0.792966 82.630 135.6814
0.798712 82.582 135.3417
0.804500 82.534 134.9954
0.810329 82.485 134.6423
0.816201 82.435 134.2825
0.822116 82.385 133.9158
0.828073 82.334 133.5422
0.834074 82.283 133.1616
0.840118 82.230 132.7741
0.846206 82.177 132.3796
0.852338 82.123 131.9780
0.858514 82.068 131.5693
0.864735 82.011 131.1536
0.871001 81.954 130.7308
0.877313 81.896 130.3009
0.883670 81.837 129.8641
0.890074 81.777 129.4202
0.896524 81.715 128.9693
0.903020 81.652 128.5116
0.909564 81.588 128.0471
0.916155 81.523 127.5760
0.922794 81.456 127.0983
0.929481 81.387 126.6142
0.936216 81.317 126.1238
0.943000 81.246 125.6274
0.949834 81.173 125.1252
0.956717 81.098 124.6174
0.963649 81.021 124.1043
0.970632 80.942 123.5863
0.977666 80.862 123.0636
0.984750 80.779 122.5367
0.991886 80.694 122.0061
0.999074 80.608 121.4721
1.006314 80.518 120.9353
1.013606 80.427 120.3963
1.020951 80.333 119.8556
1.028349 80.237 119.3140
1.035801 80.137 118.7722
1.043307 80.036 118.2309
1.050867 79.931 117.6910
1.058482 79.824 117.1532
1.066152 79.713 116.6184
1.073878 79.599 116.0874
1.081660 79.482 115.5606
1.089498 79.362 115.0383
1.097393 79.238 114.5205
1.105345 79.110 114.0066
1.113355 78.979 113.4957
1.121423 78.843 112.9871
1.129549 78.704 112.4797
1.137734 78.561 111.9729
1.145979 78.413 111.4659
1.154283 78.262 110.9581
1.162647 78.106 110.4488
1.171072 77.947 109.9376
1.179558 77.784 109.4238
1.188106 77.617 108.9068
1.196715 77.446 108.3861
1.205387 77.271 107.8608
1.214122 77.093 107.3304
1.222920 76.911 106.7942
1.231782 76.726 106.2512
1.240708 76.537 105.7008
1.249699 76.344 105.1421
1.258754 76.149 104.5740
1.267876 75.950 103.9957
1.277063 75.748 103.4060
1.286318 75.543 102.8040
1.295639 75.336 102.1884
1.305027 75.125 101.5579
1.314484 74.912 100.9112
1.324009 74.696 100.2469
1.333604 74.478 99.5635
1.343268 74.258 98.8595
1.353002 74.036 98.1332
1.362806 73.812 97.3829
1.372681 73.586 96.6068
1.382628 73.358 95.8031
1.392647 73.129 94.9700
1.402739 72.898 94.1055
1.412904 72.666 93.2080
1.423142 72.433 92.2757
1.433455 72.198 91.3071
1.443843 71.961 90.3010
1.454305 71.721 89.2560
1.464844 71.476 88.1709
1.475459 71.225 87.0437
1.486150 70.965 85.8715
1.496920 70.695 84.6498
1.507767 70.415 83.3722
1.518693 70.123 82.0306
1.529698 69.821 80.6149
1.540783 69.509 79.1125
1.551948 69.187 77.5081
1.563194 68.858 75.7832
1.574521 68.521 73.9151
1.585931 68.179 71.8756
1.597423 67.833 69.6304
1.608999 67.485 67.1362
1.620658 67.136 64.3395
1.632402 66.787 61.1732
1.644232 66.442 57.5542
1.656146 66.101 53.3808
1.668147 65.767 48.5319
1.680235 65.442 42.8729
1.692411 65.129 36.2715
1.704675 64.829 28.6344
1.717028 64.546 19.9679
1.729470 64.282 10.4482
1.742003 64.040 0.4540
1.754626 63.823 -9.4974
1.767341 63.635 -18.9019
1.780147 63.479 -27.4129
1.793047 63.358 -34.8892
1.806040 63.276 -41.3544
1.819128 63.237 -46.9251
1.832310 63.244 -51.7518
1.845587 63.298 -55.9828
1.858961 63.401 -59.7444
1.872432 63.553 -63.1352
1.886001 63.753 -66.2280
1.899667 63.997 -69.0755
1.913433 64.283 -71.7165
1.927299 64.607 -74.1792
1.941265 64.965 -76.4852
1.955332 65.353 -78.6511
1.969501 65.766 -80.6901
1.983773 66.200 -82.6126
1.998148 66.650 -84.4274
2.012627 67.112 -86.1414
2.027212 67.581 -87.7607
2.041902 68.052 -89.2901
2.056698 68.521 -90.7339
2.071602 68.982 -92.0955
2.086614 69.431 -93.3783
2.101734 69.863 -94.5851
2.116964 70.274 -95.7192
2.132304 70.661 -96.7840
2.147756 71.018 -97.7844
2.163320 71.346 -98.7267
2.178996 71.642 -99.6197
2.194786 71.907 -100.4747
2.210690 72.143 -101.3049
2.226710 72.354 -102.1231
2.242845 72.542 -102.9391
2.259098 72.710 -103.7592
2.275468 72.860 -104.5864
2.291957 72.992 -105.4209
2.308566 73.109 -106.2614
2.325295 73.211 -107.1054
2.342145 73.300 -107.9495
2.359117 73.376 -108.7899
2.376212 73.440 -109.6224
2.393431 73.494 -110.4426
2.410775 73.538 -111.2456
2.428244 73.573 -112.0265
2.445840 73.602 -112.7803
2.463564 73.623 -113.5020
2.481416 73.640 -114.1870
2.499397 73.652 -114.8311
2.517509 73.660 -115.4317
2.535752 73.664 -115.9880
2.554127 73.663 -116.5019
2.572635 73.658 -116.9779
2.591277 73.645 -117.4223
2.610055 73.625 -117.8413
2.628968 73.595 -118.2392
2.648019 73.557 -118.6188
2.667208 73.509 -118.9806
2.686535 73.453 -119.3239
2.706003 73.388 -119.6465
2.725612 73.315 -119.9454
2.745363 73.237 -120.2169
2.765257 73.152 -120.4562
2.785295 73.063 -120.6582
2.805478 72.970 -120.8168
2.825808 72.874 -120.9255
2.846285 72.777 -120.9775
2.866910 72.678 -120.9653
2.887685 72.577 -120.8817
2.908611 72.475 -120.7196
2.929688 72.371 -120.4728
2.950917 72.262 -120.1359
2.972301 72.148 -119.7045
2.993839 72.028 -119.1755
3.015534 71.902 -118.5462
3.037386 71.771 -117.8151
3.059396 71.636 -116.9812
3.081565 71.501 -116.0446
3.103896 71.367 -115.0066
3.126388 71.237 -113.8698
3.149043 71.114 -112.6384
3.171862 71.001 -111.3182
3.194847 70.902 -109.9166
3.217998 70.821 -108.4417
3.241317 70.759 -106.9018
3.264805 70.721 -105.3039
3.288463 70.707 -103.6527
3.312293 70.718 -101.9512
3.336295 70.756 -100.2023
3.360471 70.818 -98.4129
3.384822 70.903 -96.5955
3.409350 71.010 -94.7674
3.434056 71.135 -92.9493
3.458940 71.276 -91.1638
3.484005 71.431 -89.4332
3.509252 71.597 -87.7784
3.534681 71.772 -86.2179
3.560295 71.953 -84.7669
3.586094 72.138 -83.4365
3.612081 72.327 -82.2338
3.638255 72.518 -81.1610
3.664620 72.714 -80.2159
3.691175 72.914 -79.3923
3.717923 73.120 -78.6824
3.744864 73.332 -78.0774
3.772001 73.549 -77.5693
3.799335 73.771 -77.1503
3.826866 73.995 -76.8132
3.854597 74.219 -76.5516
3.882529 74.441 -76.3596
3.910664 74.658 -76.2320
3.939002 74.869 -76.1647
3.967546 75.070 -76.1550
3.996296 75.262 -76.2013
4.025255 75.444 -76.3031
4.054423 75.615 -76.4607
4.083804 75.776 -76.6731
4.113396 75.928 -76.9373
4.143204 76.071 -77.2482
4.173227 76.205 -77.5990
4.203468 76.332 -77.9817
4.233928 76.450 -78.3883
4.264609 76.560 -78.8111
4.295512 76.663 -79.2438
4.326639 76.757 -79.6817
4.357992 76.844 -80.1224
4.389572 76.921 -80.5666
4.421380 76.991 -81.0166
4.453419 77.051 -81.4754
4.485691 77.102 -81.9437
4.518196 77.144 -82.4201
4.550936 77.179 -82.9002
4.583914 77.205 -83.3779
4.617131 77.224 -83.8458
4.650589 77.237 -84.2965
4.684289 77.244 -84.7229
4.718233 77.245 -85.1196
4.752424 77.240 -85.4834
4.786862 77.229 -85.8135
4.821549 77.212 -86.1108
4.856488 77.189 -86.3764
4.891680 77.160 -86.6109
4.927127 77.126 -86.8135
4.962831 77.089 -86.9824
4.998794 77.050 -87.1149
5.035017 77.010 -87.2076
5.071503 76.970 -87.2569
5.108253 76.931 -87.2591
5.145270 76.893 -87.2114
5.182555 76.857 -87.1124
5.220110 76.822 -86.9631
5.257937 76.788 -86.7667
5.296038 76.757 -86.5285
5.334415 76.731 -86.2552
5.373071 76.709 -85.9538
5.412006 76.694 -85.6310
5.451224 76.687 -85.2918
5.490725 76.689 -84.9398
5.530514 76.699 -84.5768
5.570590 76.719 -84.2053
5.610957 76.747 -83.8297
5.651616 76.783 -83.4573
5.692570 76.827 -83.0977
5.733821 76.878 -82.7611
5.775370 76.935 -82.4573
5.817221 76.998 -82.1945
5.859375 77.066 -81.9778
5.901834 77.141 -81.8094
5.944602 77.221 -81.6901
5.987679 77.306 -81.6197
6.031068 77.394 -81.5986
6.074771 77.485 -81.6281
6.118792 77.576 -81.7094
6.163131 77.667 -81.8441
6.207792 77.756 -82.0337
6.252776 77.843 -82.2783
6.298086 77.928 -82.5766
6.343725 78.010 -82.9252
6.389694 78.089 -83.3190
6.435996 78.165 -83.7520
6.482634 78.236 -84.2185
6.529610 78.302 -84.7135
6.576926 78.364 -85.2340
6.624585 78.420 -85.7782
6.672590 78.470 -86.3443
6.720942 78.514 -86.9293
6.769645 78.554 -87.5282
6.818700 78.588 -88.1345
6.868111 78.618 -88.7415
6.917881 78.643 -89.3433
6.968010 78.664 -89.9361
7.018504 78.681 -90.5178
7.069362 78.694 -91.0868
7.120590 78.704 -91.6413
7.172189 78.712 -92.1784
7.224161 78.719 -92.6944
7.276511 78.725 -93.1859
7.329239 78.731 -93.6499
7.382350 78.738 -94.0852
7.435845 78.746 -94.4922
7.489729 78.756 -94.8724
7.544002 78.769 -95.2283
7.598669 78.786 -95.5623
7.653732 78.807 -95.8763
7.709194 78.834 -96.1721
7.765058 78.866 -96.4517
7.821327 78.904 -96.7183
7.878004 78.948 -96.9763
7.935091 78.997 -97.2315
7.992592 79.053 -97.4894
8.050510 79.115 -97.7544
8.108847 79.182 -98.0297
8.167607 79.256 -98.3177
8.226793 79.334 -98.6206
8.286408 79.416 -98.9411
8.346454 79.503 -99.2820
8.406936 79.592 -99.6452
8.467856 79.683 -100.0318
8.529218 79.776 -100.4413
8.591024 79.870 -100.8723
8.653278 79.965 -101.3227
8.715983 80.060 -101.7904
8.779143 80.154 -102.2734
8.842760 80.246 -102.7696
8.906839 80.338 -103.2765
8.971381 80.427 -103.7906
9.036392 80.515 -104.3078
9.101873 80.601 -104.8243
9.167829 80.685 -105.3367
9.234263 80.768 -105.8423
9.301178 80.848 -106.3389
9.368578 80.927 -106.8238
9.436467 81.004 -107.2946
9.504847 81.080 -107.7490
9.573723 81.156 -108.1855
9.643099 81.231 -108.6035
9.712976 81.304 -109.0031
9.783361 81.377 -109.3846
9.854255 81.448 -109.7484
9.925663 81.518 -110.0954
9.997588 81.587 -110.4267
10.070035 81.654 -110.7440
10.143007 81.721 -111.0494
10.216507 81.788 -111.3450
10.290540 81.854 -111.6328
10.365109 81.921 -111.9144
10.440219 81.987 -112.1913
10.515873 82.054 -112.4651
10.592076 82.120 -112.7371
10.668830 82.186 -113.0084
10.746141 82.252 -113.2794
10.824012 82.318 -113.5503
10.902447 82.382 -113.8209
10.981451 82.446 -114.0911
11.061027 82.508 -114.3604
11.141180 82.569 -114.6283
11.221913 82.629 -114.8939
11.303232 82.687 -115.1566
11.385140 82.744 -115.4157
11.467641 82.799 -115.6707
11.550741 82.854 -115.9215
11.634442 82.907 -116.1678
11.718750 82.959 -116.4098
11.803669 83.011 -116.6478
11.889203 83.062 -116.8824
11.975357 83.113 -117.1143
12.062136 83.163 -117.3446
12.149543 83.212 -117.5742
12.237583 83.262 -117.8040
12.326262 83.310 -118.0350
12.415583 83.358 -118.2680
12.505552 83.405 -118.5039
12.596172 83.450 -118.7431
12.687449 83.495 -118.9859
12.779387 83.538 -119.2325
12.871992 83.579 -119.4827
12.965268 83.620 -119.7364
13.059220 83.659 -119.9934
13.153852 83.697 -120.2533
13.249170 83.734 -120.5157
13.345179 83.770 -120.7806
13.441884 83.806 -121.0481
13.539289 83.842 -121.3183
13.637401 83.877 -121.5917
13.736223 83.912 -121.8691
13.835761 83.947 -122.1516
13.936021 83.983 -122.4404
14.037007 84.018 -122.7368
14.138725 84.054 -123.0421
14.241180 84.090 -123.3578
14.344377 84.126 -123.6851
14.448323 84.161 -124.0248
14.553021 84.197 -124.3776
14.658478 84.233 -124.7438
14.764700 84.268 -125.1232
14.871691 84.303 -125.5151
14.979457 84.338 -125.9187
15.088005 84.372 -126.3327
15.197339 84.406 -126.7558
15.307465 84.439 -127.1862
15.418389 84.472 -127.6225
15.530117 84.504 -128.0633
15.642655 84.537 -128.5075
15.756008 84.570 -128.9541
15.870182 84.603 -129.4027
15.985184 84.638 -129.8531
16.101019 84.673 -130.3055
16.217694 84.709 -130.7603
16.335214 84.747 -131.2182
16.453586 84.786 -131.6796
16.572815 84.826 -132.1454
16.692909 84.868 -132.6157
16.813872 84.911 -133.0907
16.935713 84.955 -133.5700
17.058436 85.000 -134.0529
17.182048 85.046 -134.5383
17.306556 85.092 -135.0248
17.431967 85.138 -135.5105
17.558286 85.184 -135.9936
17.685521 85.229 -136.4721
17.813677 85.275 -136.9443
17.942762 85.320 -137.4085
18.072783 85.366 -137.8635
18.203746 85.412 -138.3085
18.335658 85.458 -138.7431
18.468526 85.505 -139.1675
18.602356 85.553 -139.5823
18.737156 85.602 -139.9885
18.872934 85.653 -140.3875
19.009695 85.704 -140.7809
19.147447 85.757 -141.1706
19.286197 85.810 -141.5583
19.425953 85.864 -141.9457
19.566721 85.918 -142.3341
19.708510 85.972 -142.7249
19.851326 86.025 -143.1187
19.995177 86.078 -143.5161
20.140070 86.130 -143.9170
20.286013 86.180 -144.3210
20.433014 86.228 -144.7274
20.581080 86.275 -145.1355
20.730219 86.320 -145.5440
20.880439 86.363 -145.9522
21.031747 86.405 -146.3592
21.184152 86.445 -146.7646
21.337661 86.484 -147.1685
21.492282 86.523 -147.5713
21.648024 86.561 -147.9739
21.804895 86.598 -148.3776
21.962902 86.635 -148.7841
22.122054 86.672 -149.1948
22.282360 86.708 -149.6113
22.443827 86.743 -150.0347
22.606464 86.778 -150.4658
22.770280 86.813 -150.9048
22.935283 86.846 -151.3514
23.101481 86.879 -151.8051
23.268884 86.911 -152.2652
23.437500 86.942 -152.7308
23.607338 86.973 -153.2012
23.778406 87.004 -153.6762
23.950714 87.035 -154.1555
24.124271 87.065 -154.6393
24.299086 87.096 -155.1280
24.475167 87.128 -155.6218
24.652524 87.159 -156.1208
24.831166 87.191 -156.6246
25.011103 87.224 -157.1326
25.192344 87.256 -157.6437
25.374898 87.289 -158.1567
25.558775 87.321 -158.6702
25.743984 87.354 -159.1830
25.930536 87.388 -159.6942
26.118439 87.422 -160.2034
26.307704 87.456 -160.7104
26.498341 87.491 -161.2156
26.690359 87.527 -161.7193
26.883768 87.563 -162.2220
27.078579 87.599 -162.7238
27.274801 87.635 -163.2249
27.472446 87.671 -163.7252
27.671522 87.707 -164.2243
27.872042 87.742 -164.7222
28.074014 87.777 -165.2186
28.277450 87.811 -165.7137
28.482360 87.845 -166.2078
28.688755 87.877 -166.7010
28.896645 87.909 -167.1938
29.106042 87.940 -167.6860
29.316957 87.970 -168.1777
29.529400 87.998 -168.6686
29.743382 88.027 -169.1586
29.958915 88.054 -169.6477
30.176009 88.081 -170.1364
30.394677 88.108 -170.6257
30.614929 88.135 -171.1170
30.836778 88.161 -171.6120
31.060234 88.188 -172.1124
31.285309 88.215 -172.6197
31.512015 88.241 -173.1345
31.740364 88.267 -173.6571
31.970368 88.292 -174.1867
32.202039 88.317 -174.7220
32.435388 88.341 -175.2617
32.670428 88.365 -175.8043
32.907171 88.388 -176.3484
33.145630 88.411 -176.8934
33.385817 88.434 -177.4388
33.627745 88.458 -177.9849
33.871425 88.482 -178.5319
34.116871 88.506 -179.0800
34.364096 88.531 -179.6295
34.613113 88.555 179.8199
34.863934 88.580 179.2684
35.116572 88.605 178.7166
35.371041 88.630 178.1650
35.627354 88.654 177.6140
35.885525 88.678 177.0639
36.145566 88.702 176.5147
36.407492 88.726 175.9663
36.671316 88.749 175.4187
36.937051 88.771 174.8719
37.204712 88.793 174.3262
37.474313 88.815 173.7818
37.745867 88.835 173.2387
38.019389 88.856 172.6964
38.294893 88.876 172.1542
38.572394 88.897 171.6108
38.851905 88.916 171.0652
39.133442 88.936 170.5164
39.417019 88.955 169.9643
39.702651 88.973 169.4098
39.990353 88.990 168.8542
40.280140 89.007 168.2993
40.572026 89.024 167.7462
40.866028 89.041 167.1952
41.162160 89.058 166.6458
41.460438 89.075 166.0963
41.760877 89.094 165.5444
42.063494 89.113 164.9883
42.368303 89.132 164.4269
42.675322 89.151 163.8597
42.984565 89.170 163.2877
43.296048 89.188 162.7120
43.609789 89.205 162.1343
43.925804 89.222 161.5554
44.244108 89.238 160.9761
44.564719 89.254 160.3962
44.887654 89.270 159.8154
45.212928 89.285 159.2332
45.540560 89.300 158.6493
45.870565 89.315 158.0635
46.202962 89.329 157.4760
46.537768 89.343 156.8867
46.875000 89.357 156.2961
47.214676 89.371 155.7041
47.556813 89.384 155.1108
47.901429 89.398 154.5162
48.248542 89.413 153.9201
48.598171 89.427 153.3223
48.950334 89.441 152.7227
49.305048 89.456 152.1215
49.662333 89.471 151.5186
50.022206 89.486 150.9143
50.384688 89.501 150.3085
50.749796 89.515 149.7008
51.117550 89.530 149.0913
51.487969 89.543 148.4801
51.861072 89.556 147.8681
52.236879 89.569 147.2565
52.615409 89.581 146.6462
52.996681 89.592 146.0376
53.380717 89.603 145.4299
53.767536 89.614 144.8216
54.157158 89.625 144.2110
54.549603 89.635 143.5967
54.944892 89.646 142.9781
55.343045 89.655 142.3557
55.744084 89.665 141.7300
56.148028 89.673 141.1022
56.554900 89.682 140.4729
56.964720 89.690 139.8419
57.377510 89.699 139.2087
57.793291 89.708 138.5728
58.212085 89.717 137.9340
58.633914 89.726 137.2933
59.058799 89.735 136.6519
59.486764 89.744 136.0110
59.917829 89.753 135.3706
60.352019 89.763 134.7296
60.789354 89.773 134.0862
61.229859 89.784 133.4389
61.673556 89.794 132.7875
62.120468 89.804 132.1328
62.570618 89.814 131.4760
63.024031 89.824 130.8182
63.480729 89.833 130.1601
63.940736 89.843 129.5016
64.404077 89.852 128.8424
64.870776 89.861 128.1823
65.340856 89.869 127.5208
65.814343 89.878 126.8578
66.291261 89.886 126.1937
66.771635 89.894 125.5291
67.255489 89.901 124.8645
67.742850 89.908 124.1998
68.233743 89.915 123.5340
68.728193 89.923 122.8652
69.226226 89.931 122.1910
69.727867 89.938 121.5097
70.233144 89.946 120.8204
70.742083 89.954 120.1230
71.254709 89.962 119.4180
71.771050 89.971 118.7059
72.291132 89.979 117.9871
72.814984 89.988 117.2617
73.342631 89.997 116.5299
73.874102 90.007 115.7927
74.409424 90.017 115.0520
74.948626 90.027 114.3108
75.491734 90.038 113.5710
76.038779 90.049 112.8325
76.589787 90.062 112.0928
77.144788 90.076 111.3486
77.703811 90.090 110.5975
78.266885 90.104 109.8383
78.834039 90.118 109.0703
79.405303 90.131 108.2920
79.980706 90.144 107.4998
80.560280 90.157 106.6901
81.144053 90.168 105.8620
81.732056 90.177 105.0180
82.324320 90.184 104.1632
82.920876 90.189 103.3016
83.521755 90.193 102.4348
84.126988 90.198 101.5622
84.736607 90.201 100.6832
85.350643 90.205 99.7979
85.969129 90.208 98.9073
86.592097 90.211 98.0119
87.219579 90.214 97.1121
87.851608 90.216 96.2081
