* Measurement data measured by REW V5.31
* Source: EXCL: Microphone (USB Sound Device        ), MICROPHONE (Master Volume), L, volume: 0.390
* Format: 256k Log Swept Sine, 1 sweep at -15.0 dBFS with no timing reference
* Dated: Oct 22, 2024 6:26:35 PM
* REW Settings:
*  C-weighting compensation: Off
*  Target level: 75.0 dB
* Note: KZ Dawn L
* Measurement: L KZ Dawn
* Smoothing: 1/12 octave
* Frequency Step: 96 ppo
* Start Frequency: 0.36621094 Hz
*
* Freq(Hz)	SPL(dB)	Phase(degrees)
0.366211	86.533	-64.8365
0.368865	86.538	-64.9042
0.371538	86.545	-65.0057
0.374230	86.554	-65.1329
0.376942	86.565	-65.2793
0.379673	86.575	-65.4399
0.382424	86.587	-65.6115
0.385196	86.599	-65.7920
0.387987	86.610	-65.9803
0.390798	86.622	-66.1758
0.393630	86.635	-66.3781
0.396483	86.647	-66.5872
0.399356	86.659	-66.8028
0.402250	86.672	-67.0251
0.405165	86.684	-67.2541
0.408101	86.697	-67.4896
0.411058	86.710	-67.7318
0.414037	86.722	-67.9807
0.417037	86.735	-68.2363
0.420059	86.748	-68.4986
0.423103	86.761	-68.7676
0.426169	86.774	-69.0434
0.429257	86.788	-69.3258
0.432368	86.801	-69.6150
0.435501	86.815	-69.9109
0.438656	86.828	-70.2135
0.441835	86.842	-70.5229
0.445037	86.856	-70.8388
0.448262	86.869	-71.1615
0.451510	86.883	-71.4908
0.454782	86.898	-71.8267
0.458077	86.912	-72.1691
0.461397	86.926	-72.5181
0.464740	86.940	-72.8735
0.468108	86.955	-73.2353
0.471500	86.969	-73.6035
0.474917	86.984	-73.9780
0.478358	86.999	-74.3587
0.481825	87.014	-74.7456
0.485316	87.029	-75.1385
0.488833	87.044	-75.5374
0.492375	87.059	-75.9422
0.495943	87.075	-76.3528
0.499537	87.090	-76.7690
0.503157	87.106	-77.1908
0.506803	87.121	-77.6181
0.510475	87.137	-78.0507
0.514175	87.153	-78.4886
0.517900	87.169	-78.9315
0.521653	87.185	-79.3793
0.525434	87.201	-79.8319
0.529241	87.218	-80.2892
0.533076	87.234	-80.7510
0.536939	87.251	-81.2171
0.540830	87.268	-81.6874
0.544749	87.284	-82.1617
0.548696	87.301	-82.6398
0.552673	87.318	-83.1216
0.556677	87.336	-83.6069
0.560711	87.353	-84.0955
0.564774	87.371	-84.5872
0.568867	87.388	-85.0818
0.572989	87.406	-85.5792
0.577141	87.424	-86.0791
0.581324	87.442	-86.5814
0.585536	87.460	-87.0858
0.589779	87.478	-87.5922
0.594053	87.496	-88.1004
0.598358	87.515	-88.6102
0.602694	87.534	-89.1214
0.607061	87.552	-89.6337
0.611460	87.571	-90.1471
0.615891	87.590	-90.6612
0.620354	87.610	-91.1760
0.624849	87.629	-91.6912
0.629377	87.648	-92.2066
0.633938	87.668	-92.7221
0.638532	87.688	-93.2374
0.643159	87.708	-93.7525
0.647819	87.728	-94.2671
0.652514	87.748	-94.7810
0.657242	87.768	-95.2942
0.662005	87.789	-95.8064
0.666802	87.809	-96.3175
0.671634	87.830	-96.8273
0.676501	87.851	-97.3358
0.681403	87.872	-97.8427
0.686341	87.893	-98.3480
0.691314	87.915	-98.8515
0.696324	87.936	-99.3533
0.701370	87.957	-99.8532
0.706452	87.979	-100.3514
0.711571	88.000	-100.8481
0.716728	88.021	-101.3437
0.721921	88.041	-101.8388
0.727153	88.060	-102.3345
0.732422	88.077	-102.8325
0.737729	88.092	-103.3343
0.743075	88.106	-103.8419
0.748460	88.119	-104.3566
0.753883	88.130	-104.8794
0.759346	88.141	-105.4111
0.764849	88.152	-105.9518
0.770391	88.162	-106.5017
0.775974	88.172	-107.0609
0.781597	88.181	-107.6292
0.787261	88.190	-108.2064
0.792966	88.199	-108.7925
0.798712	88.208	-109.3871
0.804500	88.217	-109.9901
0.810329	88.225	-110.6013
0.816201	88.233	-111.2203
0.822116	88.241	-111.8469
0.828073	88.248	-112.4808
0.834074	88.255	-113.1218
0.840118	88.262	-113.7694
0.846206	88.268	-114.4235
0.852338	88.274	-115.0836
0.858514	88.279	-115.7495
0.864735	88.284	-116.4207
0.871001	88.289	-117.0970
0.877313	88.293	-117.7778
0.883670	88.296	-118.4629
0.890074	88.299	-119.1519
0.896524	88.302	-119.8443
0.903020	88.304	-120.5397
0.909564	88.305	-121.2377
0.916155	88.305	-121.9380
0.922794	88.305	-122.6400
0.929481	88.304	-123.3433
0.936216	88.303	-124.0476
0.943000	88.300	-124.7523
0.949834	88.297	-125.4570
0.956717	88.293	-126.1614
0.963649	88.288	-126.8649
0.970632	88.282	-127.5671
0.977666	88.276	-128.2676
0.984750	88.268	-128.9659
0.991886	88.259	-129.6617
0.999074	88.249	-130.3544
1.006314	88.238	-131.0438
1.013606	88.226	-131.7292
1.020951	88.213	-132.4105
1.028349	88.198	-133.0871
1.035801	88.182	-133.7587
1.043307	88.165	-134.4250
1.050867	88.147	-135.0857
1.058482	88.127	-135.7407
1.066152	88.105	-136.3902
1.073878	88.082	-137.0344
1.081660	88.058	-137.6744
1.089498	88.032	-138.3117
1.097393	88.005	-138.9488
1.105345	87.977	-139.5888
1.113355	87.947	-140.2350
1.121423	87.917	-140.8904
1.129549	87.885	-141.5573
1.137734	87.852	-142.2375
1.145979	87.818	-142.9323
1.154283	87.783	-143.6426
1.162647	87.747	-144.3691
1.171072	87.710	-145.1123
1.179558	87.671	-145.8726
1.188106	87.631	-146.6504
1.196715	87.589	-147.4460
1.205387	87.546	-148.2596
1.214122	87.501	-149.0915
1.222920	87.455	-149.9418
1.231782	87.407	-150.8106
1.240708	87.356	-151.6979
1.249699	87.304	-152.6037
1.258754	87.250	-153.5278
1.267876	87.193	-154.4701
1.277063	87.135	-155.4302
1.286318	87.073	-156.4077
1.295639	87.010	-157.4020
1.305027	86.943	-158.4125
1.314484	86.874	-159.4382
1.324009	86.802	-160.4784
1.333604	86.727	-161.5317
1.343268	86.648	-162.5969
1.353002	86.567	-163.6725
1.362806	86.482	-164.7568
1.372681	86.393	-165.8478
1.382628	86.301	-166.9437
1.392647	86.205	-168.0421
1.402739	86.104	-169.1408
1.412904	85.999	-170.2376
1.423142	85.890	-171.3308
1.433455	85.775	-172.4191
1.443843	85.654	-173.5026
1.454305	85.527	-174.5833
1.464844	85.391	-175.6652
1.475459	85.247	-176.7546
1.486150	85.092	-177.8589
1.496920	84.926	-178.9853
1.507767	84.748	179.8600
1.518693	84.558	178.6716
1.529698	84.357	177.4450
1.540783	84.146	176.1763
1.551948	83.924	174.8617
1.563194	83.693	173.4977
1.574521	83.454	172.0807
1.585931	83.207	170.6072
1.597423	82.955	169.0733
1.608999	82.698	167.4751
1.620658	82.437	165.8087
1.632402	82.173	164.0699
1.644232	81.909	162.2544
1.656146	81.646	160.3578
1.668147	81.385	158.3758
1.680235	81.127	156.3039
1.692411	80.875	154.1377
1.704675	80.631	151.8729
1.717028	80.395	149.5051
1.729470	80.171	147.0305
1.742003	79.960	144.4448
1.754626	79.765	141.7441
1.767341	79.587	138.9237
1.780147	79.430	135.9778
1.793047	79.294	132.8982
1.806040	79.182	129.6721
1.819128	79.095	126.2805
1.832310	79.034	122.6965
1.845587	78.999	118.8858
1.858961	78.989	114.8116
1.872432	79.004	110.4412
1.886001	79.042	105.7518
1.899667	79.102	100.7361
1.913433	79.184	95.4069
1.927299	79.287	89.8002
1.941265	79.408	83.9767
1.955332	79.547	78.0184
1.969501	79.703	72.0223
1.983773	79.873	66.0898
1.998148	80.058	60.3158
2.012627	80.255	54.7785
2.027212	80.463	49.5345
2.041902	80.680	44.6176
2.056698	80.905	40.0405
2.071602	81.136	35.7996
2.086614	81.372	31.8792
2.101734	81.610	28.2562
2.116964	81.851	24.9027
2.132304	82.092	21.7889
2.147756	82.332	18.8838
2.163320	82.572	16.1567
2.178996	82.813	13.5771
2.194786	83.055	11.1162
2.210690	83.300	8.7481
2.226710	83.552	6.4526
2.242845	83.811	4.2163
2.259098	84.079	2.0323
2.275468	84.354	-0.1018
2.291957	84.638	-2.1859
2.308566	84.929	-4.2184
2.325295	85.225	-6.1975
2.342145	85.526	-8.1214
2.359117	85.830	-9.9889
2.376212	86.136	-11.7993
2.393431	86.442	-13.5525
2.410775	86.746	-15.2490
2.428244	87.047	-16.8898
2.445840	87.344	-18.4764
2.463564	87.634	-20.0115
2.481416	87.916	-21.4978
2.499397	88.189	-22.9398
2.517509	88.451	-24.3430
2.535752	88.702	-25.7146
2.554127	88.941	-27.0636
2.572635	89.169	-28.3997
2.591277	89.386	-29.7323
2.610055	89.593	-31.0681
2.628968	89.791	-32.4106
2.648019	89.979	-33.7599
2.667208	90.160	-35.1140
2.686535	90.333	-36.4695
2.706003	90.499	-37.8220
2.725612	90.658	-39.1671
2.745363	90.810	-40.5000
2.765257	90.958	-41.8163
2.785295	91.099	-43.1119
2.805478	91.236	-44.3831
2.825808	91.369	-45.6270
2.846285	91.498	-46.8414
2.866910	91.623	-48.0259
2.887685	91.745	-49.1815
2.908611	91.864	-50.3119
2.929688	91.979	-51.4227
2.950917	92.089	-52.5215
2.972301	92.195	-53.6154
2.993839	92.295	-54.7094
3.015534	92.390	-55.8061
3.037386	92.480	-56.9058
3.059396	92.564	-58.0069
3.081565	92.643	-59.1064
3.103896	92.717	-60.2007
3.126388	92.786	-61.2853
3.149043	92.851	-62.3559
3.171862	92.912	-63.4077
3.194847	92.969	-64.4366
3.217998	93.023	-65.4390
3.241317	93.073	-66.4124
3.264805	93.119	-67.3563
3.288463	93.162	-68.2722
3.312293	93.201	-69.1639
3.336295	93.235	-70.0361
3.360471	93.265	-70.8933
3.384822	93.290	-71.7382
3.409350	93.310	-72.5717
3.434056	93.326	-73.3934
3.458940	93.338	-74.2013
3.484005	93.347	-74.9926
3.509252	93.352	-75.7637
3.534681	93.355	-76.5103
3.560295	93.355	-77.2281
3.586094	93.354	-77.9128
3.612081	93.351	-78.5602
3.638255	93.347	-79.1675
3.664620	93.340	-79.7330
3.691175	93.332	-80.2565
3.717923	93.321	-80.7390
3.744864	93.308	-81.1825
3.772001	93.292	-81.5889
3.799335	93.275	-81.9599
3.826866	93.256	-82.2972
3.854597	93.238	-82.6022
3.882529	93.220	-82.8757
3.910664	93.204	-83.1183
3.939002	93.190	-83.3301
3.967546	93.180	-83.5101
3.996296	93.174	-83.6568
4.025255	93.171	-83.7679
4.054423	93.174	-83.8409
4.083804	93.180	-83.8741
4.113396	93.189	-83.8683
4.143204	93.203	-83.8260
4.173227	93.221	-83.7523
4.203468	93.243	-83.6535
4.233928	93.270	-83.5367
4.264609	93.302	-83.4095
4.295512	93.339	-83.2789
4.326639	93.383	-83.1506
4.357992	93.434	-83.0284
4.389572	93.491	-82.9137
4.421380	93.556	-82.8061
4.453419	93.629	-82.7044
4.485691	93.708	-82.6089
4.518196	93.795	-82.5219
4.550936	93.887	-82.4473
4.583914	93.984	-82.3907
4.617131	94.085	-82.3584
4.650589	94.189	-82.3562
4.684289	94.296	-82.3895
4.718233	94.404	-82.4622
4.752424	94.514	-82.5763
4.786862	94.626	-82.7319
4.821549	94.740	-82.9275
4.856488	94.856	-83.1608
4.891680	94.973	-83.4293
4.927127	95.090	-83.7312
4.962831	95.207	-84.0649
4.998794	95.324	-84.4294
5.035017	95.438	-84.8246
5.071503	95.550	-85.2506
5.108253	95.658	-85.7081
5.145270	95.763	-86.1978
5.182555	95.864	-86.7194
5.220110	95.962	-87.2714
5.257937	96.056	-87.8507
5.296038	96.146	-88.4528
5.334415	96.233	-89.0728
5.373071	96.315	-89.7059
5.412006	96.393	-90.3483
5.451224	96.467	-90.9975
5.490725	96.535	-91.6529
5.530514	96.599	-92.3148
5.570590	96.657	-92.9838
5.610957	96.711	-93.6586
5.651616	96.759	-94.3368
5.692570	96.804	-95.0142
5.733821	96.844	-95.6860
5.775370	96.880	-96.3478
5.817221	96.913	-96.9958
5.859375	96.942	-97.6281
5.901834	96.967	-98.2438
5.944602	96.988	-98.8423
5.987679	97.007	-99.4229
6.031068	97.022	-99.9844
6.074771	97.036	-100.5252
6.118792	97.048	-101.0433
6.163131	97.059	-101.5369
6.207792	97.069	-102.0044
6.252776	97.080	-102.4449
6.298086	97.091	-102.8584
6.343725	97.102	-103.2463
6.389694	97.113	-103.6111
6.435996	97.127	-103.9557
6.482634	97.142	-104.2832
6.529610	97.160	-104.5956
6.576926	97.180	-104.8939
6.624585	97.205	-105.1785
6.672590	97.233	-105.4499
6.720942	97.264	-105.7103
6.769645	97.299	-105.9636
6.818700	97.337	-106.2144
6.868111	97.379	-106.4678
6.917881	97.424	-106.7279
6.968010	97.473	-106.9978
7.018504	97.525	-107.2792
7.069362	97.580	-107.5732
7.120590	97.638	-107.8815
7.172189	97.698	-108.2061
7.224161	97.760	-108.5493
7.276511	97.822	-108.9132
7.329239	97.885	-109.2995
7.382350	97.948	-109.7086
7.435845	98.011	-110.1398
7.489729	98.073	-110.5918
7.544002	98.134	-111.0627
7.598669	98.193	-111.5508
7.653732	98.251	-112.0546
7.709194	98.305	-112.5731
7.765058	98.358	-113.1049
7.821327	98.407	-113.6482
7.878004	98.453	-114.1998
7.935091	98.497	-114.7563
7.992592	98.537	-115.3142
8.050510	98.575	-115.8707
8.108847	98.609	-116.4236
8.167607	98.640	-116.9716
8.226793	98.669	-117.5127
8.286408	98.695	-118.0446
8.346454	98.719	-118.5647
8.406936	98.742	-119.0709
8.467856	98.763	-119.5620
8.529218	98.783	-120.0373
8.591024	98.803	-120.4969
8.653278	98.822	-120.9410
8.715983	98.841	-121.3702
8.779143	98.861	-121.7848
8.842760	98.881	-122.1854
8.906839	98.903	-122.5732
8.971381	98.926	-122.9503
9.036392	98.950	-123.3188
9.101873	98.976	-123.6814
9.167829	99.004	-124.0401
9.234263	99.033	-124.3967
9.301178	99.064	-124.7531
9.368578	99.096	-125.1110
9.436467	99.130	-125.4725
9.504847	99.164	-125.8392
9.573723	99.198	-126.2125
9.643099	99.232	-126.5930
9.712976	99.265	-126.9806
9.783361	99.297	-127.3754
9.854255	99.326	-127.7769
9.925663	99.352	-128.1849
9.997588	99.374	-128.5984
10.070035	99.393	-129.0163
10.143007	99.409	-129.4371
10.216507	99.421	-129.8589
10.290540	99.431	-130.2806
10.365109	99.438	-130.7008
10.440219	99.442	-131.1183
10.515873	99.445	-131.5319
10.592076	99.446	-131.9404
10.668830	99.445	-132.3431
10.746141	99.444	-132.7396
10.824012	99.442	-133.1299
10.902447	99.440	-133.5143
10.981451	99.437	-133.8932
11.061027	99.434	-134.2672
11.141180	99.432	-134.6371
11.221913	99.429	-135.0040
11.303232	99.426	-135.3691
11.385140	99.423	-135.7335
11.467641	99.421	-136.0981
11.550741	99.418	-136.4639
11.634442	99.416	-136.8313
11.718750	99.413	-137.2010
11.803669	99.411	-137.5735
11.889203	99.408	-137.9484
11.975357	99.404	-138.3256
12.062136	99.401	-138.7045
12.149543	99.396	-139.0845
12.237583	99.391	-139.4651
12.326262	99.385	-139.8454
12.415583	99.378	-140.2247
12.505552	99.371	-140.6024
12.596172	99.362	-140.9779
12.687449	99.353	-141.3512
12.779387	99.344	-141.7223
12.871992	99.334	-142.0912
12.965268	99.324	-142.4586
13.059220	99.314	-142.8251
13.153852	99.305	-143.1915
13.249170	99.296	-143.5590
13.345179	99.287	-143.9283
13.441884	99.278	-144.3003
13.539289	99.270	-144.6757
13.637401	99.262	-145.0552
13.736223	99.254	-145.4388
13.835761	99.245	-145.8265
13.936021	99.236	-146.2181
14.037007	99.226	-146.6128
14.138725	99.216	-147.0099
14.241180	99.204	-147.4083
14.344377	99.192	-147.8069
14.448323	99.179	-148.2050
14.553021	99.166	-148.6016
14.658478	99.152	-148.9961
14.764700	99.138	-149.3881
14.871691	99.124	-149.7777
14.979457	99.111	-150.1652
15.088005	99.098	-150.5513
15.197339	99.086	-150.9369
15.307465	99.075	-151.3229
15.418389	99.064	-151.7104
15.530117	99.054	-152.1005
15.642655	99.044	-152.4939
15.756008	99.035	-152.8911
15.870182	99.026	-153.2922
15.985184	99.016	-153.6970
16.101019	99.007	-154.1048
16.217694	98.996	-154.5146
16.335214	98.986	-154.9254
16.453586	98.975	-155.3357
16.572815	98.964	-155.7443
16.692909	98.952	-156.1499
16.813872	98.941	-156.5518
16.935713	98.930	-156.9492
17.058436	98.920	-157.3421
17.182048	98.910	-157.7307
17.306556	98.901	-158.1154
17.431967	98.892	-158.4969
17.558286	98.884	-158.8763
17.685521	98.876	-159.2543
17.813677	98.869	-159.6316
17.942762	98.862	-160.0088
18.072783	98.855	-160.3860
18.203746	98.848	-160.7632
18.335658	98.840	-161.1400
18.468526	98.833	-161.5159
18.602356	98.825	-161.8899
18.737156	98.817	-162.2616
18.872934	98.808	-162.6303
19.009695	98.800	-162.9957
19.147447	98.791	-163.3574
19.286197	98.783	-163.7158
19.425953	98.774	-164.0709
19.566721	98.765	-164.4233
19.708510	98.757	-164.7736
19.851326	98.747	-165.1221
19.995177	98.738	-165.4691
20.140070	98.728	-165.8151
20.286013	98.718	-166.1599
20.433014	98.707	-166.5036
20.581080	98.696	-166.8462
20.730219	98.684	-167.1875
20.880439	98.673	-167.5277
21.031747	98.660	-167.8669
21.184152	98.648	-168.2055
21.337661	98.636	-168.5440
21.492282	98.624	-168.8829
21.648024	98.612	-169.2227
21.804895	98.599	-169.5637
21.962902	98.587	-169.9063
22.122054	98.573	-170.2504
22.282360	98.560	-170.5958
22.443827	98.546	-170.9421
22.606464	98.531	-171.2891
22.770280	98.517	-171.6364
22.935283	98.502	-171.9839
23.101481	98.486	-172.3317
23.268884	98.471	-172.6798
23.437500	98.456	-173.0287
23.607338	98.440	-173.3785
23.778406	98.424	-173.7296
23.950714	98.408	-174.0818
24.124271	98.392	-174.4349
24.299086	98.376	-174.7883
24.475167	98.359	-175.1415
24.652524	98.343	-175.4938
24.831166	98.326	-175.8449
25.011103	98.310	-176.1945
25.192344	98.294	-176.5429
25.374898	98.278	-176.8905
25.558775	98.263	-177.2379
25.743984	98.248	-177.5855
25.930536	98.233	-177.9338
26.118439	98.218	-178.2828
26.307704	98.203	-178.6320
26.498341	98.188	-178.9805
26.690359	98.172	-179.3274
26.883768	98.155	-179.6714
27.078579	98.138	179.9881
27.274801	98.121	179.6519
27.472446	98.104	179.3201
27.671522	98.086	178.9926
27.872042	98.068	178.6691
28.074014	98.050	178.3491
28.277450	98.031	178.0325
28.482360	98.012	177.7191
28.688755	97.992	177.4088
28.896645	97.972	177.1021
29.106042	97.951	176.7991
29.316957	97.929	176.5001
29.529400	97.907	176.2056
29.743382	97.885	175.9159
29.958915	97.862	175.6317
30.176009	97.838	175.3538
30.394677	97.815	175.0829
30.614929	97.791	174.8204
30.836778	97.768	174.5669
31.060234	97.745	174.3229
31.285309	97.723	174.0879
31.512015	97.702	173.8607
31.740364	97.684	173.6389
31.970368	97.668	173.4193
32.202039	97.654	173.1976
32.435388	97.643	172.9697
32.670428	97.635	172.7311
32.907171	97.628	172.4780
33.145630	97.623	172.2075
33.385817	97.619	171.9181
33.627745	97.614	171.6096
33.871425	97.609	171.2836
34.116871	97.602	170.9429
34.364096	97.593	170.5914
34.613113	97.582	170.2336
34.863934	97.569	169.8738
35.116572	97.554	169.5156
35.371041	97.537	169.1618
35.627354	97.519	168.8138
35.885525	97.500	168.4723
36.145566	97.480	168.1368
36.407492	97.460	167.8068
36.671316	97.439	167.4814
36.937051	97.418	167.1603
37.204712	97.396	166.8430
37.474313	97.374	166.5293
37.745867	97.351	166.2192
38.019389	97.327	165.9127
38.294893	97.304	165.6097
38.572394	97.279	165.3102
38.851905	97.255	165.0137
39.133442	97.231	164.7197
39.417019	97.206	164.4272
39.702651	97.182	164.1353
39.990353	97.157	163.8431
40.280140	97.132	163.5502
40.572026	97.107	163.2565
40.866028	97.081	162.9630
41.162160	97.054	162.6709
41.460438	97.027	162.3819
41.760877	97.000	162.0974
42.063494	96.973	161.8182
42.368303	96.945	161.5440
42.675322	96.919	161.2734
42.984565	96.893	161.0043
43.296048	96.868	160.7346
43.609789	96.842	160.4628
43.925804	96.817	160.1885
44.244108	96.792	159.9130
44.564719	96.766	159.6384
44.887654	96.739	159.3665
45.212928	96.713	159.0986
45.540560	96.686	158.8347
45.870565	96.660	158.5739
46.202962	96.634	158.3150
46.537768	96.608	158.0576
46.875000	96.582	157.8016
47.214676	96.556	157.5469
47.556813	96.530	157.2933
47.901429	96.505	157.0396
48.248542	96.479	156.7849
48.598171	96.454	156.5285
48.950334	96.428	156.2713
49.305048	96.401	156.0151
49.662333	96.373	155.7620
50.022206	96.345	155.5132
50.384688	96.317	155.2689
50.749796	96.288	155.0281
51.117550	96.259	154.7897
51.487969	96.230	154.5530
51.861072	96.201	154.3179
52.236879	96.173	154.0844
52.615409	96.144	153.8524
52.996681	96.115	153.6212
53.380717	96.087	153.3896
53.767536	96.058	153.1573
54.157158	96.030	152.9240
54.549603	96.002	152.6902
54.944892	95.975	152.4560
55.343045	95.948	152.2213
55.744084	95.921	151.9854
56.148028	95.895	151.7471
56.554900	95.868	151.5060
56.964720	95.842	151.2624
57.377510	95.815	151.0175
57.793291	95.788	150.7731
58.212085	95.760	150.5309
58.633914	95.731	150.2915
59.058799	95.703	150.0545
59.486764	95.674	149.8191
59.917829	95.644	149.5848
60.352019	95.613	149.3521
60.789354	95.581	149.1219
61.229859	95.548	148.8955
61.673556	95.515	148.6730
62.120468	95.481	148.4536
62.570618	95.447	148.2361
63.024031	95.412	148.0195
63.480729	95.377	147.8038
63.940736	95.342	147.5891
64.404077	95.307	147.3762
64.870776	95.271	147.1653
65.340856	95.236	146.9566
65.814343	95.201	146.7496
66.291261	95.166	146.5439
66.771635	95.131	146.3392
67.255489	95.097	146.1353
67.742850	95.062	145.9330
68.233743	95.028	145.7331
68.728193	94.993	145.5363
69.226226	94.958	145.3431
69.727867	94.923	145.1533
70.233144	94.889	144.9664
70.742083	94.854	144.7819
71.254709	94.819	144.5992
71.771050	94.783	144.4181
72.291132	94.748	144.2388
72.814984	94.712	144.0615
73.342631	94.677	143.8862
73.874102	94.641	143.7122
74.409424	94.606	143.5377
74.948626	94.572	143.3620
75.491734	94.537	143.1854
76.038779	94.503	143.0084
76.589787	94.469	142.8310
77.144788	94.435	142.6522
77.703811	94.402	142.4708
78.266885	94.370	142.2860
78.834039	94.337	142.0978
79.405303	94.304	141.9067
79.980706	94.271	141.7131
80.560280	94.238	141.5172
81.144053	94.204	141.3187
81.732056	94.168	141.1173
82.324320	94.132	140.9135
82.920876	94.093	140.7091
83.521755	94.053	140.5068
84.126988	94.011	140.3098
84.736607	93.968	140.1205
85.350643	93.925	139.9387
85.969129	93.881	139.7614
