* Measurement data measured by REW V5.31
* Source: EXCL: Microphone (USB Sound Device        ), no input selected, L, volume: no control
* Format: 256k Log Swept Sine, 1 sweep at -4.0 dBFS with no timing reference
* Dated: Jul 14, 2024 1:16:52 PM
* REW Settings:
*  C-weighting compensation: Off
*  Target level: 75.0 dB
* Note: KZ EDC Pro R
* Measurement: R KZ EDC Pro
* Smoothing: 1/12 octave
* Frequency Step: 96 ppo
* Start Frequency: 0.36621094 Hz
*
* Freq(Hz) SPL(dB) Phase(degrees)
0.366211 82.192 -76.4579
0.368865 82.200 -76.5325
0.371538 82.213 -76.6439
0.374230 82.228 -76.7836
0.376942 82.246 -76.9440
0.379673 82.264 -77.1198
0.382424 82.284 -77.3071
0.385196 82.304 -77.5039
0.387987 82.324 -77.7088
0.390798 82.345 -77.9211
0.393630 82.366 -78.1404
0.396483 82.387 -78.3666
0.399356 82.408 -78.5995
0.402250 82.429 -78.8391
0.405165 82.451 -79.0853
0.408101 82.472 -79.3382
0.411058 82.494 -79.5978
0.414037 82.516 -79.8639
0.417037 82.538 -80.1367
0.420059 82.560 -80.4161
0.423103 82.583 -80.7021
0.426169 82.605 -80.9946
0.429257 82.628 -81.2936
0.432368 82.651 -81.5991
0.435501 82.674 -81.9111
0.438656 82.697 -82.2294
0.441835 82.721 -82.5541
0.445037 82.744 -82.8851
0.448262 82.768 -83.2224
0.451510 82.792 -83.5658
0.454782 82.816 -83.9153
0.458077 82.841 -84.2708
0.461397 82.865 -84.6323
0.464740 82.890 -84.9996
0.468108 82.914 -85.3727
0.471500 82.939 -85.7514
0.474917 82.965 -86.1357
0.478358 82.990 -86.5255
0.481825 83.016 -86.9206
0.485316 83.041 -87.3209
0.488833 83.067 -87.7263
0.492375 83.093 -88.1367
0.495943 83.120 -88.5520
0.499537 83.146 -88.9719
0.503157 83.173 -89.3964
0.506803 83.200 -89.8254
0.510475 83.227 -90.2586
0.514175 83.254 -90.6959
0.517900 83.281 -91.1373
0.521653 83.309 -91.5824
0.525434 83.337 -92.0312
0.529241 83.365 -92.4834
0.533076 83.393 -92.9390
0.536939 83.422 -93.3978
0.540830 83.450 -93.8595
0.544749 83.479 -94.3241
0.548696 83.508 -94.7913
0.552673 83.538 -95.2609
0.556677 83.567 -95.7329
0.560711 83.597 -96.2070
0.564774 83.627 -96.6830
0.568867 83.657 -97.1608
0.572989 83.687 -97.6403
0.577141 83.718 -98.1211
0.581324 83.749 -98.6033
0.585536 83.780 -99.0866
0.589779 83.811 -99.5708
0.594053 83.843 -100.0557
0.598358 83.874 -100.5414
0.602694 83.906 -101.0275
0.607061 83.938 -101.5139
0.611460 83.971 -102.0005
0.615891 84.003 -102.4871
0.620354 84.036 -102.9737
0.624849 84.069 -103.4600
0.629377 84.103 -103.9460
0.633938 84.136 -104.4315
0.638532 84.170 -104.9165
0.643159 84.204 -105.4007
0.647819 84.239 -105.8841
0.652514 84.273 -106.3667
0.657242 84.308 -106.8483
0.662005 84.343 -107.3288
0.666802 84.379 -107.8083
0.671634 84.414 -108.2865
0.676501 84.450 -108.7636
0.681403 84.486 -109.2393
0.686341 84.523 -109.7138
0.691314 84.559 -110.1869
0.696324 84.596 -110.6588
0.701370 84.633 -111.1295
0.706452 84.670 -111.5991
0.711571 84.706 -112.0679
0.716728 84.742 -112.5364
0.721921 84.777 -113.0052
0.727153 84.811 -113.4754
0.732422 84.842 -113.9483
0.737729 84.871 -114.4255
0.743075 84.897 -114.9086
0.748460 84.922 -115.3988
0.753883 84.945 -115.8969
0.759346 84.968 -116.4034
0.764849 84.990 -116.9186
0.770391 85.011 -117.4426
0.775974 85.031 -117.9751
0.781597 85.052 -118.5162
0.787261 85.071 -119.0656
0.792966 85.091 -119.6231
0.798712 85.110 -120.1885
0.804500 85.129 -120.7614
0.810329 85.147 -121.3418
0.816201 85.165 -121.9292
0.822116 85.182 -122.5234
0.828073 85.199 -123.1241
0.834074 85.215 -123.7310
0.840118 85.231 -124.3439
0.846206 85.247 -124.9623
0.852338 85.262 -125.5859
0.858514 85.276 -126.2145
0.864735 85.290 -126.8477
0.871001 85.304 -127.4851
0.877313 85.316 -128.1264
0.883670 85.329 -128.7713
0.890074 85.340 -129.4193
0.896524 85.351 -130.0702
0.903020 85.361 -130.7235
0.909564 85.371 -131.3790
0.916155 85.380 -132.0361
0.922794 85.388 -132.6947
0.929481 85.396 -133.3543
0.936216 85.403 -134.0146
0.943000 85.409 -134.6752
0.949834 85.414 -135.3357
0.956717 85.418 -135.9959
0.963649 85.422 -136.6553
0.970632 85.424 -137.3137
0.977666 85.426 -137.9707
0.984750 85.427 -138.6259
0.991886 85.427 -139.2791
0.999074 85.426 -139.9300
1.006314 85.424 -140.5782
1.013606 85.421 -141.2235
1.020951 85.417 -141.8656
1.028349 85.412 -142.5043
1.035801 85.406 -143.1393
1.043307 85.399 -143.7704
1.050867 85.390 -144.3976
1.058482 85.380 -145.0209
1.066152 85.370 -145.6405
1.073878 85.358 -146.2569
1.081660 85.344 -146.8712
1.089498 85.330 -147.4852
1.097393 85.314 -148.1012
1.105345 85.297 -148.7224
1.113355 85.279 -149.3519
1.121423 85.259 -149.9926
1.129549 85.239 -150.6468
1.137734 85.217 -151.3161
1.145979 85.194 -152.0016
1.154283 85.169 -152.7040
1.162647 85.144 -153.4240
1.171072 85.116 -154.1618
1.179558 85.088 -154.9177
1.188106 85.058 -155.6920
1.196715 85.026 -156.4848
1.205387 84.993 -157.2962
1.214122 84.959 -158.1263
1.222920 84.923 -158.9749
1.231782 84.885 -159.8420
1.240708 84.845 -160.7276
1.249699 84.803 -161.6313
1.258754 84.760 -162.5530
1.267876 84.714 -163.4921
1.277063 84.667 -164.4483
1.286318 84.618 -165.4209
1.295639 84.566 -166.4093
1.305027 84.512 -167.4126
1.314484 84.457 -168.4300
1.324009 84.398 -169.4604
1.333604 84.338 -170.5026
1.343268 84.275 -171.5553
1.353002 84.209 -172.6170
1.362806 84.141 -173.6860
1.372681 84.070 -174.7607
1.382628 83.996 -175.8392
1.392647 83.920 -176.9194
1.402739 83.841 -177.9995
1.412904 83.758 -179.0776
1.423142 83.672 179.8477
1.433455 83.582 178.7773
1.443843 83.489 177.7105
1.454305 83.390 176.6453
1.464844 83.286 175.5773
1.475459 83.176 174.5005
1.486150 83.058 173.4078
1.496920 82.932 172.2926
1.507767 82.799 171.1492
1.518693 82.657 169.9730
1.529698 82.507 168.7603
1.540783 82.349 167.5079
1.551948 82.185 166.2133
1.563194 82.014 164.8737
1.574521 81.837 163.4870
1.585931 81.655 162.0508
1.597423 81.468 160.5628
1.608999 81.278 159.0208
1.620658 81.085 157.4226
1.632402 80.891 155.7662
1.644232 80.695 154.0495
1.656146 80.499 152.2707
1.668147 80.305 150.4280
1.680235 80.112 148.5200
1.692411 79.923 146.5453
1.704675 79.738 144.5029
1.717028 79.559 142.3921
1.729470 79.386 140.2123
1.742003 79.222 137.9633
1.754626 79.068 135.6445
1.767341 78.925 133.2554
1.780147 78.793 130.7944
1.793047 78.676 128.2578
1.806040 78.573 125.6390
1.819128 78.484 122.9264
1.832310 78.411 120.1029
1.845587 78.352 117.1463
1.858961 78.308 114.0322
1.872432 78.276 110.7375
1.886001 78.257 107.2438
1.899667 78.250 103.5387
1.913433 78.255 99.6167
1.927299 78.271 95.4812
1.941265 78.298 91.1447
1.955332 78.335 86.6299
1.969501 78.383 81.9693
1.983773 78.441 77.2049
1.998148 78.508 72.3852
2.012627 78.585 67.5624
2.027212 78.670 62.7888
2.041902 78.764 58.1126
2.056698 78.867 53.5751
2.071602 78.977 49.2084
2.086614 79.095 45.0345
2.101734 79.220 41.0657
2.116964 79.351 37.3049
2.132304 79.490 33.7475
2.147756 79.635 30.3817
2.163320 79.788 27.1903
2.178996 79.949 24.1518
2.194786 80.120 21.2419
2.210690 80.302 18.4366
2.226710 80.498 15.7155
2.242845 80.707 13.0645
2.259098 80.931 10.4766
2.275468 81.168 7.9493
2.291957 81.418 5.4838
2.308566 81.679 3.0820
2.325295 81.950 0.7472
2.342145 82.229 -1.5182
2.359117 82.515 -3.7120
2.376212 82.805 -5.8328
2.393431 83.097 -7.8800
2.410775 83.390 -9.8538
2.428244 83.681 -11.7551
2.445840 83.968 -13.5857
2.463564 84.249 -15.3480
2.481416 84.523 -17.0455
2.499397 84.787 -18.6832
2.517509 85.041 -20.2674
2.535752 85.283 -21.8065
2.554127 85.513 -23.3107
2.572635 85.731 -24.7917
2.591277 85.939 -26.2605
2.610055 86.138 -27.7254
2.628968 86.329 -29.1909
2.648019 86.512 -30.6583
2.667208 86.687 -32.1257
2.686535 86.856 -33.5901
2.706003 87.019 -35.0472
2.725612 87.176 -36.4925
2.745363 87.327 -37.9210
2.765257 87.473 -39.3280
2.785295 87.614 -40.7093
2.805478 87.751 -42.0608
2.825808 87.883 -43.3793
2.846285 88.010 -44.6625
2.866910 88.134 -45.9097
2.887685 88.254 -47.1221
2.908611 88.369 -48.3033
2.929688 88.481 -49.4597
2.950917 88.587 -50.5994
2.972301 88.688 -51.7299
2.993839 88.784 -52.8573
3.015534 88.873 -53.9846
3.037386 88.958 -55.1124
3.059396 89.036 -56.2391
3.081565 89.109 -57.3621
3.103896 89.177 -58.4772
3.126388 89.241 -59.5803
3.149043 89.299 -60.6664
3.171862 89.353 -61.7306
3.194847 89.403 -62.7683
3.217998 89.450 -63.7755
3.241317 89.492 -64.7493
3.264805 89.531 -65.6889
3.288463 89.566 -66.5956
3.312293 89.596 -67.4730
3.336295 89.622 -68.3262
3.360471 89.642 -69.1594
3.384822 89.658 -69.9758
3.409350 89.668 -70.7766
3.434056 89.674 -71.5613
3.458940 89.676 -72.3281
3.484005 89.674 -73.0743
3.509252 89.669 -73.7961
3.534681 89.661 -74.4891
3.560295 89.651 -75.1489
3.586094 89.640 -75.7705
3.612081 89.627 -76.3495
3.638255 89.613 -76.8823
3.664620 89.598 -77.3666
3.691175 89.580 -77.8015
3.717923 89.560 -78.1876
3.744864 89.538 -78.5265
3.772001 89.513 -78.8199
3.799335 89.487 -79.0704
3.826866 89.460 -79.2798
3.854597 89.434 -79.4502
3.882529 89.410 -79.5835
3.910664 89.388 -79.6810
3.939002 89.370 -79.7437
3.967546 89.356 -79.7715
3.996296 89.349 -79.7632
4.025255 89.347 -79.7167
4.054423 89.351 -79.6293
4.083804 89.361 -79.4994
4.113396 89.376 -79.3275
4.143204 89.397 -79.1174
4.173227 89.423 -78.8750
4.203468 89.455 -78.6084
4.233928 89.493 -78.3265
4.264609 89.537 -78.0389
4.295512 89.588 -77.7543
4.326639 89.646 -77.4802
4.357992 89.712 -77.2216
4.389572 89.785 -76.9807
4.421380 89.867 -76.7573
4.453419 89.957 -76.5505
4.485691 90.055 -76.3601
4.518196 90.161 -76.1882
4.550936 90.273 -76.0386
4.583914 90.390 -75.9165
4.617131 90.512 -75.8276
4.650589 90.635 -75.7775
4.684289 90.761 -75.7712
4.718233 90.887 -75.8123
4.752424 91.014 -75.9026
4.786862 91.142 -76.0421
4.821549 91.270 -76.2286
4.856488 91.399 -76.4594
4.891680 91.528 -76.7311
4.927127 91.657 -77.0403
4.962831 91.784 -77.3844
4.998794 91.910 -77.7610
5.035017 92.032 -78.1686
5.071503 92.151 -78.6068
5.108253 92.266 -79.0757
5.145270 92.375 -79.5759
5.182555 92.481 -80.1075
5.220110 92.581 -80.6690
5.257937 92.677 -81.2568
5.296038 92.769 -81.8660
5.334415 92.855 -82.4910
5.373071 92.937 -83.1261
5.412006 93.014 -83.7668
5.451224 93.086 -84.4099
5.490725 93.152 -85.0544
5.530514 93.213 -85.7006
5.570590 93.268 -86.3491
5.610957 93.318 -86.9990
5.651616 93.363 -87.6477
5.692570 93.403 -88.2911
5.733821 93.439 -88.9242
5.775370 93.471 -89.5419
5.817221 93.499 -90.1403
5.859375 93.524 -90.7166
5.901834 93.545 -91.2702
5.944602 93.564 -91.8013
5.987679 93.579 -92.3102
6.031068 93.592 -92.7968
6.074771 93.603 -93.2601
6.118792 93.613 -93.6986
6.163131 93.623 -94.1105
6.207792 93.634 -94.4941
6.252776 93.646 -94.8483
6.298086 93.659 -95.1733
6.343725 93.673 -95.4706
6.389694 93.688 -95.7433
6.435996 93.707 -95.9951
6.482634 93.728 -96.2296
6.529610 93.752 -96.4503
6.576926 93.781 -96.6595
6.624585 93.814 -96.8589
6.672590 93.851 -97.0501
6.720942 93.893 -97.2357
6.769645 93.938 -97.4199
6.818700 93.988 -97.6078
6.868111 94.042 -97.8047
6.917881 94.098 -98.0152
6.968010 94.159 -98.2424
7.018504 94.222 -98.4879
7.069362 94.289 -98.7527
7.120590 94.357 -99.0378
7.172189 94.428 -99.3444
7.224161 94.499 -99.6741
7.276511 94.571 -100.0283
7.329239 94.642 -100.4081
7.382350 94.713 -100.8135
7.435845 94.782 -101.2434
7.489729 94.850 -101.6957
7.544002 94.917 -102.1675
7.598669 94.981 -102.6562
7.653732 95.042 -103.1596
7.709194 95.100 -103.6759
7.765058 95.155 -104.2035
7.821327 95.207 -104.7402
7.878004 95.255 -105.2826
7.935091 95.300 -105.8269
7.992592 95.342 -106.3693
8.050510 95.381 -106.9065
8.108847 95.416 -107.4365
8.167607 95.449 -107.9576
8.226793 95.479 -108.4684
8.286408 95.507 -108.9667
8.346454 95.534 -109.4506
8.406936 95.559 -109.9182
8.467856 95.583 -110.3683
8.529218 95.607 -110.8009
8.591024 95.631 -111.2166
8.653278 95.655 -111.6165
8.715983 95.680 -112.0016
8.779143 95.707 -112.3733
8.842760 95.734 -112.7327
8.906839 95.764 -113.0814
8.971381 95.795 -113.4219
9.036392 95.828 -113.7570
9.101873 95.863 -114.0896
9.167829 95.900 -114.4222
9.234263 95.938 -114.7570
9.301178 95.979 -115.0953
9.368578 96.020 -115.4391
9.436467 96.063 -115.7900
9.504847 96.105 -116.1495
9.573723 96.149 -116.5185
9.643099 96.192 -116.8971
9.712976 96.234 -117.2849
9.783361 96.276 -117.6812
9.854255 96.317 -118.0851
9.925663 96.356 -118.4955
9.997588 96.394 -118.9113
10.070035 96.429 -119.3307
10.143007 96.464 -119.7520
10.216507 96.496 -120.1728
10.290540 96.526 -120.5916
10.365109 96.555 -121.0069
10.440219 96.582 -121.4174
10.515873 96.607 -121.8220
10.592076 96.631 -122.2195
10.668830 96.655 -122.6091
10.746141 96.677 -122.9909
10.824012 96.699 -123.3649
10.902447 96.721 -123.7317
10.981451 96.743 -124.0920
11.061027 96.764 -124.4467
11.141180 96.786 -124.7968
11.221913 96.808 -125.1436
11.303232 96.830 -125.4884
11.385140 96.852 -125.8327
11.467641 96.874 -126.1774
11.550741 96.896 -126.5233
11.634442 96.918 -126.8712
11.718750 96.939 -127.2216
11.803669 96.960 -127.5747
11.889203 96.980 -127.9303
11.975357 96.999 -128.2881
12.062136 97.017 -128.6475
12.149543 97.034 -129.0077
12.237583 97.050 -129.3683
12.326262 97.064 -129.7283
12.415583 97.078 -130.0870
12.505552 97.091 -130.4440
12.596172 97.103 -130.7989
12.687449 97.114 -131.1516
12.779387 97.125 -131.5022
12.871992 97.135 -131.8511
12.965268 97.145 -132.1989
13.059220 97.155 -132.5463
13.153852 97.165 -132.8944
13.249170 97.175 -133.2440
13.345179 97.185 -133.5961
13.441884 97.194 -133.9512
13.539289 97.203 -134.3102
13.637401 97.212 -134.6732
13.736223 97.220 -135.0404
13.835761 97.227 -135.4114
13.936021 97.233 -135.7856
14.037007 97.239 -136.1624
14.138725 97.243 -136.5408
14.241180 97.247 -136.9198
14.344377 97.249 -137.2983
14.448323 97.251 -137.6757
14.553021 97.253 -138.0513
14.658478 97.254 -138.4246
14.764700 97.255 -138.7955
14.871691 97.256 -139.1646
14.979457 97.257 -139.5324
15.088005 97.259 -139.8998
15.197339 97.261 -140.2679
15.307465 97.264 -140.6377
15.418389 97.267 -141.0104
15.530117 97.270 -141.3869
15.642655 97.274 -141.7676
15.756008 97.278 -142.1529
15.870182 97.281 -142.5425
15.985184 97.285 -142.9358
16.101019 97.287 -143.3319
16.217694 97.290 -143.7295
16.335214 97.291 -144.1273
16.453586 97.292 -144.5237
16.572815 97.293 -144.9177
16.692909 97.293 -145.3080
16.813872 97.293 -145.6942
16.935713 97.293 -146.0758
17.058436 97.294 -146.4532
17.182048 97.295 -146.8269
17.306556 97.296 -147.1977
17.431967 97.298 -147.5667
17.558286 97.301 -147.9350
17.685521 97.305 -148.3035
17.813677 97.308 -148.6729
17.942762 97.312 -149.0435
18.072783 97.315 -149.4155
18.203746 97.319 -149.7883
18.335658 97.321 -150.1613
18.468526 97.324 -150.5337
18.602356 97.325 -150.9045
18.737156 97.326 -151.2728
18.872934 97.327 -151.6378
19.009695 97.326 -151.9992
19.147447 97.326 -152.3566
19.286197 97.325 -152.7103
19.425953 97.323 -153.0604
19.566721 97.322 -153.4073
19.708510 97.320 -153.7515
19.851326 97.317 -154.0933
19.995177 97.314 -154.4328
20.140070 97.310 -154.7699
20.286013 97.306 -155.1042
20.433014 97.301 -155.4355
20.581080 97.295 -155.7630
20.730219 97.288 -156.0864
20.880439 97.281 -156.4054
21.031747 97.274 -156.7198
21.184152 97.266 -157.0298
21.337661 97.259 -157.3359
21.492282 97.251 -157.6388
21.648024 97.243 -157.9392
21.804895 97.236 -158.2382
21.962902 97.229 -158.5365
22.122054 97.222 -158.8351
22.282360 97.216 -159.1349
22.443827 97.209 -159.4365
22.606464 97.203 -159.7406
22.770280 97.198 -160.0480
22.935283 97.192 -160.3594
23.101481 97.187 -160.6755
23.268884 97.182 -160.9968
23.437500 97.177 -161.3236
23.607338 97.172 -161.6561
23.778406 97.166 -161.9939
23.950714 97.160 -162.3362
24.124271 97.154 -162.6819
24.299086 97.146 -163.0297
24.475167 97.138 -163.3779
24.652524 97.130 -163.7252
24.831166 97.121 -164.0703
25.011103 97.111 -164.4123
25.192344 97.102 -164.7506
25.374898 97.092 -165.0850
25.558775 97.082 -165.4152
25.743984 97.073 -165.7411
25.930536 97.063 -166.0621
26.118439 97.053 -166.3776
26.307704 97.043 -166.6863
26.498341 97.033 -166.9872
26.690359 97.023 -167.2793
26.883768 97.014 -167.5618
27.078579 97.005 -167.8347
27.274801 96.998 -168.0990
27.472446 96.992 -168.3563
27.671522 96.987 -168.6093
27.872042 96.984 -168.8606
28.074014 96.983 -169.1136
28.277450 96.983 -169.3712
28.482360 96.984 -169.6357
28.688755 96.985 -169.9090
28.896645 96.987 -170.1918
29.106042 96.988 -170.4844
29.316957 96.988 -170.7859
29.529400 96.987 -171.0951
29.743382 96.985 -171.4103
29.958915 96.981 -171.7295
30.176009 96.976 -172.0508
30.394677 96.969 -172.3722
30.614929 96.961 -172.6925
30.836778 96.952 -173.0109
31.060234 96.942 -173.3270
31.285309 96.932 -173.6411
31.512015 96.921 -173.9538
31.740364 96.910 -174.2658
31.970368 96.899 -174.5776
32.202039 96.887 -174.8896
32.435388 96.876 -175.2018
32.670428 96.864 -175.5140
32.907171 96.852 -175.8262
33.145630 96.840 -176.1380
33.385817 96.827 -176.4496
33.627745 96.815 -176.7612
33.871425 96.803 -177.0726
34.116871 96.790 -177.3839
34.364096 96.778 -177.6945
34.613113 96.765 -178.0038
34.863934 96.752 -178.3111
35.116572 96.738 -178.6158
35.371041 96.725 -178.9177
35.627354 96.711 -179.2167
35.885525 96.697 -179.5131
36.145566 96.683 -179.8073
36.407492 96.669 179.9006
36.671316 96.654 179.6105
36.937051 96.639 179.3226
37.204712 96.624 179.0370
37.474313 96.609 178.7542
37.745867 96.593 178.4738
38.019389 96.577 178.1957
38.294893 96.561 177.9194
38.572394 96.545 177.6444
38.851905 96.528 177.3702
39.133442 96.512 177.0967
39.417019 96.495 176.8239
39.702651 96.478 176.5518
39.990353 96.460 176.2809
40.280140 96.443 176.0115
40.572026 96.425 175.7437
40.866028 96.408 175.4775
41.162160 96.390 175.2126
41.460438 96.373 174.9487
41.760877 96.355 174.6856
42.063494 96.338 174.4230
42.368303 96.320 174.1612
42.675322 96.303 173.9005
42.984565 96.285 173.6414
43.296048 96.267 173.3842
43.609789 96.249 173.1292
43.925804 96.231 172.8763
44.244108 96.213 172.6252
44.564719 96.195 172.3758
44.887654 96.176 172.1277
45.212928 96.157 171.8810
45.540560 96.138 171.6359
45.870565 96.119 171.3926
46.202962 96.099 171.1511
46.537768 96.079 170.9117
46.875000 96.059 170.6741
47.214676 96.038 170.4381
47.556813 96.018 170.2033
47.901429 95.997 169.9696
48.248542 95.976 169.7371
48.598171 95.955 169.5061
48.950334 95.933 169.2770
49.305048 95.912 169.0500
49.662333 95.891 168.8248
50.022206 95.870 168.6008
50.384688 95.849 168.3778
50.749796 95.828 168.1553
51.117550 95.807 167.9335
51.487969 95.785 167.7126
51.861072 95.764 167.4934
52.236879 95.742 167.2766
52.615409 95.720 167.0627
52.996681 95.697 166.8527
53.380717 95.674 166.6466
53.767536 95.652 166.4444
54.157158 95.630 166.2455
54.549603 95.608 166.0487
54.944892 95.586 165.8529
55.343045 95.565 165.6568
55.744084 95.544 165.4592
56.148028 95.524 165.2590
56.554900 95.504 165.0554
56.964720 95.483 164.8483
57.377510 95.463 164.6376
57.793291 95.442 164.4243
58.212085 95.421 164.2090
58.633914 95.400 163.9927
59.058799 95.378 163.7760
59.486764 95.355 163.5597
59.917829 95.332 163.3444
60.352019 95.308 163.1308
60.789354 95.283 162.9199
61.229859 95.258 162.7125
61.673556 95.232 162.5093
62.120468 95.206 162.3108
62.570618 95.179 162.1168
63.024031 95.153 161.9271
63.480729 95.126 161.7410
63.940736 95.099 161.5577
64.404077 95.072 161.3768
64.870776 95.045 161.1985
65.340856 95.018 161.0231
65.814343 94.991 160.8507
66.291261 94.964 160.6808
66.771635 94.938 160.5119
67.255489 94.912 160.3425
67.742850 94.887 160.1715
68.233743 94.861 159.9986
68.728193 94.835 159.8244
69.226226 94.809 159.6502
69.727867 94.782 159.4775
70.233144 94.754 159.3074
70.742083 94.726 159.1405
71.254709 94.699 158.9763
71.771050 94.671 158.8141
72.291132 94.643 158.6540
72.814984 94.615 158.4958
73.342631 94.587 158.3400
73.874102 94.559 158.1865
74.409424 94.531 158.0358
74.948626 94.503 157.8883
75.491734 94.475 157.7440
76.038779 94.449 157.6013
76.589787 94.422 157.4573
77.144788 94.397 157.3094
77.703811 94.371 157.1571
78.266885 94.345 157.0018
78.834039 94.319 156.8450
79.405303 94.293 156.6865
79.980706 94.266 156.5243
80.560280 94.240 156.3562
81.144053 94.214 156.1811
81.732056 94.186 155.9996
82.324320 94.157 155.8141
82.920876 94.126 155.6279
83.521755 94.094 155.4450
84.126988 94.059 155.2688
84.736607 94.024 155.1021
85.350643 93.987 154.9466
