* Measurement data measured by REW V5.31.3
* Source: EXCL: Microphone (USB Sound Device        ), no input selected, R, volume: no control
* Format: 256k Log Swept Sine, 1 sweep at -17.0 dBFS with no timing reference
* Dated: Jul 5, 2025 4:44:54 PM
* REW Settings:
*  C-weighting compensation: Off
*  Target level: 75.0 dB
* Note: KZ Gale L
* Measurement: L KZ Gale L
* Smoothing: 1/12 octave
* Frequency Step: 96 ppo
* Start Frequency: 0.36621094 Hz
*
* Freq(Hz) SPL(dB) Phase(degrees)
0.366211 94.205 157.9595
0.368865 94.199 157.9365
0.371538 94.191 157.9020
0.374230 94.180 157.8587
0.376942 94.168 157.8088
0.379673 94.155 157.7540
0.382424 94.141 157.6952
0.385196 94.127 157.6333
0.387987 94.113 157.5685
0.390798 94.099 157.5011
0.393630 94.084 157.4312
0.396483 94.070 157.3587
0.399356 94.055 157.2838
0.402250 94.040 157.2063
0.405165 94.025 157.1263
0.408101 94.010 157.0438
0.411058 93.995 156.9588
0.414037 93.980 156.8711
0.417037 93.965 156.7808
0.420059 93.949 156.6879
0.423103 93.934 156.5923
0.426169 93.918 156.4940
0.429257 93.902 156.3931
0.432368 93.886 156.2894
0.435501 93.870 156.1829
0.438656 93.854 156.0737
0.441835 93.838 155.9616
0.445037 93.821 155.8467
0.448262 93.805 155.7290
0.451510 93.788 155.6084
0.454782 93.771 155.4850
0.458077 93.755 155.3586
0.461397 93.738 155.2293
0.464740 93.721 155.0971
0.468108 93.703 154.9619
0.471500 93.686 154.8237
0.474917 93.668 154.6825
0.478358 93.651 154.5383
0.481825 93.633 154.3911
0.485316 93.615 154.2409
0.488833 93.597 154.0876
0.492375 93.579 153.9313
0.495943 93.561 153.7719
0.499537 93.542 153.6094
0.503157 93.524 153.4439
0.506803 93.505 153.2753
0.510475 93.486 153.1036
0.514175 93.467 152.9288
0.517900 93.448 152.7509
0.521653 93.429 152.5700
0.525434 93.410 152.3860
0.529241 93.390 152.1989
0.533076 93.371 152.0087
0.536939 93.351 151.8155
0.540830 93.331 151.6193
0.544749 93.311 151.4201
0.548696 93.291 151.2178
0.552673 93.270 151.0126
0.556677 93.250 150.8045
0.560711 93.229 150.5934
0.564774 93.208 150.3794
0.568867 93.188 150.1626
0.572989 93.166 149.9430
0.577141 93.145 149.7206
0.581324 93.124 149.4955
0.585536 93.102 149.2677
0.589779 93.080 149.0373
0.594053 93.059 148.8044
0.598358 93.037 148.5689
0.602694 93.014 148.3311
0.607061 92.992 148.0909
0.611460 92.970 147.8484
0.615891 92.947 147.6038
0.620354 92.924 147.3570
0.624849 92.901 147.1083
0.629377 92.878 146.8577
0.633938 92.854 146.6053
0.638532 92.831 146.3513
0.643159 92.807 146.0957
0.647819 92.783 145.8387
0.652514 92.759 145.5805
0.657242 92.735 145.3212
0.662005 92.711 145.0609
0.666802 92.686 144.7998
0.671634 92.662 144.5380
0.676501 92.637 144.2759
0.681403 92.611 144.0135
0.686341 92.586 143.7511
0.691314 92.561 143.4888
0.696324 92.535 143.2268
0.701370 92.509 142.9654
0.706452 92.482 142.7046
0.711571 92.455 142.4446
0.716728 92.428 142.1854
0.721921 92.399 141.9266
0.727153 92.369 141.6678
0.732422 92.336 141.4083
0.737729 92.302 141.1471
0.743075 92.266 140.8832
0.748460 92.228 140.6156
0.753883 92.188 140.3437
0.759346 92.148 140.0669
0.764849 92.107 139.7849
0.770391 92.065 139.4975
0.775974 92.023 139.2046
0.781597 91.980 138.9059
0.787261 91.937 138.6015
0.792966 91.893 138.2912
0.798712 91.848 137.9750
0.804500 91.803 137.6529
0.810329 91.757 137.3247
0.816201 91.711 136.9904
0.822116 91.664 136.6501
0.828073 91.616 136.3036
0.834074 91.567 135.9510
0.840118 91.518 135.5921
0.846206 91.468 135.2271
0.852338 91.417 134.8558
0.858514 91.366 134.4783
0.864735 91.313 134.0946
0.871001 91.260 133.7046
0.877313 91.205 133.3085
0.883670 91.150 132.9063
0.890074 91.094 132.4980
0.896524 91.036 132.0837
0.903020 90.978 131.6634
0.909564 90.918 131.2372
0.916155 90.857 130.8054
0.922794 90.795 130.3678
0.929481 90.732 129.9249
0.936216 90.667 129.4766
0.943000 90.601 129.0232
0.949834 90.533 128.5649
0.956717 90.464 128.1019
0.963649 90.394 127.6345
0.970632 90.322 127.1631
0.977666 90.248 126.6878
0.984750 90.173 126.2091
0.991886 90.096 125.7273
0.999074 90.017 125.2430
1.006314 89.936 124.7565
1.013606 89.854 124.2683
1.020951 89.769 123.7791
1.028349 89.682 123.2894
1.035801 89.593 122.7999
1.043307 89.502 122.3111
1.050867 89.409 121.8239
1.058482 89.313 121.3390
1.066152 89.215 120.8571
1.073878 89.115 120.3788
1.081660 89.013 119.9047
1.089498 88.908 119.4350
1.097393 88.802 118.9697
1.105345 88.694 118.5084
1.113355 88.585 118.0505
1.121423 88.476 117.5953
1.129549 88.366 117.1421
1.137734 88.255 116.6904
1.145979 88.144 116.2397
1.154283 88.032 115.7894
1.162647 87.919 115.3391
1.171072 87.805 114.8886
1.179558 87.690 114.4372
1.188106 87.574 113.9847
1.196715 87.456 113.5306
1.205387 87.336 113.0744
1.214122 87.214 112.6157
1.222920 87.089 112.1541
1.231782 86.962 111.6889
1.240708 86.832 111.2197
1.249699 86.698 110.7459
1.258754 86.561 110.2670
1.267876 86.420 109.7822
1.277063 86.274 109.2910
1.286318 86.124 108.7926
1.295639 85.969 108.2863
1.305027 85.808 107.7715
1.314484 85.642 107.2472
1.324009 85.469 106.7126
1.333604 85.290 106.1670
1.343268 85.104 105.6094
1.353002 84.911 105.0388
1.362806 84.709 104.4543
1.372681 84.499 103.8550
1.382628 84.281 103.2399
1.392647 84.052 102.6079
1.402739 83.814 101.9583
1.412904 83.565 101.2902
1.423142 83.305 100.6028
1.433455 83.032 99.8959
1.443843 82.745 99.1692
1.454305 82.442 98.4229
1.464844 82.120 97.6577
1.475459 81.777 96.8742
1.486150 81.409 96.0726
1.496920 81.015 95.2527
1.507767 80.593 94.4134
1.518693 80.143 93.5527
1.529698 79.666 92.6679
1.540783 79.163 91.7558
1.551948 78.635 90.8121
1.563194 78.084 89.8321
1.574521 77.513 88.8099
1.585931 76.923 87.7387
1.597423 76.317 86.6103
1.608999 75.698 85.4152
1.620658 75.068 84.1415
1.632402 74.432 82.7752
1.644232 73.792 81.2989
1.656146 73.151 79.6915
1.668147 72.514 77.9267
1.680235 71.885 75.9716
1.692411 71.267 73.7850
1.704675 70.666 71.3145
1.717028 70.086 68.4935
1.729470 69.534 65.2373
1.742003 69.014 61.4385
1.754626 68.534 56.9635
1.767341 68.099 51.6516
1.780147 67.717 45.3242
1.793047 67.395 37.8136
1.806040 67.140 29.0238
1.819128 66.959 19.0247
1.832310 66.856 8.1373
1.845587 66.835 -3.0771
1.858961 66.896 -13.9716
1.872432 67.038 -24.0247
1.886001 67.257 -32.9586
1.899667 67.549 -40.7209
1.913433 67.908 -47.3976
1.927299 68.327 -53.1320
1.941265 68.798 -58.0750
1.955332 69.317 -62.3629
1.969501 69.874 -66.1099
1.983773 70.463 -69.4087
1.998148 71.076 -72.3333
2.012627 71.707 -74.9422
2.027212 72.348 -77.2821
2.041902 72.992 -79.3900
2.056698 73.632 -81.2955
2.071602 74.262 -83.0224
2.086614 74.873 -84.5903
2.101734 75.461 -86.0151
2.116964 76.019 -87.3107
2.132304 76.542 -88.4895
2.147756 77.025 -89.5636
2.163320 77.466 -90.5460
2.178996 77.863 -91.4511
2.194786 78.220 -92.2955
2.210690 78.538 -93.0967
2.226710 78.822 -93.8713
2.242845 79.076 -94.6317
2.259098 79.305 -95.3860
2.275468 79.510 -96.1381
2.291957 79.693 -96.8889
2.308566 79.857 -97.6373
2.325295 80.003 -98.3810
2.342145 80.132 -99.1165
2.359117 80.246 -99.8403
2.376212 80.346 -100.5480
2.393431 80.433 -101.2352
2.410775 80.510 -101.8973
2.428244 80.578 -102.5292
2.445840 80.637 -103.1260
2.463564 80.691 -103.6828
2.481416 80.740 -104.1949
2.499397 80.786 -104.6582
2.517509 80.829 -105.0700
2.535752 80.869 -105.4293
2.554127 80.907 -105.7375
2.572635 80.939 -105.9986
2.591277 80.966 -106.2181
2.610055 80.984 -106.4012
2.628968 80.993 -106.5521
2.648019 80.991 -106.6727
2.667208 80.981 -106.7637
2.686535 80.961 -106.8244
2.706003 80.934 -106.8531
2.725612 80.900 -106.8473
2.745363 80.860 -106.8041
2.765257 80.817 -106.7201
2.785295 80.771 -106.5917
2.805478 80.724 -106.4148
2.825808 80.679 -106.1853
2.846285 80.635 -105.8988
2.866910 80.595 -105.5510
2.887685 80.559 -105.1374
2.908611 80.527 -104.6537
2.929688 80.500 -104.0956
2.950917 80.476 -103.4596
2.972301 80.454 -102.7432
2.993839 80.434 -101.9456
3.015534 80.415 -101.0677
3.037386 80.396 -100.1127
3.059396 80.380 -99.0851
3.081565 80.367 -97.9911
3.103896 80.358 -96.8384
3.126388 80.355 -95.6362
3.149043 80.359 -94.3946
3.171862 80.371 -93.1247
3.194847 80.394 -91.8379
3.217998 80.428 -90.5449
3.241317 80.477 -89.2553
3.264805 80.540 -87.9757
3.288463 80.619 -86.7096
3.312293 80.716 -85.4579
3.336295 80.830 -84.2200
3.360471 80.960 -82.9977
3.384822 81.107 -81.7956
3.409350 81.267 -80.6211
3.434056 81.440 -79.4835
3.458940 81.623 -78.3927
3.484005 81.813 -77.3586
3.509252 82.010 -76.3903
3.534681 82.210 -75.4958
3.560295 82.411 -74.6816
3.586094 82.612 -73.9523
3.612081 82.812 -73.3106
3.638255 83.009 -72.7567
3.664620 83.205 -72.2883
3.691175 83.399 -71.9010
3.717923 83.594 -71.5890
3.744864 83.788 -71.3463
3.772001 83.982 -71.1670
3.799335 84.176 -71.0456
3.826866 84.368 -70.9771
3.854597 84.559 -70.9569
3.882529 84.746 -70.9810
3.910664 84.929 -71.0462
3.939002 85.106 -71.1499
3.967546 85.277 -71.2906
3.996296 85.440 -71.4679
4.025255 85.596 -71.6822
4.054423 85.744 -71.9341
4.083804 85.885 -72.2238
4.113396 86.019 -72.5497
4.143204 86.146 -72.9085
4.173227 86.265 -73.2955
4.203468 86.379 -73.7051
4.233928 86.486 -74.1315
4.264609 86.586 -74.5692
4.295512 86.680 -75.0135
4.326639 86.768 -75.4610
4.357992 86.850 -75.9100
4.389572 86.925 -76.3610
4.421380 86.993 -76.8159
4.453419 87.053 -77.2769
4.485691 87.107 -77.7448
4.518196 87.154 -78.2186
4.550936 87.195 -78.6951
4.583914 87.229 -79.1700
4.617131 87.257 -79.6379
4.650589 87.281 -80.0933
4.684289 87.300 -80.5313
4.718233 87.314 -80.9479
4.752424 87.324 -81.3410
4.786862 87.330 -81.7101
4.821549 87.330 -82.0563
4.856488 87.326 -82.3806
4.891680 87.317 -82.6839
4.927127 87.305 -82.9659
4.962831 87.290 -83.2257
4.998794 87.273 -83.4618
5.035017 87.255 -83.6721
5.071503 87.237 -83.8544
5.108253 87.219 -84.0063
5.145270 87.201 -84.1262
5.182555 87.184 -84.2133
5.220110 87.168 -84.2685
5.257937 87.152 -84.2945
5.296038 87.137 -84.2949
5.334415 87.125 -84.2744
5.373071 87.116 -84.2377
5.412006 87.110 -84.1890
5.451224 87.109 -84.1316
5.490725 87.113 -84.0671
5.530514 87.122 -83.9963
5.570590 87.136 -83.9204
5.610957 87.156 -83.8419
5.651616 87.181 -83.7653
5.692570 87.210 -83.6967
5.733821 87.243 -83.6430
5.775370 87.281 -83.6107
5.817221 87.322 -83.6052
5.859375 87.368 -83.6301
5.901834 87.417 -83.6869
5.944602 87.470 -83.7760
5.987679 87.526 -83.8979
6.031068 87.585 -84.0534
6.074771 87.645 -84.2440
6.118792 87.707 -84.4716
6.163131 87.768 -84.7381
6.207792 87.829 -85.0452
6.252776 87.889 -85.3937
6.298086 87.947 -85.7832
6.343725 88.005 -86.2117
6.389694 88.060 -86.6761
6.435996 88.114 -87.1726
6.482634 88.165 -87.6977
6.529610 88.213 -88.2484
6.576926 88.257 -88.8231
6.624585 88.297 -89.4205
6.672590 88.334 -90.0399
6.720942 88.367 -90.6789
6.769645 88.396 -91.3338
6.818700 88.422 -91.9999
6.868111 88.444 -92.6723
6.917881 88.463 -93.3467
6.968010 88.479 -94.0204
7.018504 88.491 -94.6918
7.069362 88.501 -95.3598
7.120590 88.508 -96.0226
7.172189 88.513 -96.6778
7.224161 88.518 -97.3220
7.276511 88.521 -97.9523
7.329239 88.524 -98.5662
7.382350 88.527 -99.1625
7.435845 88.531 -99.7411
7.489729 88.535 -100.3025
7.544002 88.542 -100.8479
7.598669 88.550 -101.3780
7.653732 88.562 -101.8934
7.709194 88.576 -102.3946
7.765058 88.595 -102.8824
7.821327 88.617 -103.3584
7.878004 88.644 -103.8256
7.935091 88.675 -104.2873
7.992592 88.710 -104.7469
8.050510 88.749 -105.2073
8.108847 88.793 -105.6702
8.167607 88.842 -106.1374
8.226793 88.894 -106.6105
8.286408 88.950 -107.0916
8.346454 89.010 -107.5829
8.406936 89.072 -108.0863
8.467856 89.136 -108.6027
8.529218 89.202 -109.1321
8.591024 89.270 -109.6738
8.653278 89.339 -110.2268
8.715983 89.409 -110.7900
8.779143 89.478 -111.3624
8.842760 89.547 -111.9427
8.906839 89.616 -112.5292
8.971381 89.683 -113.1194
9.036392 89.750 -113.7105
9.101873 89.815 -114.2994
9.167829 89.879 -114.8838
9.234263 89.941 -115.4616
9.301178 90.002 -116.0308
9.368578 90.061 -116.5893
9.436467 90.120 -117.1347
9.504847 90.177 -117.6650
9.573723 90.233 -118.1788
9.643099 90.289 -118.6754
9.712976 90.344 -119.1543
9.783361 90.399 -119.6154
9.854255 90.454 -120.0588
9.925663 90.510 -120.4847
9.997588 90.565 -120.8937
10.070035 90.622 -121.2870
10.143007 90.678 -121.6662
10.216507 90.735 -122.0328
10.290540 90.793 -122.3882
10.365109 90.851 -122.7339
10.440219 90.910 -123.0711
10.515873 90.968 -123.4014
10.592076 91.027 -123.7261
10.668830 91.085 -124.0463
10.746141 91.143 -124.3626
10.824012 91.200 -124.6754
10.902447 91.256 -124.9849
10.981451 91.310 -125.2912
11.061027 91.364 -125.5942
11.141180 91.415 -125.8936
11.221913 91.465 -126.1890
11.303232 91.514 -126.4797
11.385140 91.560 -126.7654
11.467641 91.605 -127.0457
11.550741 91.648 -127.3203
11.634442 91.689 -127.5892
11.718750 91.729 -127.8523
11.803669 91.767 -128.1100
11.889203 91.803 -128.3626
11.975357 91.838 -128.6110
12.062136 91.872 -128.8560
12.149543 91.905 -129.0984
12.237583 91.936 -129.3394
12.326262 91.966 -129.5798
12.415583 91.995 -129.8208
12.505552 92.023 -130.0633
12.596172 92.048 -130.3080
12.687449 92.073 -130.5554
12.779387 92.096 -130.8060
12.871992 92.117 -131.0599
12.965268 92.136 -131.3172
13.059220 92.153 -131.5778
13.153852 92.169 -131.8414
13.249170 92.183 -132.1078
13.345179 92.195 -132.3768
13.441884 92.206 -132.6482
13.539289 92.216 -132.9221
13.637401 92.225 -133.1985
13.736223 92.232 -133.4780
13.835761 92.239 -133.7612
13.936021 92.246 -134.0488
14.037007 92.252 -134.3419
14.138725 92.258 -134.6416
14.241180 92.264 -134.9490
14.344377 92.270 -135.2651
14.448323 92.276 -135.5910
14.553021 92.282 -135.9272
14.658478 92.288 -136.2743
14.764700 92.293 -136.6323
14.871691 92.299 -137.0009
14.979457 92.304 -137.3796
15.088005 92.309 -137.7674
15.197339 92.314 -138.1633
15.307465 92.318 -138.5660
15.418389 92.323 -138.9742
15.530117 92.328 -139.3868
15.642655 92.333 -139.8028
15.756008 92.339 -140.2213
15.870182 92.346 -140.6418
15.985184 92.354 -141.0641
16.101019 92.364 -141.4883
16.217694 92.375 -141.9147
16.335214 92.387 -142.3434
16.453586 92.401 -142.7751
16.572815 92.417 -143.2098
16.692909 92.434 -143.6476
16.813872 92.452 -144.0882
16.935713 92.471 -144.5309
17.058436 92.491 -144.9747
17.182048 92.511 -145.4182
17.306556 92.532 -145.8595
17.431967 92.553 -146.2969
17.558286 92.573 -146.7282
17.685521 92.594 -147.1516
17.813677 92.615 -147.5652
17.942762 92.636 -147.9678
18.072783 92.657 -148.3581
18.203746 92.678 -148.7355
18.335658 92.700 -149.0997
18.468526 92.722 -149.4510
18.602356 92.744 -149.7897
18.737156 92.767 -150.1165
18.872934 92.789 -150.4324
19.009695 92.813 -150.7382
19.147447 92.835 -151.0349
19.286197 92.858 -151.3234
19.425953 92.881 -151.6045
19.566721 92.902 -151.8791
19.708510 92.924 -152.1477
19.851326 92.944 -152.4112
19.995177 92.963 -152.6702
20.140070 92.981 -152.9253
20.286013 92.997 -153.1771
20.433014 93.012 -153.4261
20.581080 93.025 -153.6728
20.730219 93.037 -153.9174
20.880439 93.046 -154.1603
21.031747 93.054 -154.4016
21.184152 93.060 -154.6416
21.337661 93.065 -154.8806
21.492282 93.068 -155.1190
21.648024 93.069 -155.3574
21.804895 93.069 -155.5967
21.962902 93.069 -155.8382
22.122054 93.067 -156.0832
22.282360 93.065 -156.3332
22.443827 93.062 -156.5895
22.606464 93.058 -156.8534
22.770280 93.054 -157.1259
22.935283 93.049 -157.4072
23.101481 93.044 -157.6975
23.268884 93.038 -157.9963
23.437500 93.031 -158.3027
23.607338 93.025 -158.6158
23.778406 93.017 -158.9344
23.950714 93.010 -159.2573
24.124271 93.003 -159.5837
24.299086 92.997 -159.9127
24.475167 92.991 -160.2437
24.652524 92.987 -160.5763
24.831166 92.983 -160.9100
25.011103 92.980 -161.2444
25.192344 92.979 -161.5789
25.374898 92.979 -161.9130
25.558775 92.981 -162.2462
25.743984 92.983 -162.5778
25.930536 92.987 -162.9074
26.118439 92.992 -163.2344
26.307704 92.998 -163.5586
26.498341 93.004 -163.8793
26.690359 93.012 -164.1961
26.883768 93.019 -164.5083
27.078579 93.027 -164.8149
27.274801 93.034 -165.1149
27.472446 93.041 -165.4073
27.671522 93.048 -165.6911
27.872042 93.054 -165.9657
28.074014 93.059 -166.2309
28.277450 93.064 -166.4870
28.482360 93.068 -166.7348
28.688755 93.072 -166.9754
28.896645 93.075 -167.2101
29.106042 93.077 -167.4405
29.316957 93.079 -167.6678
29.529400 93.080 -167.8934
29.743382 93.079 -168.1185
29.958915 93.078 -168.3439
30.176009 93.075 -168.5708
30.394677 93.072 -168.7999
30.614929 93.067 -169.0321
30.836778 93.062 -169.2681
31.060234 93.055 -169.5083
31.285309 93.048 -169.7531
31.512015 93.040 -170.0026
31.740364 93.031 -170.2567
31.970368 93.022 -170.5155
32.202039 93.013 -170.7788
32.435388 93.004 -171.0464
32.670428 92.995 -171.3181
32.907171 92.986 -171.5934
33.145630 92.977 -171.8716
33.385817 92.969 -172.1521
33.627745 92.961 -172.4337
33.871425 92.954 -172.7155
34.116871 92.947 -172.9967
34.364096 92.940 -173.2764
34.613113 92.935 -173.5541
34.863934 92.930 -173.8293
35.116572 92.925 -174.1016
35.371041 92.921 -174.3708
35.627354 92.917 -174.6366
35.885525 92.914 -174.8990
36.145566 92.910 -175.1578
36.407492 92.906 -175.4129
36.671316 92.901 -175.6640
36.937051 92.895 -175.9105
37.204712 92.889 -176.1517
37.474313 92.882 -176.3870
37.745867 92.873 -176.6157
38.019389 92.864 -176.8381
38.294893 92.855 -177.0549
38.572394 92.845 -177.2677
38.851905 92.835 -177.4784
39.133442 92.824 -177.6888
39.417019 92.813 -177.9002
39.702651 92.802 -178.1137
39.990353 92.791 -178.3294
40.280140 92.779 -178.5476
40.572026 92.767 -178.7685
40.866028 92.755 -178.9924
41.162160 92.743 -179.2195
41.460438 92.731 -179.4497
41.760877 92.718 -179.6826
42.063494 92.705 -179.9170
42.368303 92.692 179.8484
42.675322 92.679 179.6149
42.984565 92.665 179.3831
43.296048 92.652 179.1535
43.609789 92.638 178.9260
43.925804 92.625 178.7006
44.244108 92.612 178.4772
44.564719 92.598 178.2560
44.887654 92.585 178.0366
45.212928 92.571 177.8184
45.540560 92.557 177.6006
45.870565 92.544 177.3829
46.202962 92.529 177.1651
46.537768 92.514 176.9484
46.875000 92.498 176.7344
47.214676 92.482 176.5249
47.556813 92.465 176.3203
47.901429 92.449 176.1201
48.248542 92.433 175.9222
48.598171 92.418 175.7244
48.950334 92.404 175.5251
49.305048 92.389 175.3239
49.662333 92.374 175.1216
50.022206 92.359 174.9199
50.384688 92.343 174.7202
50.749796 92.327 174.5234
51.117550 92.311 174.3294
51.487969 92.295 174.1379
51.861072 92.278 173.9481
52.236879 92.261 173.7597
52.615409 92.244 173.5730
52.996681 92.226 173.3885
53.380717 92.208 173.2066
53.767536 92.190 173.0270
54.157158 92.172 172.8487
54.549603 92.154 172.6692
54.944892 92.137 172.4864
55.343045 92.121 172.2987
55.744084 92.104 172.1061
56.148028 92.088 171.9102
56.554900 92.071 171.7130
56.964720 92.054 171.5164
57.377510 92.038 171.3206
57.793291 92.022 171.1246
58.212085 92.006 170.9272
58.633914 91.990 170.7283
59.058799 91.974 170.5301
59.486764 91.956 170.3362
59.917829 91.936 170.1501
60.352019 91.917 169.9728
60.789354 91.896 169.8027
61.229859 91.876 169.6366
61.673556 91.855 169.4720
62.120468 91.833 169.3078
62.570618 91.810 169.1443
63.024031 91.787 168.9819
63.480729 91.763 168.8204
63.940736 91.738 168.6589
64.404077 91.714 168.4971
64.870776 91.689 168.3351
65.340856 91.665 168.1730
65.814343 91.641 168.0107
66.291261 91.617 167.8475
66.771635 91.594 167.6835
67.255489 91.572 167.5193
67.742850 91.549 167.3561
68.233743 91.527 167.1949
68.728193 91.505 167.0356
69.226226 91.483 166.8780
69.727867 91.461 166.7214
70.233144 91.438 166.5665
70.742083 91.415 166.4146
71.254709 91.392 166.2670
71.771050 91.368 166.1243
72.291132 91.345 165.9857
72.814984 91.322 165.8493
73.342631 91.299 165.7130
73.874102 91.276 165.5762
74.409424 91.254 165.4399
74.948626 91.231 165.3060
75.491734 91.208 165.1759
76.038779 91.185 165.0500
76.589787 91.162 164.9278
77.144788 91.139 164.8089
77.703811 91.117 164.6932
78.266885 91.096 164.5787
78.834039 91.076 164.4601
79.405303 91.056 164.3301
79.980706 91.037 164.1832
80.560280 91.016 164.0188
81.144053 90.994 163.8411
81.732056 90.969 163.6555
82.324320 90.941 163.4664
82.920876 90.912 163.2768
83.521755 90.881 163.0897
84.126988 90.848 162.9079
84.736607 90.814 162.7341
85.350643 90.780 162.5700
85.969129 90.744 162.4167
86.592097 90.709 162.2748
87.219579 90.674 162.1443
