* Measurement data measured by REW V5.31.3
* Source: EXCL: Microphone (USB Sound Device        ), MICROPHONE (Master Volume), R, volume: 0.390
* Format: 256k Log Swept Sine, 1 sweep at -1.0 dBFS with no timing reference
* Dated: May 18, 2025 1:24:28 PM
* REW Settings:
*  C-weighting compensation: Off
*  Target level: 75.0 dB
* Note: KZ Krio ANC Off L
* Measurement: L KZ Krio ANC OFF
* Smoothing: 1/12 octave
* Frequency Step: 96 ppo
* Start Frequency: 0.36621094 Hz
*
* Freq(Hz) SPL(dB) Phase(degrees)
0.366211 94.565 157.0894
0.368865 94.559 157.0656
0.371538 94.551 157.0299
0.374230 94.540 156.9850
0.376942 94.528 156.9332
0.379673 94.516 156.8763
0.382424 94.502 156.8154
0.385196 94.489 156.7512
0.387987 94.475 156.6840
0.390798 94.461 156.6141
0.393630 94.446 156.5415
0.396483 94.432 156.4664
0.399356 94.418 156.3886
0.402250 94.403 156.3083
0.405165 94.388 156.2253
0.408101 94.374 156.1397
0.411058 94.359 156.0515
0.414037 94.344 155.9605
0.417037 94.329 155.8669
0.420059 94.313 155.7705
0.423103 94.298 155.6713
0.426169 94.283 155.5694
0.429257 94.267 155.4646
0.432368 94.251 155.3570
0.435501 94.236 155.2466
0.438656 94.220 155.1332
0.441835 94.204 155.0170
0.445037 94.188 154.8978
0.448262 94.171 154.7757
0.451510 94.155 154.6505
0.454782 94.138 154.5224
0.458077 94.122 154.3913
0.461397 94.105 154.2572
0.464740 94.088 154.1200
0.468108 94.071 153.9797
0.471500 94.054 153.8363
0.474917 94.037 153.6899
0.478358 94.020 153.5403
0.481825 94.002 153.3876
0.485316 93.985 153.2317
0.488833 93.967 153.0727
0.492375 93.949 152.9105
0.495943 93.931 152.7451
0.499537 93.913 152.5766
0.503157 93.895 152.4049
0.506803 93.877 152.2300
0.510475 93.858 152.0519
0.514175 93.839 151.8706
0.517900 93.821 151.6861
0.521653 93.802 151.4984
0.525434 93.783 151.3075
0.529241 93.764 151.1135
0.533076 93.744 150.9163
0.536939 93.725 150.7160
0.540830 93.705 150.5125
0.544749 93.685 150.3059
0.548696 93.666 150.0962
0.552673 93.646 149.8834
0.556677 93.625 149.6676
0.560711 93.605 149.4488
0.564774 93.585 149.2271
0.568867 93.564 149.0023
0.572989 93.543 148.7747
0.577141 93.522 148.5442
0.581324 93.501 148.3110
0.585536 93.480 148.0749
0.589779 93.459 147.8362
0.594053 93.437 147.5949
0.598358 93.416 147.3510
0.602694 93.394 147.1047
0.607061 93.372 146.8559
0.611460 93.350 146.6049
0.615891 93.327 146.3516
0.620354 93.305 146.0961
0.624849 93.282 145.8387
0.629377 93.259 145.5793
0.633938 93.236 145.3182
0.638532 93.213 145.0553
0.643159 93.190 144.7910
0.647819 93.167 144.5252
0.652514 93.143 144.2581
0.657242 93.119 143.9900
0.662005 93.095 143.7209
0.666802 93.071 143.4511
0.671634 93.047 143.1806
0.676501 93.022 142.9098
0.681403 92.997 142.6388
0.686341 92.973 142.3678
0.691314 92.947 142.0970
0.696324 92.922 141.8266
0.701370 92.896 141.5569
0.706452 92.870 141.2879
0.711571 92.844 141.0197
0.716728 92.817 140.7523
0.721921 92.788 140.4856
0.727153 92.759 140.2189
0.732422 92.727 139.9516
0.737729 92.693 139.6825
0.743075 92.658 139.4108
0.748460 92.620 139.1353
0.753883 92.582 138.8554
0.759346 92.542 138.5706
0.764849 92.502 138.2805
0.770391 92.461 137.9849
0.775974 92.419 137.6837
0.781597 92.377 137.3766
0.787261 92.334 137.0637
0.792966 92.291 136.7449
0.798712 92.247 136.4200
0.804500 92.203 136.0891
0.810329 92.158 135.7522
0.816201 92.112 135.4090
0.822116 92.066 135.0598
0.828073 92.019 134.7043
0.834074 91.971 134.3426
0.840118 91.923 133.9746
0.846206 91.874 133.6004
0.852338 91.824 133.2199
0.858514 91.773 132.8332
0.864735 91.721 132.4403
0.871001 91.669 132.0412
0.877313 91.616 131.6358
0.883670 91.561 131.2244
0.890074 91.506 130.8070
0.896524 91.449 130.3835
0.903020 91.392 129.9542
0.909564 91.333 129.5191
0.916155 91.274 129.0783
0.922794 91.213 128.6320
0.929481 91.151 128.1804
0.936216 91.087 127.7237
0.943000 91.023 127.2620
0.949834 90.956 126.7956
0.956717 90.889 126.3247
0.963649 90.820 125.8497
0.970632 90.750 125.3709
0.977666 90.678 124.8886
0.984750 90.604 124.4032
0.991886 90.529 123.9151
0.999074 90.452 123.4248
1.006314 90.373 122.9328
1.013606 90.292 122.4397
1.020951 90.210 121.9459
1.028349 90.125 121.4523
1.035801 90.039 120.9593
1.043307 89.950 120.4678
1.050867 89.859 119.9786
1.058482 89.767 119.4923
1.066152 89.672 119.0097
1.073878 89.575 118.5316
1.081660 89.476 118.0585
1.089498 89.376 117.5906
1.097393 89.274 117.1281
1.105345 89.173 116.6704
1.113355 89.071 116.2171
1.121423 88.971 115.7675
1.129549 88.872 115.3208
1.137734 88.774 114.8766
1.145979 88.677 114.4344
1.154283 88.581 113.9937
1.162647 88.486 113.5542
1.171072 88.391 113.1155
1.179558 88.297 112.6773
1.188106 88.202 112.2392
1.196715 88.106 111.8008
1.205387 88.010 111.3618
1.214122 87.911 110.9218
1.222920 87.811 110.4803
1.231782 87.709 110.0371
1.240708 87.603 109.5916
1.249699 87.494 109.1435
1.258754 87.380 108.6922
1.267876 87.262 108.2373
1.277063 87.139 107.7783
1.286318 87.010 107.3147
1.295639 86.874 106.8459
1.305027 86.732 106.3714
1.314484 86.581 105.8907
1.324009 86.423 105.4031
1.333604 86.255 104.9081
1.343268 86.077 104.4050
1.353002 85.888 103.8934
1.362806 85.688 103.3725
1.372681 85.476 102.8418
1.382628 85.250 102.3008
1.392647 85.011 101.7490
1.402739 84.756 101.1859
1.412904 84.486 100.6113
1.423142 84.198 100.0251
1.433455 83.891 99.4275
1.443843 83.564 98.8193
1.454305 83.213 98.2016
1.464844 82.836 97.5760
1.475459 82.429 96.9444
1.486150 81.988 96.3086
1.496920 81.511 95.6701
1.507767 80.996 95.0295
1.518693 80.443 94.3870
1.529698 79.853 93.7422
1.540783 79.226 93.0946
1.551948 78.566 92.4430
1.563194 77.873 91.7864
1.574521 77.151 91.1232
1.585931 76.402 90.4517
1.597423 75.630 89.7697
1.608999 74.838 89.0748
1.620658 74.029 88.3641
1.632402 73.208 87.6341
1.644232 72.378 86.8807
1.656146 71.543 86.0986
1.668147 70.710 85.2818
1.680235 69.883 84.4223
1.692411 69.067 83.5105
1.704675 68.268 82.5338
1.717028 67.494 81.4762
1.729470 66.751 80.3167
1.742003 66.047 79.0269
1.754626 65.392 77.5684
1.767341 64.793 75.8879
1.780147 64.262 73.9084
1.793047 63.808 71.5155
1.806040 63.442 68.5301
1.819128 63.174 64.6509
1.832310 63.010 59.3246
1.845587 62.956 51.4235
1.858961 63.011 38.4339
1.872432 63.175 15.1797
1.886001 63.441 -20.4506
1.899667 63.801 -51.5381
1.913433 64.248 -69.5045
1.927299 64.773 -79.8082
1.941265 65.364 -86.3902
1.955332 66.013 -91.0245
1.969501 66.710 -94.5332
1.983773 67.444 -97.3339
1.998148 68.207 -99.6572
2.012627 68.989 -101.6396
2.027212 69.781 -103.3670
2.041902 70.573 -104.8956
2.056698 71.358 -106.2637
2.071602 72.127 -107.4985
2.086614 72.871 -108.6199
2.101734 73.583 -109.6430
2.116964 74.256 -110.5799
2.132304 74.884 -111.4415
2.147756 75.462 -112.2389
2.163320 75.987 -112.9840
2.178996 76.459 -113.6914
2.194786 76.879 -114.3783
2.210690 77.252 -115.0631
2.226710 77.584 -115.7626
2.242845 77.880 -116.4885
2.259098 78.144 -117.2467
2.275468 78.378 -118.0386
2.291957 78.587 -118.8618
2.308566 78.770 -119.7119
2.325295 78.931 -120.5833
2.342145 79.070 -121.4698
2.359117 79.189 -122.3647
2.376212 79.289 -123.2613
2.393431 79.373 -124.1527
2.410775 79.441 -125.0320
2.428244 79.496 -125.8924
2.445840 79.538 -126.7271
2.463564 79.571 -127.5297
2.481416 79.595 -128.2947
2.499397 79.612 -129.0175
2.517509 79.623 -129.6959
2.535752 79.629 -130.3307
2.554127 79.629 -130.9270
2.572635 79.622 -131.4936
2.591277 79.606 -132.0417
2.610055 79.580 -132.5818
2.628968 79.542 -133.1215
2.648019 79.491 -133.6649
2.667208 79.427 -134.2133
2.686535 79.349 -134.7652
2.706003 79.258 -135.3172
2.725612 79.153 -135.8642
2.745363 79.036 -136.3997
2.765257 78.906 -136.9159
2.785295 78.763 -137.4034
2.805478 78.608 -137.8515
2.825808 78.441 -138.2483
2.846285 78.262 -138.5805
2.866910 78.070 -138.8345
2.887685 77.863 -138.9966
2.908611 77.640 -139.0541
2.929688 77.398 -138.9963
2.950917 77.132 -138.8145
2.972301 76.839 -138.5007
2.993839 76.519 -138.0459
3.015534 76.171 -137.4384
3.037386 75.799 -136.6637
3.059396 75.406 -135.7037
3.081565 74.999 -134.5371
3.103896 74.586 -133.1394
3.126388 74.175 -131.4842
3.149043 73.775 -129.5436
3.171862 73.397 -127.2906
3.194847 73.052 -124.7012
3.217998 72.753 -121.7576
3.241317 72.512 -118.4513
3.264805 72.338 -114.7863
3.288463 72.241 -110.7811
3.312293 72.224 -106.4727
3.336295 72.289 -101.9213
3.360471 72.431 -97.2156
3.384822 72.643 -92.4695
3.409350 72.916 -87.8088
3.434056 73.238 -83.3533
3.458940 73.601 -79.2020
3.484005 73.992 -75.4233
3.509252 74.401 -72.0548
3.534681 74.820 -69.1076
3.560295 75.240 -66.5726
3.586094 75.653 -64.4280
3.612081 76.057 -62.6443
3.638255 76.449 -61.1885
3.664620 76.830 -60.0258
3.691175 77.202 -59.1216
3.717923 77.570 -58.4422
3.744864 77.935 -57.9561
3.772001 78.297 -57.6345
3.799335 78.656 -57.4512
3.826866 79.010 -57.3831
3.854597 79.357 -57.4102
3.882529 79.694 -57.5156
3.910664 80.018 -57.6859
3.939002 80.328 -57.9107
3.967546 80.620 -58.1836
3.996296 80.893 -58.5017
4.025255 81.147 -58.8654
4.054423 81.380 -59.2770
4.083804 81.594 -59.7379
4.113396 81.789 -60.2461
4.143204 81.966 -60.7962
4.173227 82.127 -61.3796
4.203468 82.273 -61.9861
4.233928 82.404 -62.6047
4.264609 82.523 -63.2250
4.295512 82.630 -63.8379
4.326639 82.726 -64.4369
4.357992 82.812 -65.0188
4.389572 82.887 -65.5845
4.421380 82.950 -66.1377
4.453419 83.002 -66.6830
4.485691 83.042 -67.2232
4.518196 83.070 -67.7573
4.550936 83.087 -68.2810
4.583914 83.093 -68.7872
4.617131 83.090 -69.2672
4.650589 83.079 -69.7113
4.684289 83.060 -70.1100
4.718233 83.035 -70.4554
4.752424 83.002 -70.7421
4.786862 82.961 -70.9675
4.821549 82.914 -71.1317
4.856488 82.858 -71.2354
4.891680 82.797 -71.2795
4.927127 82.730 -71.2640
4.962831 82.660 -71.1882
4.998794 82.590 -71.0503
5.035017 82.520 -70.8480
5.071503 82.454 -70.5779
5.108253 82.393 -70.2364
5.145270 82.336 -69.8198
5.182555 82.285 -69.3265
5.220110 82.239 -68.7583
5.257937 82.199 -68.1216
5.296038 82.166 -67.4269
5.334415 82.141 -66.6879
5.373071 82.126 -65.9195
5.412006 82.123 -65.1366
5.451224 82.132 -64.3515
5.490725 82.155 -63.5735
5.530514 82.192 -62.8083
5.570590 82.244 -62.0610
5.610957 82.310 -61.3385
5.651616 82.387 -60.6505
5.692570 82.473 -60.0088
5.733821 82.568 -59.4256
5.775370 82.668 -58.9124
5.817221 82.772 -58.4779
5.859375 82.880 -58.1274
5.901834 82.991 -57.8620
5.944602 83.105 -57.6802
5.987679 83.220 -57.5783
6.031068 83.336 -57.5523
6.074771 83.451 -57.5984
6.118792 83.562 -57.7135
6.163131 83.668 -57.8955
6.207792 83.768 -58.1430
6.252776 83.861 -58.4551
6.298086 83.947 -58.8294
6.343725 84.025 -59.2610
6.389694 84.096 -59.7424
6.435996 84.159 -60.2642
6.482634 84.214 -60.8171
6.529610 84.261 -61.3930
6.576926 84.299 -61.9866
6.624585 84.329 -62.5952
6.672590 84.349 -63.2172
6.720942 84.361 -63.8496
6.769645 84.365 -64.4872
6.818700 84.362 -65.1226
6.868111 84.352 -65.7479
6.917881 84.337 -66.3556
6.968010 84.316 -66.9407
7.018504 84.290 -67.5005
7.069362 84.260 -68.0337
7.120590 84.226 -68.5396
7.172189 84.191 -69.0165
7.224161 84.155 -69.4623
7.276511 84.119 -69.8742
7.329239 84.086 -70.2501
7.382350 84.055 -70.5893
7.435845 84.028 -70.8935
7.489729 84.005 -71.1666
7.544002 83.987 -71.4148
7.598669 83.977 -71.6443
7.653732 83.974 -71.8610
7.709194 83.979 -72.0695
7.765058 83.994 -72.2739
7.821327 84.017 -72.4794
7.878004 84.049 -72.6926
7.935091 84.089 -72.9218
7.992592 84.138 -73.1749
8.050510 84.194 -73.4584
8.108847 84.257 -73.7761
8.167607 84.327 -74.1302
8.226793 84.403 -74.5220
8.286408 84.483 -74.9525
8.346454 84.567 -75.4228
8.406936 84.653 -75.9335
8.467856 84.740 -76.4842
8.529218 84.829 -77.0724
8.591024 84.917 -77.6942
8.653278 85.005 -78.3443
8.715983 85.092 -79.0175
8.779143 85.177 -79.7092
8.842760 85.260 -80.4152
8.906839 85.341 -81.1312
8.971381 85.419 -81.8517
9.036392 85.495 -82.5704
9.101873 85.569 -83.2811
9.167829 85.641 -83.9788
9.234263 85.711 -84.6595
9.301178 85.780 -85.3203
9.368578 85.848 -85.9578
9.436467 85.915 -86.5690
9.504847 85.983 -87.1511
9.573723 86.051 -87.7025
9.643099 86.121 -88.2226
9.712976 86.192 -88.7121
9.783361 86.266 -89.1719
9.854255 86.342 -89.6036
9.925663 86.421 -90.0085
9.997588 86.503 -90.3888
10.070035 86.588 -90.7469
10.143007 86.676 -91.0862
10.216507 86.767 -91.4099
10.290540 86.861 -91.7207
10.365109 86.958 -92.0211
10.440219 87.057 -92.3131
10.515873 87.158 -92.5988
10.592076 87.260 -92.8801
10.668830 87.363 -93.1583
10.746141 87.467 -93.4342
10.824012 87.571 -93.7081
10.902447 87.674 -93.9799
10.981451 87.778 -94.2496
11.061027 87.880 -94.5170
11.141180 87.981 -94.7815
11.221913 88.081 -95.0426
11.303232 88.179 -95.2998
11.385140 88.276 -95.5527
11.467641 88.371 -95.8009
11.550741 88.465 -96.0445
11.634442 88.557 -96.2833
11.718750 88.647 -96.5177
11.803669 88.735 -96.7478
11.889203 88.821 -96.9739
11.975357 88.906 -97.1964
12.062136 88.988 -97.4159
12.149543 89.068 -97.6325
12.237583 89.146 -97.8464
12.326262 89.221 -98.0576
12.415583 89.294 -98.2660
12.505552 89.364 -98.4714
12.596172 89.432 -98.6735
12.687449 89.497 -98.8718
12.779387 89.559 -99.0659
12.871992 89.619 -99.2555
12.965268 89.677 -99.4405
13.059220 89.733 -99.6211
13.153852 89.787 -99.7976
13.249170 89.840 -99.9710
13.345179 89.891 -100.1424
13.441884 89.941 -100.3137
13.539289 89.991 -100.4869
13.637401 90.039 -100.6643
13.736223 90.087 -100.8482
13.835761 90.135 -101.0413
13.936021 90.181 -101.2458
14.037007 90.226 -101.4637
14.138725 90.270 -101.6962
14.241180 90.313 -101.9441
14.344377 90.353 -102.2075
14.448323 90.391 -102.4856
14.553021 90.426 -102.7768
14.658478 90.458 -103.0788
14.764700 90.487 -103.3888
14.871691 90.514 -103.7038
14.979457 90.538 -104.0203
15.088005 90.560 -104.3354
15.197339 90.580 -104.6464
15.307465 90.600 -104.9516
15.418389 90.619 -105.2499
15.530117 90.640 -105.5414
15.642655 90.662 -105.8276
15.756008 90.686 -106.1110
15.870182 90.713 -106.3950
15.985184 90.744 -106.6838
16.101019 90.778 -106.9822
16.217694 90.816 -107.2946
16.335214 90.858 -107.6252
16.453586 90.902 -107.9772
16.572815 90.948 -108.3528
16.692909 90.995 -108.7525
16.813872 91.043 -109.1753
16.935713 91.091 -109.6189
17.058436 91.138 -110.0794
17.182048 91.184 -110.5519
17.306556 91.228 -111.0307
17.431967 91.271 -111.5098
17.558286 91.312 -111.9834
17.685521 91.352 -112.4461
17.813677 91.391 -112.8937
17.942762 91.431 -113.3229
18.072783 91.471 -113.7322
18.203746 91.514 -114.1212
18.335658 91.558 -114.4914
18.468526 91.605 -114.8452
18.602356 91.655 -115.1860
18.737156 91.709 -115.5177
18.872934 91.764 -115.8444
19.009695 91.823 -116.1698
19.147447 91.883 -116.4967
19.286197 91.944 -116.8273
19.425953 92.005 -117.1624
19.566721 92.066 -117.5019
19.708510 92.125 -117.8445
19.851326 92.183 -118.1880
19.995177 92.239 -118.5297
20.140070 92.292 -118.8668
20.286013 92.343 -119.1964
20.433014 92.391 -119.5159
20.581080 92.437 -119.8236
20.730219 92.481 -120.1187
20.880439 92.524 -120.4013
21.031747 92.566 -120.6726
21.184152 92.607 -120.9347
21.337661 92.647 -121.1904
21.492282 92.687 -121.4426
21.648024 92.725 -121.6946
21.804895 92.763 -121.9489
21.962902 92.800 -122.2074
22.122054 92.835 -122.4709
22.282360 92.868 -122.7391
22.443827 92.899 -123.0109
22.606464 92.928 -123.2841
22.770280 92.955 -123.5565
22.935283 92.980 -123.8261
23.101481 93.004 -124.0915
23.268884 93.027 -124.3529
23.437500 93.051 -124.6119
23.607338 93.077 -124.8717
23.778406 93.104 -125.1370
23.950714 93.133 -125.4131
24.124271 93.164 -125.7052
24.299086 93.196 -126.0176
24.475167 93.228 -126.3528
24.652524 93.260 -126.7106
24.831166 93.290 -127.0884
25.011103 93.318 -127.4811
25.192344 93.344 -127.8818
25.374898 93.367 -128.2831
25.558775 93.389 -128.6774
25.743984 93.409 -129.0593
25.930536 93.429 -129.4253
26.118439 93.451 -129.7751
26.307704 93.475 -130.1112
26.498341 93.501 -130.4382
26.690359 93.531 -130.7622
26.883768 93.564 -131.0890
27.078579 93.598 -131.4232
27.274801 93.634 -131.7669
27.472446 93.669 -132.1199
27.671522 93.703 -132.4793
27.872042 93.735 -132.8403
28.074014 93.765 -133.1974
28.277450 93.793 -133.5455
28.482360 93.820 -133.8809
28.688755 93.845 -134.2020
28.896645 93.871 -134.5096
29.106042 93.896 -134.8064
29.316957 93.922 -135.0963
29.529400 93.948 -135.3835
29.743382 93.974 -135.6717
29.958915 94.000 -135.9628
30.176009 94.024 -136.2573
30.394677 94.047 -136.5542
30.614929 94.069 -136.8514
30.836778 94.089 -137.1470
31.060234 94.107 -137.4394
31.285309 94.126 -137.7287
31.512015 94.144 -138.0164
31.740364 94.163 -138.3052
31.970368 94.183 -138.5987
32.202039 94.203 -138.9002
32.435388 94.224 -139.2121
32.670428 94.244 -139.5349
32.907171 94.263 -139.8673
33.145630 94.281 -140.2063
33.385817 94.298 -140.5474
33.627745 94.313 -140.8862
33.871425 94.329 -141.2189
34.116871 94.344 -141.5432
34.364096 94.360 -141.8593
34.613113 94.378 -142.1693
34.863934 94.397 -142.4770
35.116572 94.418 -142.7872
35.371041 94.441 -143.1039
35.627354 94.463 -143.4296
35.885525 94.485 -143.7641
36.145566 94.505 -144.1044
36.407492 94.523 -144.4456
36.671316 94.538 -144.7815
36.937051 94.552 -145.1069
37.204712 94.564 -145.4184
37.474313 94.575 -145.7157
37.745867 94.587 -146.0017
38.019389 94.599 -146.2814
38.294893 94.613 -146.5602
38.572394 94.626 -146.8426
38.851905 94.640 -147.1309
39.133442 94.653 -147.4251
39.417019 94.665 -147.7237
39.702651 94.676 -148.0250
39.990353 94.687 -148.3278
40.280140 94.698 -148.6327
40.572026 94.710 -148.9409
40.866028 94.721 -149.2540
41.162160 94.732 -149.5724
41.460438 94.744 -149.8957
41.760877 94.755 -150.2220
42.063494 94.765 -150.5488
42.368303 94.776 -150.8743
42.675322 94.786 -151.1971
42.984565 94.797 -151.5168
43.296048 94.808 -151.8337
43.609789 94.819 -152.1481
43.925804 94.831 -152.4600
44.244108 94.842 -152.7695
44.564719 94.853 -153.0765
44.887654 94.864 -153.3810
45.212928 94.875 -153.6829
45.540560 94.885 -153.9821
45.870565 94.894 -154.2781
46.202962 94.903 -154.5704
46.537768 94.911 -154.8586
46.875000 94.918 -155.1431
47.214676 94.925 -155.4249
47.556813 94.933 -155.7057
47.901429 94.941 -155.9874
48.248542 94.948 -156.2722
48.598171 94.956 -156.5614
48.950334 94.964 -156.8559
49.305048 94.972 -157.1560
49.662333 94.979 -157.4607
50.022206 94.985 -157.7689
50.384688 94.992 -158.0790
50.749796 94.997 -158.3894
51.117550 95.003 -158.6990
51.487969 95.008 -159.0070
51.861072 95.012 -159.3131
52.236879 95.017 -159.6174
52.615409 95.021 -159.9198
52.996681 95.025 -160.2198
53.380717 95.029 -160.5172
53.767536 95.032 -160.8116
54.157158 95.035 -161.1030
54.549603 95.038 -161.3920
54.944892 95.041 -161.6797
55.343045 95.044 -161.9678
55.744084 95.046 -162.2576
56.148028 95.049 -162.5496
56.554900 95.050 -162.8432
56.964720 95.052 -163.1369
57.377510 95.052 -163.4288
57.793291 95.053 -163.7176
58.212085 95.053 -164.0034
58.633914 95.054 -164.2871
59.058799 95.055 -164.5701
59.486764 95.056 -164.8531
59.917829 95.057 -165.1367
60.352019 95.058 -165.4210
60.789354 95.058 -165.7061
61.229859 95.059 -165.9927
61.673556 95.059 -166.2811
62.120468 95.058 -166.5712
62.570618 95.057 -166.8623
63.024031 95.055 -167.1532
63.480729 95.052 -167.4433
63.940736 95.050 -167.7323
64.404077 95.047 -168.0205
64.870776 95.044 -168.3088
65.340856 95.042 -168.5980
65.814343 95.040 -168.8888
66.291261 95.038 -169.1812
66.771635 95.036 -169.4745
67.255489 95.034 -169.7677
67.742850 95.031 -170.0597
68.233743 95.029 -170.3499
68.728193 95.026 -170.6380
69.226226 95.023 -170.9242
69.727867 95.021 -171.2093
70.233144 95.018 -171.4937
70.742083 95.014 -171.7782
71.254709 95.011 -172.0628
71.771050 95.007 -172.3476
72.291132 95.003 -172.6323
72.814984 94.999 -172.9169
73.342631 94.995 -173.2015
73.874102 94.991 -173.4864
74.409424 94.987 -173.7720
74.948626 94.983 -174.0588
75.491734 94.978 -174.3473
76.038779 94.974 -174.6374
76.589787 94.968 -174.9284
77.144788 94.962 -175.2194
77.703811 94.956 -175.5098
78.266885 94.949 -175.7992
78.834039 94.941 -176.0878
79.405303 94.933 -176.3759
79.980706 94.925 -176.6640
80.560280 94.917 -176.9529
81.144053 94.908 -177.2428
81.732056 94.900 -177.5336
82.324320 94.891 -177.8255
82.920876 94.883 -178.1181
83.521755 94.874 -178.4113
84.126988 94.865 -178.7045
84.736607 94.857 -178.9969
85.350643 94.848 -179.2880
