* Measurement data measured by REW V5.31.3
* Source: EXCL: Microphone (USB Sound Device        ), MICROPHONE (Master Volume), R, volume: 0.390
* Format: 256k Log Swept Sine, 1 sweep at -1.0 dBFS with no timing reference
* Dated: May 18, 2025 1:25:16 PM
* REW Settings:
*  C-weighting compensation: Off
*  Target level: 75.0 dB
* Note: KZ Krio ANC ON L
* Measurement: L KZ Krio ANC ON
* Smoothing: 1/12 octave
* Frequency Step: 96 ppo
* Start Frequency: 0.36621094 Hz
*
* Freq(Hz) SPL(dB) Phase(degrees)
0.366211 94.732 156.4644
0.368865 94.726 156.4400
0.371538 94.718 156.4035
0.374230 94.707 156.3575
0.376942 94.695 156.3046
0.379673 94.682 156.2463
0.382424 94.668 156.1840
0.385196 94.654 156.1182
0.387987 94.640 156.0493
0.390798 94.626 155.9777
0.393630 94.611 155.9034
0.396483 94.597 155.8263
0.399356 94.582 155.7467
0.402250 94.567 155.6643
0.405165 94.552 155.5792
0.408101 94.537 155.4915
0.411058 94.522 155.4009
0.414037 94.506 155.3076
0.417037 94.491 155.2115
0.420059 94.475 155.1126
0.423103 94.460 155.0109
0.426169 94.444 154.9062
0.429257 94.428 154.7987
0.432368 94.412 154.6883
0.435501 94.396 154.5749
0.438656 94.380 154.4585
0.441835 94.363 154.3391
0.445037 94.347 154.2167
0.448262 94.330 154.0913
0.451510 94.314 153.9628
0.454782 94.297 153.8312
0.458077 94.280 153.6965
0.461397 94.263 153.5586
0.464740 94.246 153.4176
0.468108 94.228 153.2735
0.471500 94.211 153.1261
0.474917 94.193 152.9756
0.478358 94.175 152.8218
0.481825 94.158 152.6648
0.485316 94.140 152.5046
0.488833 94.122 152.3411
0.492375 94.103 152.1743
0.495943 94.085 152.0043
0.499537 94.067 151.8310
0.503157 94.048 151.6544
0.506803 94.029 151.4745
0.510475 94.010 151.2913
0.514175 93.991 151.1048
0.517900 93.972 150.9150
0.521653 93.953 150.7219
0.525434 93.933 150.5256
0.529241 93.914 150.3259
0.533076 93.894 150.1230
0.536939 93.874 149.9169
0.540830 93.854 149.7075
0.544749 93.834 149.4949
0.548696 93.814 149.2791
0.552673 93.793 149.0601
0.556677 93.773 148.8380
0.560711 93.752 148.6128
0.564774 93.731 148.3845
0.568867 93.710 148.1532
0.572989 93.689 147.9189
0.577141 93.667 147.6816
0.581324 93.646 147.4415
0.585536 93.624 147.1985
0.589779 93.602 146.9528
0.594053 93.581 146.7044
0.598358 93.558 146.4533
0.602694 93.536 146.1997
0.607061 93.514 145.9436
0.611460 93.491 145.6851
0.615891 93.468 145.4244
0.620354 93.445 145.1614
0.624849 93.422 144.8964
0.629377 93.399 144.6294
0.633938 93.375 144.3606
0.638532 93.352 144.0900
0.643159 93.328 143.8179
0.647819 93.304 143.5444
0.652514 93.280 143.2695
0.657242 93.256 142.9936
0.662005 93.231 142.7167
0.666802 93.206 142.4390
0.671634 93.182 142.1608
0.676501 93.157 141.8822
0.681403 93.131 141.6034
0.686341 93.106 141.3246
0.691314 93.080 141.0461
0.696324 93.054 140.7681
0.701370 93.028 140.4907
0.706452 93.002 140.2142
0.711571 92.975 139.9386
0.716728 92.947 139.6638
0.721921 92.918 139.3898
0.727153 92.887 139.1158
0.732422 92.855 138.8412
0.737729 92.820 138.5648
0.743075 92.784 138.2856
0.748460 92.746 138.0027
0.753883 92.706 137.7151
0.759346 92.666 137.4225
0.764849 92.624 137.1244
0.770391 92.582 136.8206
0.775974 92.540 136.5109
0.781597 92.497 136.1952
0.787261 92.453 135.8735
0.792966 92.409 135.5456
0.798712 92.364 135.2114
0.804500 92.319 134.8710
0.810329 92.273 134.5242
0.816201 92.227 134.1711
0.822116 92.179 133.8115
0.828073 92.131 133.4455
0.834074 92.083 133.0730
0.840118 92.033 132.6940
0.846206 91.983 132.3085
0.852338 91.932 131.9165
0.858514 91.881 131.5180
0.864735 91.828 131.1129
0.871001 91.774 130.7014
0.877313 91.720 130.2834
0.883670 91.664 129.8591
0.890074 91.607 129.4284
0.896524 91.550 128.9915
0.903020 91.491 128.5484
0.909564 91.431 128.0993
0.916155 91.370 127.6443
0.922794 91.308 127.1835
0.929481 91.244 126.7171
0.936216 91.179 126.2453
0.943000 91.112 125.7684
0.949834 91.045 125.2865
0.956717 90.975 124.8000
0.963649 90.904 124.3091
0.970632 90.832 123.8142
0.977666 90.758 123.3157
0.984750 90.682 122.8140
0.991886 90.604 122.3094
0.999074 90.525 121.8026
1.006314 90.443 121.2940
1.013606 90.360 120.7842
1.020951 90.275 120.2738
1.028349 90.187 119.7635
1.035801 90.097 119.2541
1.043307 90.005 118.7462
1.050867 89.911 118.2407
1.058482 89.815 117.7384
1.066152 89.716 117.2401
1.073878 89.615 116.7465
1.081660 89.512 116.2583
1.089498 89.408 115.7757
1.097393 89.303 115.2987
1.105345 89.198 114.8269
1.113355 89.094 114.3597
1.121423 88.991 113.8963
1.129549 88.890 113.4361
1.137734 88.791 112.9785
1.145979 88.694 112.5228
1.154283 88.599 112.0687
1.162647 88.505 111.6158
1.171072 88.413 111.1636
1.179558 88.321 110.7118
1.188106 88.229 110.2600
1.196715 88.136 109.8078
1.205387 88.043 109.3549
1.214122 87.949 108.9007
1.222920 87.852 108.4449
1.231782 87.752 107.9871
1.240708 87.650 107.5267
1.249699 87.543 107.0634
1.258754 87.432 106.5965
1.267876 87.315 106.1256
1.277063 87.193 105.6503
1.286318 87.063 105.1698
1.295639 86.926 104.6837
1.305027 86.781 104.1913
1.314484 86.626 103.6922
1.324009 86.462 103.1855
1.333604 86.286 102.6708
1.343268 86.099 102.1474
1.353002 85.899 101.6147
1.362806 85.685 101.0719
1.372681 85.457 100.5187
1.382628 85.213 99.9543
1.392647 84.951 99.3783
1.402739 84.672 98.7903
1.412904 84.374 98.1901
1.423142 84.054 97.5776
1.433455 83.712 96.9533
1.443843 83.345 96.3178
1.454305 82.950 95.6726
1.464844 82.523 95.0194
1.475459 82.060 94.3603
1.486150 81.557 93.6973
1.496920 81.010 93.0317
1.507767 80.418 92.3645
1.518693 79.780 91.6956
1.529698 79.096 91.0247
1.540783 78.368 90.3510
1.551948 77.599 89.6733
1.563194 76.790 88.9904
1.574521 75.945 88.3003
1.585931 75.067 87.6010
1.597423 74.160 86.8900
1.608999 73.227 86.1641
1.620658 72.274 85.4198
1.632402 71.304 84.6525
1.644232 70.322 83.8564
1.656146 69.334 83.0246
1.668147 68.345 82.1479
1.680235 67.362 81.2146
1.692411 66.392 80.2088
1.704675 65.442 79.1096
1.717028 64.520 77.8873
1.729470 63.636 76.4999
1.742003 62.800 74.8850
1.754626 62.024 72.9465
1.767341 61.319 70.5277
1.780147 60.700 67.3563
1.793047 60.182 62.9138
1.806040 59.779 56.0937
1.819128 59.506 44.1845
1.832310 59.374 20.1995
1.845587 59.389 -21.9966
1.858961 59.554 -56.8117
1.872432 59.864 -74.2620
1.886001 60.309 -83.6635
1.899667 60.879 -89.6054
1.913433 61.559 -93.8380
1.927299 62.336 -97.1109
1.941265 63.193 -99.7882
1.955332 64.118 -102.0662
1.969501 65.095 -104.0588
1.983773 66.112 -105.8371
1.998148 67.156 -107.4471
2.012627 68.214 -108.9204
2.027212 69.275 -110.2790
2.041902 70.328 -111.5391
2.056698 71.363 -112.7126
2.071602 72.369 -113.8088
2.086614 73.336 -114.8349
2.101734 74.256 -115.7972
2.116964 75.121 -116.7014
2.132304 75.924 -117.5535
2.147756 76.659 -118.3604
2.163320 77.323 -119.1311
2.178996 77.914 -119.8773
2.194786 78.437 -120.6134
2.210690 78.895 -121.3553
2.226710 79.296 -122.1178
2.242845 79.645 -122.9111
2.259098 79.947 -123.7406
2.275468 80.207 -124.6070
2.291957 80.427 -125.5081
2.308566 80.611 -126.4395
2.325295 80.761 -127.3960
2.342145 80.881 -128.3715
2.359117 80.971 -129.3597
2.376212 81.037 -130.3542
2.393431 81.080 -131.3485
2.410775 81.104 -132.3363
2.428244 81.112 -133.3110
2.445840 81.107 -134.2667
2.463564 81.094 -135.1975
2.481416 81.075 -136.0986
2.499397 81.054 -136.9663
2.517509 81.033 -137.7994
2.535752 81.014 -138.5997
2.554127 80.998 -139.3731
2.572635 80.983 -140.1293
2.591277 80.967 -140.8805
2.610055 80.947 -141.6381
2.628968 80.921 -142.4103
2.648019 80.887 -143.2022
2.667208 80.843 -144.0157
2.686535 80.787 -144.8501
2.706003 80.720 -145.7029
2.725612 80.640 -146.5701
2.745363 80.547 -147.4462
2.765257 80.439 -148.3245
2.785295 80.317 -149.1970
2.805478 80.178 -150.0547
2.825808 80.023 -150.8874
2.846285 79.851 -151.6844
2.866910 79.659 -152.4351
2.887685 79.446 -153.1297
2.908611 79.210 -153.7608
2.929688 78.947 -154.3249
2.950917 78.655 -154.8219
2.972301 78.330 -155.2539
2.993839 77.971 -155.6231
3.015534 77.580 -155.9293
3.037386 77.158 -156.1700
3.059396 76.709 -156.3390
3.081565 76.239 -156.4274
3.103896 75.754 -156.4221
3.126388 75.261 -156.3065
3.149043 74.767 -156.0589
3.171862 74.281 -155.6521
3.194847 73.812 -155.0518
3.217998 73.369 -154.2152
3.241317 72.961 -153.0885
3.264805 72.595 -151.6044
3.288463 72.275 -149.6789
3.312293 72.005 -147.2087
3.336295 71.783 -144.0724
3.360471 71.606 -140.1388
3.384822 71.472 -135.2859
3.409350 71.379 -129.4358
3.434056 71.324 -122.6096
3.458940 71.306 -114.9869
3.484005 71.324 -106.9277
3.509252 71.378 -98.9131
3.534681 71.468 -91.4124
3.560295 71.594 -84.7580
3.586094 71.758 -79.1014
3.612081 71.963 -74.4452
3.638255 72.212 -70.7039
3.664620 72.508 -67.7559
3.691175 72.856 -65.4742
3.717923 73.254 -63.7423
3.744864 73.697 -62.4591
3.772001 74.179 -61.5389
3.799335 74.689 -60.9104
3.826866 75.214 -60.5149
3.854597 75.743 -60.3045
3.882529 76.265 -60.2412
3.910664 76.768 -60.2954
3.939002 77.244 -60.4456
3.967546 77.685 -60.6777
3.996296 78.087 -60.9843
4.025255 78.447 -61.3638
4.054423 78.766 -61.8181
4.083804 79.048 -62.3476
4.113396 79.296 -62.9487
4.143204 79.513 -63.6124
4.173227 79.703 -64.3257
4.203468 79.869 -65.0732
4.233928 80.012 -65.8389
4.264609 80.136 -66.6079
4.295512 80.243 -67.3676
4.326639 80.334 -68.1090
4.357992 80.411 -68.8284
4.389572 80.473 -69.5278
4.421380 80.520 -70.2136
4.453419 80.551 -70.8934
4.485691 80.566 -71.5716
4.518196 80.564 -72.2474
4.550936 80.545 -72.9146
4.583914 80.511 -73.5625
4.617131 80.461 -74.1775
4.650589 80.398 -74.7445
4.684289 80.322 -75.2481
4.718233 80.232 -75.6753
4.752424 80.129 -76.0161
4.786862 80.011 -76.2653
4.821549 79.879 -76.4206
4.856488 79.733 -76.4808
4.891680 79.574 -76.4436
4.927127 79.405 -76.3045
4.962831 79.230 -76.0572
4.998794 79.052 -75.6929
5.035017 78.875 -75.2015
5.071503 78.703 -74.5712
5.108253 78.539 -73.7896
5.145270 78.383 -72.8450
5.182555 78.235 -71.7290
5.220110 78.097 -70.4407
5.257937 77.969 -68.9883
5.296038 77.855 -67.3906
5.334415 77.758 -65.6749
5.373071 77.682 -63.8752
5.412006 77.633 -62.0279
5.451224 77.613 -60.1679
5.490725 77.627 -58.3247
5.530514 77.675 -56.5217
5.570590 77.757 -54.7790
5.610957 77.869 -53.1177
5.651616 78.007 -51.5603
5.692570 78.164 -50.1296
5.733821 78.335 -48.8460
5.775370 78.513 -47.7253
5.817221 78.694 -46.7774
5.859375 78.876 -46.0053
5.901834 79.058 -45.4054
5.944602 79.239 -44.9686
5.987679 79.418 -44.6816
6.031068 79.593 -44.5295
6.074771 79.761 -44.4977
6.118792 79.919 -44.5730
6.163131 80.065 -44.7455
6.207792 80.196 -45.0088
6.252776 80.312 -45.3587
6.298086 80.411 -45.7907
6.343725 80.494 -46.2964
6.389694 80.562 -46.8629
6.435996 80.614 -47.4741
6.482634 80.651 -48.1131
6.529610 80.672 -48.7654
6.576926 80.678 -49.4209
6.624585 80.669 -50.0746
6.672590 80.644 -50.7242
6.720942 80.604 -51.3658
6.769645 80.551 -51.9921
6.818700 80.485 -52.5919
6.868111 80.408 -53.1522
6.917881 80.321 -53.6601
6.968010 80.226 -54.1056
7.018504 80.122 -54.4823
7.069362 80.012 -54.7876
7.120590 79.897 -55.0203
7.172189 79.780 -55.1795
7.224161 79.664 -55.2640
7.276511 79.553 -55.2718
7.329239 79.449 -55.2013
7.382350 79.353 -55.0529
7.435845 79.268 -54.8322
7.489729 79.195 -54.5513
7.544002 79.136 -54.2275
7.598669 79.093 -53.8810
7.653732 79.068 -53.5310
7.709194 79.062 -53.1940
7.765058 79.076 -52.8835
7.821327 79.109 -52.6133
7.878004 79.160 -52.3990
7.935091 79.225 -52.2577
7.992592 79.304 -52.2052
8.050510 79.394 -52.2534
8.108847 79.494 -52.4083
8.167607 79.602 -52.6707
8.226793 79.715 -53.0378
8.286408 79.833 -53.5057
8.346454 79.951 -54.0700
8.406936 80.068 -54.7263
8.467856 80.182 -55.4696
8.529218 80.293 -56.2923
8.591024 80.399 -57.1834
8.653278 80.500 -58.1297
8.715983 80.595 -59.1179
8.779143 80.684 -60.1369
8.842760 80.766 -61.1774
8.906839 80.842 -62.2310
8.971381 80.912 -63.2874
9.036392 80.977 -64.3344
9.101873 81.037 -65.3599
9.167829 81.093 -66.3540
9.234263 81.145 -67.3094
9.301178 81.195 -68.2206
9.368578 81.245 -69.0820
9.436467 81.294 -69.8881
9.504847 81.345 -70.6339
9.573723 81.399 -71.3161
9.643099 81.456 -71.9343
9.712976 81.519 -72.4898
9.783361 81.587 -72.9854
9.854255 81.662 -73.4244
9.925663 81.745 -73.8106
9.997588 81.836 -74.1484
10.070035 81.935 -74.4440
10.143007 82.043 -74.7044
10.216507 82.158 -74.9370
10.290540 82.282 -75.1481
10.365109 82.413 -75.3432
10.440219 82.550 -75.5272
10.515873 82.693 -75.7051
10.592076 82.841 -75.8811
10.668830 82.992 -76.0584
10.746141 83.147 -76.2390
10.824012 83.304 -76.4240
10.902447 83.462 -76.6141
10.981451 83.621 -76.8095
11.061027 83.779 -77.0100
11.141180 83.937 -77.2152
11.221913 84.094 -77.4243
11.303232 84.250 -77.6362
11.385140 84.403 -77.8502
11.467641 84.554 -78.0653
11.550741 84.702 -78.2810
11.634442 84.848 -78.4962
11.718750 84.990 -78.7104
11.803669 85.129 -78.9227
11.889203 85.264 -79.1323
11.975357 85.395 -79.3381
12.062136 85.522 -79.5390
12.149543 85.644 -79.7337
12.237583 85.762 -79.9207
12.326262 85.876 -80.0983
12.415583 85.985 -80.2646
12.505552 86.089 -80.4177
12.596172 86.190 -80.5560
12.687449 86.286 -80.6778
12.779387 86.378 -80.7818
12.871992 86.467 -80.8671
12.965268 86.553 -80.9334
13.059220 86.637 -80.9814
13.153852 86.720 -81.0124
13.249170 86.801 -81.0283
13.345179 86.882 -81.0319
13.441884 86.962 -81.0271
13.539289 87.043 -81.0181
13.637401 87.124 -81.0095
13.736223 87.205 -81.0058
13.835761 87.287 -81.0117
13.936021 87.369 -81.0316
14.037007 87.450 -81.0688
14.138725 87.530 -81.1262
14.241180 87.609 -81.2054
14.344377 87.686 -81.3073
14.448323 87.760 -81.4316
14.553021 87.832 -81.5771
14.658478 87.901 -81.7419
14.764700 87.966 -81.9237
14.871691 88.029 -82.1200
14.979457 88.088 -82.3281
15.088005 88.145 -82.5458
15.197339 88.200 -82.7715
15.307465 88.254 -83.0043
15.418389 88.307 -83.2440
15.530117 88.359 -83.4914
15.642655 88.412 -83.7480
15.756008 88.465 -84.0158
15.870182 88.519 -84.2973
15.985184 88.575 -84.5946
16.101019 88.631 -84.9101
16.217694 88.688 -85.2453
16.335214 88.746 -85.6009
16.453586 88.805 -85.9766
16.572815 88.863 -86.3714
16.692909 88.922 -86.7832
16.813872 88.980 -87.2091
16.935713 89.038 -87.6457
17.058436 89.095 -88.0896
17.182048 89.154 -88.5373
17.306556 89.212 -88.9857
17.431967 89.272 -89.4327
17.558286 89.333 -89.8768
17.685521 89.397 -90.3175
17.813677 89.463 -90.7549
17.942762 89.531 -91.1901
18.072783 89.603 -91.6246
18.203746 89.677 -92.0598
18.335658 89.754 -92.4970
18.468526 89.833 -92.9370
18.602356 89.913 -93.3800
18.737156 89.995 -93.8251
18.872934 90.077 -94.2710
19.009695 90.160 -94.7155
19.147447 90.242 -95.1561
19.286197 90.323 -95.5900
19.425953 90.405 -96.0148
19.566721 90.485 -96.4284
19.708510 90.566 -96.8292
19.851326 90.646 -97.2164
19.995177 90.726 -97.5901
20.140070 90.805 -97.9510
20.286013 90.885 -98.3001
20.433014 90.964 -98.6391
20.581080 91.044 -98.9695
20.730219 91.122 -99.2928
20.880439 91.200 -99.6105
21.031747 91.277 -99.9237
21.184152 91.353 -100.2333
21.337661 91.427 -100.5403
21.492282 91.500 -100.8454
21.648024 91.571 -101.1495
21.804895 91.640 -101.4534
21.962902 91.708 -101.7582
22.122054 91.774 -102.0649
22.282360 91.838 -102.3745
22.443827 91.900 -102.6876
22.606464 91.960 -103.0048
22.770280 92.018 -103.3263
22.935283 92.074 -103.6523
23.101481 92.128 -103.9825
23.268884 92.180 -104.3169
23.437500 92.231 -104.6556
23.607338 92.281 -104.9989
23.778406 92.330 -105.3475
23.950714 92.379 -105.7027
24.124271 92.428 -106.0657
24.299086 92.476 -106.4380
24.475167 92.524 -106.8208
24.652524 92.573 -107.2151
24.831166 92.621 -107.6213
25.011103 92.670 -108.0394
25.192344 92.718 -108.4685
25.374898 92.766 -108.9077
25.558775 92.814 -109.3555
25.743984 92.862 -109.8104
25.930536 92.910 -110.2708
26.118439 92.958 -110.7350
26.307704 93.006 -111.2014
26.498341 93.053 -111.6686
26.690359 93.101 -112.1347
26.883768 93.149 -112.5982
27.078579 93.197 -113.0572
27.274801 93.245 -113.5103
27.472446 93.293 -113.9561
27.671522 93.341 -114.3940
27.872042 93.390 -114.8236
28.074014 93.439 -115.2453
28.277450 93.488 -115.6599
28.482360 93.538 -116.0684
28.688755 93.587 -116.4718
28.896645 93.636 -116.8713
29.106042 93.685 -117.2675
29.316957 93.733 -117.6608
29.529400 93.780 -118.0514
29.743382 93.826 -118.4395
29.958915 93.870 -118.8253
30.176009 93.913 -119.2093
30.394677 93.955 -119.5921
30.614929 93.995 -119.9744
30.836778 94.034 -120.3573
31.060234 94.072 -120.7415
31.285309 94.108 -121.1278
31.512015 94.143 -121.5167
31.740364 94.176 -121.9086
31.970368 94.208 -122.3036
32.202039 94.239 -122.7020
32.435388 94.269 -123.1040
32.670428 94.299 -123.5096
32.907171 94.327 -123.9191
33.145630 94.356 -124.3323
33.385817 94.384 -124.7493
33.627745 94.412 -125.1698
33.871425 94.439 -125.5935
34.116871 94.467 -126.0201
34.364096 94.495 -126.4493
34.613113 94.524 -126.8808
34.863934 94.552 -127.3143
35.116572 94.581 -127.7494
35.371041 94.610 -128.1853
35.627354 94.639 -128.6210
35.885525 94.667 -129.0553
36.145566 94.695 -129.4867
36.407492 94.723 -129.9136
36.671316 94.751 -130.3350
36.937051 94.779 -130.7502
37.204712 94.806 -131.1595
37.474313 94.833 -131.5639
37.745867 94.861 -131.9650
38.019389 94.888 -132.3645
38.294893 94.915 -132.7638
38.572394 94.941 -133.1637
38.851905 94.966 -133.5643
39.133442 94.990 -133.9651
39.417019 95.013 -134.3657
39.702651 95.034 -134.7657
39.990353 95.055 -135.1652
40.280140 95.074 -135.5644
40.572026 95.093 -135.9637
40.866028 95.111 -136.3630
41.162160 95.128 -136.7617
41.460438 95.144 -137.1594
41.760877 95.160 -137.5556
42.063494 95.177 -137.9507
42.368303 95.193 -138.3457
42.675322 95.210 -138.7425
42.984565 95.227 -139.1423
43.296048 95.244 -139.5460
43.609789 95.261 -139.9530
43.925804 95.277 -140.3619
44.244108 95.292 -140.7705
44.564719 95.307 -141.1768
44.887654 95.322 -141.5797
45.212928 95.336 -141.9789
45.540560 95.350 -142.3749
45.870565 95.364 -142.7686
46.202962 95.377 -143.1606
46.537768 95.390 -143.5514
46.875000 95.403 -143.9410
47.214676 95.415 -144.3294
47.556813 95.427 -144.7165
47.901429 95.438 -145.1023
48.248542 95.449 -145.4868
48.598171 95.459 -145.8702
48.950334 95.469 -146.2525
49.305048 95.479 -146.6340
49.662333 95.489 -147.0150
50.022206 95.498 -147.3958
50.384688 95.507 -147.7765
50.749796 95.516 -148.1569
51.117550 95.525 -148.5368
51.487969 95.533 -148.9161
51.861072 95.541 -149.2947
52.236879 95.549 -149.6729
52.615409 95.557 -150.0511
52.996681 95.564 -150.4294
53.380717 95.571 -150.8074
53.767536 95.577 -151.1851
54.157158 95.583 -151.5621
54.549603 95.589 -151.9385
54.944892 95.594 -152.3148
55.343045 95.600 -152.6912
55.744084 95.604 -153.0678
56.148028 95.609 -153.4444
56.554900 95.613 -153.8206
56.964720 95.617 -154.1961
57.377510 95.621 -154.5706
57.793291 95.624 -154.9443
58.212085 95.628 -155.3169
58.633914 95.631 -155.6884
59.058799 95.635 -156.0587
59.486764 95.638 -156.4278
59.917829 95.641 -156.7957
60.352019 95.644 -157.1628
60.789354 95.647 -157.5294
61.229859 95.649 -157.8953
61.673556 95.651 -158.2604
62.120468 95.652 -158.6246
62.570618 95.653 -158.9883
63.024031 95.654 -159.3521
63.480729 95.654 -159.7166
63.940736 95.654 -160.0824
64.404077 95.654 -160.4492
64.870776 95.654 -160.8164
65.340856 95.653 -161.1835
65.814343 95.652 -161.5499
66.291261 95.651 -161.9153
66.771635 95.650 -162.2796
67.255489 95.648 -162.6425
67.742850 95.647 -163.0039
68.233743 95.645 -163.3639
68.728193 95.643 -163.7227
69.226226 95.641 -164.0805
69.727867 95.639 -164.4376
70.233144 95.637 -164.7941
70.742083 95.634 -165.1502
71.254709 95.631 -165.5063
71.771050 95.628 -165.8628
72.291132 95.625 -166.2198
72.814984 95.621 -166.5775
73.342631 95.618 -166.9358
73.874102 95.614 -167.2946
74.409424 95.610 -167.6538
74.948626 95.606 -168.0128
75.491734 95.601 -168.3714
76.038779 95.596 -168.7291
76.589787 95.591 -169.0859
77.144788 95.585 -169.4420
77.703811 95.579 -169.7980
78.266885 95.573 -170.1540
78.834039 95.566 -170.5104
79.405303 95.559 -170.8673
79.980706 95.552 -171.2248
80.560280 95.545 -171.5828
81.144053 95.537 -171.9411
81.732056 95.530 -172.2991
82.324320 95.522 -172.6566
82.920876 95.514 -173.0131
83.521755 95.506 -173.3685
84.126988 95.498 -173.7229
84.736607 95.489 -174.0764
85.350643 95.481 -174.4293
85.969129 95.473 -174.7820
86.592097 95.464 -175.1349
