* Measurement data measured by REW V5.30 beta 5
* Source: EXCL: Microphone (Realtek(R) Audio), MICROPHONE (Master Volume), L, volume: 1.000
* Format: 256k Log Swept Sine, 1 sweep at -12.0 dBFS with no timing reference
* Dated: Dec 20, 2023 1:12:12 PM
* REW Settings:
*  C-weighting compensation: Off
*  Target level: 75.0 dB
* Note: 
* Measurement: L Dec 20
* Smoothing: 1/12 octave
* Frequency Step: 96 ppo
* Start Frequency: 0.36621094 Hz
*
* Freq(Hz) SPL(dB) Phase(degrees)
0.366211 89.439 -20.9869
0.368865 89.436 -21.0073
0.371538 89.432 -21.0378
0.374230 89.426 -21.0761
0.376942 89.420 -21.1202
0.379673 89.414 -21.1687
0.382424 89.407 -21.2205
0.385196 89.400 -21.2750
0.387987 89.393 -21.3320
0.390798 89.386 -21.3911
0.393630 89.379 -21.4525
0.396483 89.372 -21.5159
0.399356 89.365 -21.5815
0.402250 89.357 -21.6491
0.405165 89.350 -21.7188
0.408101 89.343 -21.7907
0.411058 89.335 -21.8647
0.414037 89.328 -21.9409
0.417037 89.320 -22.0192
0.420059 89.312 -22.0997
0.423103 89.305 -22.1824
0.426169 89.297 -22.2673
0.429257 89.289 -22.3545
0.432367 89.281 -22.4439
0.435501 89.273 -22.5355
0.438656 89.265 -22.6295
0.441835 89.257 -22.7257
0.445037 89.249 -22.8242
0.448262 89.241 -22.9250
0.451510 89.233 -23.0281
0.454782 89.225 -23.1336
0.458077 89.216 -23.2413
0.461397 89.208 -23.3515
0.464740 89.199 -23.4639
0.468108 89.191 -23.5787
0.471500 89.182 -23.6959
0.474917 89.174 -23.8155
0.478358 89.165 -23.9374
0.481825 89.156 -24.0616
0.485316 89.147 -24.1883
0.488833 89.138 -24.3173
0.492375 89.130 -24.4486
0.495943 89.121 -24.5823
0.499537 89.111 -24.7184
0.503157 89.102 -24.8568
0.506803 89.093 -24.9976
0.510475 89.084 -25.1407
0.514174 89.074 -25.2860
0.517900 89.065 -25.4337
0.521653 89.055 -25.5837
0.525433 89.046 -25.7359
0.529241 89.036 -25.8904
0.533076 89.027 -26.0471
0.536939 89.017 -26.2060
0.540830 89.007 -26.3670
0.544749 88.997 -26.5302
0.548696 88.987 -26.6955
0.552673 88.977 -26.8628
0.556677 88.967 -27.0322
0.560711 88.957 -27.2036
0.564774 88.946 -27.3769
0.568867 88.936 -27.5521
0.572989 88.926 -27.7291
0.577141 88.915 -27.9080
0.581324 88.905 -28.0885
0.585536 88.894 -28.2708
0.589779 88.883 -28.4546
0.594053 88.872 -28.6400
0.598358 88.862 -28.8268
0.602694 88.851 -29.0150
0.607061 88.840 -29.2045
0.611460 88.828 -29.3952
0.615891 88.817 -29.5870
0.620354 88.806 -29.7798
0.624849 88.795 -29.9736
0.629377 88.783 -30.1681
0.633938 88.772 -30.3634
0.638532 88.760 -30.5592
0.643159 88.748 -30.7555
0.647819 88.736 -30.9520
0.652514 88.725 -31.1488
0.657242 88.713 -31.3456
0.662005 88.701 -31.5423
0.666802 88.688 -31.7387
0.671634 88.676 -31.9347
0.676501 88.664 -32.1301
0.681403 88.652 -32.3246
0.686341 88.639 -32.5183
0.691314 88.626 -32.7107
0.696324 88.614 -32.9019
0.701369 88.601 -33.0915
0.706452 88.588 -33.2795
0.711571 88.575 -33.4658
0.716727 88.561 -33.6502
0.721921 88.548 -33.8330
0.727153 88.533 -34.0145
0.732422 88.519 -34.1950
0.737729 88.503 -34.3752
0.743075 88.487 -34.5558
0.748460 88.470 -34.7374
0.753883 88.453 -34.9203
0.759346 88.435 -35.1050
0.764849 88.417 -35.2914
0.770391 88.398 -35.4799
0.775974 88.379 -35.6702
0.781597 88.359 -35.8626
0.787261 88.340 -36.0570
0.792965 88.319 -36.2533
0.798712 88.299 -36.4515
0.804499 88.278 -36.6516
0.810329 88.256 -36.8535
0.816201 88.235 -37.0572
0.822116 88.213 -37.2627
0.828073 88.190 -37.4698
0.834073 88.168 -37.6785
0.840118 88.145 -37.8887
0.846205 88.122 -38.1004
0.852337 88.098 -38.3134
0.858514 88.074 -38.5277
0.864735 88.050 -38.7432
0.871001 88.026 -38.9598
0.877313 88.001 -39.1773
0.883670 87.976 -39.3956
0.890074 87.951 -39.6146
0.896523 87.926 -39.8342
0.903020 87.900 -40.0541
0.909564 87.874 -40.2744
0.916155 87.849 -40.4947
0.922793 87.822 -40.7149
0.929480 87.796 -40.9348
0.936216 87.770 -41.1542
0.943000 87.743 -41.3728
0.949833 87.717 -41.5906
0.956716 87.690 -41.8071
0.963649 87.664 -42.0222
0.970632 87.637 -42.2356
0.977666 87.610 -42.4470
0.984750 87.583 -42.6560
0.991886 87.557 -42.8625
0.999074 87.530 -43.0660
1.006313 87.504 -43.2662
1.013605 87.477 -43.4628
1.020950 87.451 -43.6553
1.028349 87.425 -43.8433
1.035801 87.399 -44.0265
1.043306 87.373 -44.2044
1.050867 87.348 -44.3765
1.058482 87.323 -44.5424
1.066152 87.298 -44.7015
1.073878 87.273 -44.8535
1.081659 87.249 -44.9976
1.089498 87.225 -45.1335
1.097393 87.201 -45.2607
1.105345 87.177 -45.3787
1.113355 87.153 -45.4872
1.121422 87.128 -45.5860
1.129549 87.104 -45.6749
1.137734 87.079 -45.7539
1.145978 87.053 -45.8230
1.154283 87.028 -45.8822
1.162647 87.002 -45.9315
1.171072 86.976 -45.9711
1.179558 86.950 -46.0011
1.188106 86.924 -46.0216
1.196715 86.897 -46.0327
1.205387 86.871 -46.0346
1.214122 86.844 -46.0275
1.222920 86.818 -46.0115
1.231781 86.792 -45.9869
1.240708 86.766 -45.9538
1.249698 86.740 -45.9127
1.258754 86.715 -45.8637
1.267875 86.690 -45.8071
1.277063 86.665 -45.7432
1.286317 86.641 -45.6725
1.295638 86.618 -45.5954
1.305027 86.596 -45.5122
1.314484 86.574 -45.4234
1.324009 86.553 -45.3296
1.333603 86.534 -45.2312
1.343267 86.515 -45.1288
1.353001 86.497 -45.0231
1.362805 86.481 -44.9147
1.372681 86.467 -44.8042
1.382628 86.454 -44.6925
1.392647 86.442 -44.5801
1.402739 86.433 -44.4679
1.412904 86.425 -44.3564
1.423142 86.419 -44.2461
1.433455 86.415 -44.1374
1.443842 86.414 -44.0299
1.454305 86.415 -43.9231
1.464843 86.418 -43.8155
1.475458 86.423 -43.7056
1.486150 86.431 -43.5913
1.496919 86.441 -43.4714
1.507766 86.453 -43.3448
1.518692 86.467 -43.2113
1.529697 86.484 -43.0710
1.540782 86.502 -42.9241
1.551947 86.523 -42.7712
1.563193 86.546 -42.6130
1.574521 86.571 -42.4504
1.585931 86.598 -42.2842
1.597423 86.627 -42.1153
1.608998 86.658 -41.9446
1.620658 86.691 -41.7731
1.632402 86.726 -41.6018
1.644231 86.764 -41.4318
1.656146 86.803 -41.2641
1.668147 86.844 -41.0998
1.680235 86.886 -40.9399
1.692410 86.931 -40.7858
1.704674 86.977 -40.6383
1.717027 87.025 -40.4987
1.729469 87.075 -40.3682
1.742002 87.127 -40.2477
1.754625 87.180 -40.1383
1.767340 87.234 -40.0409
1.780147 87.291 -39.9563
1.793046 87.349 -39.8848
1.806040 87.408 -39.8264
1.819127 87.470 -39.7805
1.832309 87.534 -39.7457
1.845587 87.600 -39.7204
1.858961 87.669 -39.7030
1.872431 87.741 -39.6921
1.886000 87.816 -39.6871
1.899666 87.894 -39.6879
1.913432 87.975 -39.6947
1.927298 88.059 -39.7081
1.941264 88.145 -39.7288
1.955331 88.234 -39.7574
1.969500 88.326 -39.7948
1.983772 88.419 -39.8418
1.998147 88.514 -39.8994
2.012626 88.612 -39.9682
2.027211 88.710 -40.0492
2.041901 88.810 -40.1433
2.056697 88.911 -40.2512
2.071601 89.013 -40.3739
2.086613 89.115 -40.5121
2.101733 89.218 -40.6666
2.116963 89.320 -40.8384
2.132303 89.423 -41.0280
2.147755 89.525 -41.2360
2.163318 89.626 -41.4628
2.178995 89.727 -41.7085
2.194785 89.828 -41.9729
2.210689 89.929 -42.2550
2.226709 90.030 -42.5541
2.242844 90.131 -42.8691
2.259097 90.233 -43.1990
2.275467 90.335 -43.5430
2.291956 90.438 -43.9002
2.308565 90.542 -44.2702
2.325294 90.646 -44.6522
2.342144 90.750 -45.0458
2.359116 90.855 -45.4507
2.376211 90.960 -45.8663
2.393430 91.065 -46.2925
2.410774 91.169 -46.7289
2.428243 91.274 -47.1755
2.445839 91.378 -47.6321
2.463562 91.481 -48.0987
2.481415 91.584 -48.5754
2.499396 91.686 -49.0626
2.517508 91.787 -49.5607
2.535750 91.887 -50.0704
2.554126 91.985 -50.5924
2.572634 92.083 -51.1278
2.591276 92.180 -51.6772
2.610054 92.276 -52.2409
2.628967 92.371 -52.8187
2.648018 92.465 -53.4100
2.667206 92.558 -54.0136
2.686534 92.651 -54.6284
2.706002 92.742 -55.2531
2.725610 92.833 -55.8862
2.745361 92.923 -56.5264
2.765255 93.012 -57.1725
2.785294 93.099 -57.8233
2.805477 93.186 -58.4776
2.825807 93.272 -59.1346
2.846284 93.357 -59.7936
2.866909 93.441 -60.4544
2.887684 93.523 -61.1171
2.908609 93.605 -61.7826
2.929686 93.685 -62.4521
2.950916 93.763 -63.1273
2.972299 93.841 -63.8098
2.993838 93.917 -64.5004
3.015532 93.991 -65.1992
3.037384 94.065 -65.9058
3.059394 94.136 -66.6192
3.081564 94.207 -67.3380
3.103894 94.276 -68.0608
3.126386 94.344 -68.7859
3.149041 94.410 -69.5118
3.171861 94.476 -70.2369
3.194845 94.540 -70.9599
3.217996 94.603 -71.6797
3.241315 94.665 -72.3959
3.264803 94.725 -73.1084
3.288461 94.785 -73.8180
3.312291 94.843 -74.5262
3.336293 94.900 -75.2346
3.360469 94.955 -75.9445
3.384820 95.009 -76.6564
3.409348 95.061 -77.3702
3.434054 95.112 -78.0852
3.458938 95.161 -78.8001
3.484003 95.209 -79.5136
3.509250 95.256 -80.2239
3.534679 95.302 -80.9296
3.560293 95.347 -81.6289
3.586092 95.392 -82.3206
3.612079 95.435 -83.0036
3.638253 95.478 -83.6775
3.664618 95.519 -84.3427
3.691173 95.560 -84.9999
3.717921 95.600 -85.6503
3.744862 95.638 -86.2947
3.771999 95.676 -86.9337
3.799332 95.712 -87.5673
3.826864 95.748 -88.1953
3.854595 95.783 -88.8173
3.882527 95.818 -89.4325
3.910661 95.852 -90.0402
3.938999 95.886 -90.6395
3.967543 95.919 -91.2295
3.996294 95.953 -91.8096
4.025252 95.987 -92.3794
4.054421 96.020 -92.9389
4.083801 96.054 -93.4882
4.113394 96.087 -94.0278
4.143201 96.120 -94.5583
4.173225 96.153 -95.0803
4.203466 96.187 -95.5943
4.233926 96.220 -96.1010
4.264606 96.254 -96.6006
4.295509 96.288 -97.0934
4.326636 96.323 -97.5796
4.357989 96.358 -98.0590
4.389569 96.395 -98.5314
4.421378 96.432 -98.9964
4.453417 96.470 -99.4539
4.485688 96.509 -99.9039
4.518193 96.549 -100.3470
4.550934 96.589 -100.7843
4.583912 96.630 -101.2167
4.617129 96.672 -101.6456
4.650587 96.715 -102.0721
4.684287 96.759 -102.4973
4.718231 96.803 -102.9217
4.752421 96.849 -103.3458
4.786859 96.895 -103.7694
4.821547 96.942 -104.1923
4.856485 96.991 -104.6144
4.891677 97.040 -105.0361
4.927125 97.090 -105.4577
4.962829 97.140 -105.8802
4.998791 97.191 -106.3044
5.035015 97.242 -106.7313
5.071500 97.294 -107.1616
5.108251 97.346 -107.5960
5.145267 97.398 -108.0347
5.182552 97.451 -108.4778
5.220107 97.503 -108.9250
5.257934 97.556 -109.3761
5.296035 97.608 -109.8309
5.334412 97.661 -110.2891
5.373067 97.713 -110.7508
5.412003 97.765 -111.2159
5.451221 97.816 -111.6847
5.490722 97.866 -112.1574
5.530510 97.916 -112.6340
5.570587 97.965 -113.1147
5.610953 98.013 -113.5991
5.651613 98.061 -114.0866
5.692567 98.107 -114.5763
5.733818 98.153 -115.0675
5.775367 98.197 -115.5594
5.817218 98.241 -116.0515
5.859372 98.283 -116.5436
5.901831 98.324 -117.0357
5.944598 98.364 -117.5279
5.987675 98.403 -118.0198
6.031065 98.440 -118.5108
6.074768 98.476 -119.0002
6.118788 98.512 -119.4869
6.163127 98.546 -119.9703
6.207788 98.579 -120.4498
6.252772 98.610 -120.9250
6.298082 98.641 -121.3960
6.343721 98.671 -121.8628
6.389690 98.700 -122.3252
6.435992 98.728 -122.7830
6.482630 98.755 -123.2357
6.529606 98.781 -123.6829
6.576922 98.807 -124.1243
6.624581 98.832 -124.5598
6.672585 98.856 -124.9893
6.720938 98.880 -125.4131
6.769640 98.904 -125.8314
6.818696 98.927 -126.2444
6.868107 98.950 -126.6522
6.917876 98.972 -127.0551
6.968006 98.994 -127.4532
7.018499 99.017 -127.8464
7.069358 99.039 -128.2352
7.120586 99.060 -128.6197
7.172184 99.082 -129.0004
7.224157 99.104 -129.3777
7.276506 99.125 -129.7521
7.329235 99.147 -130.1239
7.382345 99.168 -130.4932
7.435841 99.189 -130.8603
7.489724 99.211 -131.2253
7.543997 99.232 -131.5886
7.598664 99.253 -131.9505
7.653728 99.274 -132.3112
7.709189 99.294 -132.6710
7.765053 99.315 -133.0299
7.821322 99.335 -133.3881
7.877998 99.356 -133.7456
7.935086 99.376 -134.1026
7.992587 99.395 -134.4591
8.050504 99.415 -134.8152
8.108841 99.434 -135.1709
8.167601 99.453 -135.5263
8.226787 99.472 -135.8815
8.286402 99.491 -136.2366
8.346449 99.509 -136.5915
8.406931 99.527 -136.9465
8.467851 99.545 -137.3015
8.529212 99.563 -137.6567
8.591018 99.580 -138.0122
8.653272 99.598 -138.3682
8.715977 99.615 -138.7249
8.779137 99.632 -139.0825
8.842754 99.649 -139.4412
8.906833 99.665 -139.8010
8.971375 99.682 -140.1622
9.036386 99.698 -140.5250
9.101867 99.714 -140.8895
9.167823 99.730 -141.2559
9.234257 99.745 -141.6243
9.301172 99.760 -141.9946
9.368572 99.774 -142.3670
9.436460 99.789 -142.7412
9.504841 99.802 -143.1173
9.573717 99.815 -143.4950
9.643092 99.828 -143.8743
9.712970 99.840 -144.2548
9.783354 99.851 -144.6362
9.854248 99.862 -145.0181
9.925656 99.872 -145.4001
9.997581 99.882 -145.7818
10.070028 99.891 -146.1629
10.143000 99.899 -146.5430
10.216500 99.907 -146.9215
10.290533 99.915 -147.2980
10.365103 99.921 -147.6724
10.440212 99.928 -148.0442
10.515866 99.934 -148.4133
10.592069 99.940 -148.7794
10.668823 99.946 -149.1425
10.746134 99.952 -149.5024
10.824005 99.958 -149.8594
10.902440 99.964 -150.2134
10.981443 99.971 -150.5647
11.061020 99.977 -150.9134
11.141172 99.984 -151.2599
11.221906 99.991 -151.6046
11.303225 99.999 -151.9476
11.385133 100.007 -152.2895
11.467634 100.015 -152.6306
11.550734 100.024 -152.9713
11.634435 100.033 -153.3120
11.718742 100.043 -153.6530
11.803661 100.053 -153.9948
11.889195 100.064 -154.3376
11.975349 100.075 -154.6817
12.062128 100.086 -155.0276
12.149535 100.097 -155.3753
12.237576 100.109 -155.7253
12.326254 100.120 -156.0777
12.415575 100.132 -156.4326
12.505544 100.144 -156.7904
12.596164 100.155 -157.1509
12.687441 100.167 -157.5144
12.779379 100.178 -157.8806
12.871984 100.188 -158.2495
12.965260 100.198 -158.6208
13.059211 100.208 -158.9940
13.153843 100.216 -159.3687
13.249161 100.224 -159.7440
13.345170 100.230 -160.1193
13.441875 100.236 -160.4936
13.539280 100.240 -160.8656
13.637391 100.243 -161.2345
13.736214 100.245 -161.5989
13.835752 100.246 -161.9576
13.936011 100.246 -162.3096
14.036998 100.245 -162.6539
14.138716 100.244 -162.9897
14.241171 100.242 -163.3164
14.344368 100.239 -163.6337
14.448313 100.237 -163.9418
14.553011 100.235 -164.2411
14.658468 100.233 -164.5323
14.764689 100.232 -164.8165
14.871680 100.231 -165.0950
14.979446 100.232 -165.3695
15.087994 100.233 -165.6417
15.197328 100.235 -165.9134
15.307454 100.239 -166.1863
15.418378 100.242 -166.4622
15.530106 100.247 -166.7424
15.642643 100.252 -167.0281
15.755996 100.257 -167.3204
15.870171 100.261 -167.6197
15.985172 100.266 -167.9264
16.101007 100.270 -168.2405
16.217682 100.273 -168.5618
16.335201 100.274 -168.8898
16.453573 100.275 -169.2238
16.572803 100.274 -169.5631
16.692898 100.272 -169.9066
16.813862 100.268 -170.2533
16.935701 100.262 -170.6018
17.058424 100.255 -170.9505
17.182035 100.245 -171.2978
17.306543 100.233 -171.6416
17.431953 100.220 -171.9797
17.558273 100.204 -172.3096
17.685509 100.187 -172.6289
17.813665 100.169 -172.9350
17.942751 100.149 -173.2257
18.072771 100.129 -173.4994
18.203733 100.110 -173.7552
18.335646 100.092 -173.9930
18.468513 100.075 -174.2144
18.602345 100.061 -174.4220
18.737144 100.050 -174.6200
18.872921 100.043 -174.8139
19.009682 100.040 -175.0100
19.147434 100.041 -175.2151
19.286184 100.046 -175.4358
19.425940 100.053 -175.6781
19.566708 100.063 -175.9465
19.708496 100.073 -176.2433
19.851313 100.083 -176.5687
19.995163 100.090 -176.9205
20.140057 100.095 -177.2939
20.285999 100.095 -177.6821
20.433001 100.092 -178.0768
20.581066 100.083 -178.4693
20.730206 100.071 -178.8508
20.880424 100.055 -179.2138
21.031733 100.037 -179.5527
21.184137 100.019 -179.8648
21.337646 100.001 179.8497
21.492268 99.985 179.5871
21.648010 99.973 179.3411
21.804880 99.964 179.1034
21.962887 99.959 178.8645
22.122040 99.957 178.6156
22.282345 99.958 178.3497
22.443811 99.959 178.0624
22.606449 99.960 177.7530
22.770266 99.958 177.4245
22.935268 99.952 177.0832
23.101467 99.942 176.7381
23.268869 99.927 176.3993
23.437485 99.908 176.0769
23.607323 99.886 175.7794
23.778391 99.862 175.5120
23.950699 99.838 175.2764
24.124256 99.816 175.0697
24.299070 99.797 174.8849
24.475151 99.783 174.7123
24.652508 99.772 174.5406
24.831150 99.765 174.3593
25.011087 99.761 174.1597
25.192327 99.758 173.9372
25.374882 99.754 173.6915
25.558758 99.747 173.4262
25.743967 99.738 173.1483
25.930519 99.724 172.8661
26.118422 99.707 172.5882
26.307686 99.688 172.3209
26.498322 99.666 172.0677
26.690340 99.645 171.8282
26.883749 99.623 171.5993
27.078560 99.602 171.3759
27.274782 99.582 171.1528
27.472427 99.561 170.9271
27.671503 99.540 170.6990
27.872023 99.516 170.4726
28.073996 99.490 170.2549
28.277431 99.462 170.0541
28.482342 99.433 169.8770
28.688736 99.406 169.7263
28.896626 99.381 169.5982
29.106022 99.362 169.4824
29.316936 99.350 169.3630
29.529379 99.343 169.2213
29.743361 99.341 169.0403
29.958893 99.341 168.8087
30.175987 99.338 168.5236
30.394655 99.331 168.1919
30.614908 99.316 167.8292
30.836756 99.291 167.4562
31.060211 99.258 167.0949
31.285286 99.219 166.7638
31.511992 99.175 166.4742
31.740341 99.131 166.2288
31.970345 99.089 166.0213
32.202015 99.050 165.8393
32.435364 99.017 165.6682
32.670403 98.987 165.4950
32.907146 98.960 165.3115
33.145607 98.935 165.1152
33.385796 98.910 164.9082
33.627724 98.886 164.6951
33.871403 98.861 164.4804
34.116848 98.837 164.2662
34.364071 98.814 164.0523
34.613087 98.792 163.8362
34.863907 98.772 163.6156
35.116547 98.752 163.3892
35.371017 98.732 163.1584
35.627331 98.712 162.9267
35.885502 98.691 162.6980
36.145542 98.670 162.4753
36.407467 98.650 162.2596
36.671291 98.630 162.0492
36.937027 98.611 161.8409
37.204689 98.592 161.6320
37.474289 98.572 161.4217
37.745842 98.551 161.2125
38.019363 98.528 161.0091
38.294868 98.503 160.8173
38.572369 98.477 160.6411
38.851879 98.451 160.4810
39.133415 98.425 160.3334
39.416992 98.400 160.1916
39.702625 98.376 160.0484
39.990326 98.351 159.8988
40.280113 98.325 159.7421
40.571999 98.296 159.5820
40.866001 98.266 159.4245
41.162132 98.233 159.2750
41.460411 98.200 159.1346
41.760849 98.168 158.9988
42.063465 98.138 158.8582
42.368275 98.109 158.7019
42.675293 98.079 158.5221
42.984535 98.049 158.3181
43.296021 98.014 158.0970
43.609760 97.975 157.8724
43.925774 97.932 157.6595
44.244080 97.887 157.4708
44.564690 97.841 157.3111
44.887623 97.799 157.1772
45.212898 97.761 157.0586
45.540531 97.728 156.9412
45.870537 97.699 156.8113
46.202934 97.673 156.6599
46.537739 97.647 156.4848
46.874969 97.620 156.2926
47.214645 97.590 156.0960
47.556782 97.558 155.9107
47.901398 97.524 155.7485
48.248512 97.491 155.6121
48.598141 97.463 155.4925
48.950302 97.439 155.3719
49.305016 97.418 155.2308
49.662300 97.399 155.0576
50.022175 97.377 154.8540
50.384655 97.349 154.6351
50.749763 97.316 154.4236
51.117516 97.277 154.2411
51.487934 97.237 154.1003
51.861038 97.198 154.0006
52.236843 97.163 153.9280
52.615372 97.134 153.8605
52.996643 97.109 153.7758
53.380680 97.084 153.6607
53.767498 97.058 153.5170
54.157120 97.026 153.3604
54.549564 96.988 153.2128
54.944855 96.948 153.0892
55.343006 96.907 152.9897
55.744045 96.868 152.8994
56.147991 96.833 152.7975
56.554863 96.798 152.6681
56.964684 96.762 152.5049
57.377472 96.723 152.3089
57.793251 96.680 152.0838
58.212044 96.631 151.8376
58.633873 96.575 151.5891
59.058758 96.510 151.3708
59.486721 96.440 151.2211
59.917786 96.371 151.1639
60.351974 96.313 151.1910
60.789310 96.270 151.2607
61.229816 96.244 151.3186
61.673512 96.230 151.3251
62.120422 96.220 151.2722
62.570572 96.209 151.1779
63.023983 96.196 151.0692
63.480682 96.180 150.9660
63.940689 96.164 150.8754
64.404030 96.149 150.7915
64.870728 96.136 150.6953
65.340805 96.123 150.5583
65.814293 96.107 150.3559
66.291214 96.079 150.0876
66.771591 96.035 149.7901
67.255447 95.972 149.5276
67.742805 95.895 149.3631
68.233696 95.815 149.3286
68.728142 95.742 149.4144
69.226173 95.684 149.5775
69.727814 95.645 149.7599
70.233093 95.621 149.9070
70.742035 95.606 149.9861
71.254662 95.593 149.9980
71.771004 95.574 149.9708
72.291084 95.549 149.9346
72.814934 95.518 149.9002
73.342583 95.482 149.8619
73.874054 95.438 149.8179
74.409378 95.387 149.7786
74.948578 95.330 149.7536
75.491684 95.273 149.7348
76.038727 95.220 149.6964
76.589737 95.172 149.6093
77.144737 95.130 149.4530
77.703758 95.093 149.2205
78.266830 95.060 148.9186
78.833984 95.027 148.5689
79.405251 94.994 148.2089
79.980652 94.958 147.8902
80.560226 94.923 147.6692
81.143997 94.894 147.5806
81.732002 94.877 147.6099
82.324265 94.874 147.6974
82.920822 94.877 147.7823
83.521698 94.877 147.8450
84.126930 94.866 147.9042
84.736549 94.843 147.9808
85.350586 94.811 148.0717
