* Measurement data measured by REW V5.30 beta 5
* Source: EXCL: Microphone (Realtek(R) Audio), MICROPHONE (Master Volume), L, volume: 1.000
* Format: 256k Log Swept Sine, 1 sweep at -12.0 dBFS with no timing reference
* Dated: Dec 20, 2023 1:16:02 PM
* REW Settings:
*  C-weighting compensation: Off
*  Target level: 75.0 dB
* Note: 
* Measurement: R Dec 20
* Smoothing: 1/12 octave
* Frequency Step: 96 ppo
* Start Frequency: 0.36621094 Hz
*
* Freq(Hz) SPL(dB) Phase(degrees)
0.366211 95.979 -19.8147
0.368865 95.975 -19.8345
0.371538 95.970 -19.8640
0.374230 95.964 -19.9011
0.376942 95.956 -19.9438
0.379673 95.949 -19.9907
0.382424 95.941 -20.0408
0.385196 95.932 -20.0935
0.387987 95.924 -20.1486
0.390798 95.915 -20.2059
0.393630 95.907 -20.2652
0.396483 95.898 -20.3265
0.399356 95.889 -20.3899
0.402250 95.881 -20.4553
0.405165 95.872 -20.5227
0.408101 95.863 -20.5922
0.411058 95.854 -20.6638
0.414037 95.845 -20.7374
0.417037 95.835 -20.8131
0.420059 95.826 -20.8910
0.423103 95.817 -20.9710
0.426169 95.808 -21.0531
0.429257 95.798 -21.1374
0.432367 95.789 -21.2239
0.435501 95.779 -21.3126
0.438656 95.769 -21.4035
0.441835 95.760 -21.4966
0.445037 95.750 -21.5919
0.448262 95.740 -21.6895
0.451510 95.730 -21.7894
0.454782 95.720 -21.8915
0.458077 95.710 -21.9959
0.461397 95.700 -22.1026
0.464740 95.690 -22.2116
0.468108 95.680 -22.3229
0.471500 95.669 -22.4365
0.474917 95.659 -22.5525
0.478358 95.648 -22.6707
0.481825 95.638 -22.7914
0.485316 95.627 -22.9143
0.488833 95.616 -23.0396
0.492375 95.606 -23.1672
0.495943 95.595 -23.2971
0.499537 95.584 -23.4294
0.503157 95.573 -23.5640
0.506803 95.562 -23.7010
0.510475 95.550 -23.8402
0.514174 95.539 -23.9818
0.517900 95.528 -24.1257
0.521653 95.516 -24.2718
0.525433 95.505 -24.4203
0.529241 95.493 -24.5710
0.533076 95.482 -24.7239
0.536939 95.470 -24.8791
0.540830 95.458 -25.0365
0.544749 95.446 -25.1960
0.548696 95.434 -25.3578
0.552673 95.422 -25.5216
0.556677 95.410 -25.6875
0.560711 95.397 -25.8555
0.564774 95.385 -26.0255
0.568867 95.372 -26.1975
0.572989 95.360 -26.3714
0.577141 95.347 -26.5472
0.581324 95.334 -26.7249
0.585536 95.322 -26.9043
0.589779 95.309 -27.0855
0.594053 95.296 -27.2683
0.598358 95.282 -27.4528
0.602694 95.269 -27.6388
0.607061 95.256 -27.8262
0.611460 95.242 -28.0150
0.615891 95.229 -28.2052
0.620354 95.215 -28.3965
0.624849 95.202 -28.5890
0.629377 95.188 -28.7825
0.633938 95.174 -28.9769
0.638532 95.160 -29.1721
0.643159 95.146 -29.3681
0.647819 95.132 -29.5646
0.652514 95.117 -29.7616
0.657242 95.103 -29.9590
0.662005 95.088 -30.1565
0.666802 95.074 -30.3541
0.671634 95.059 -30.5515
0.676501 95.044 -30.7488
0.681403 95.029 -30.9456
0.686341 95.014 -31.1418
0.691314 94.999 -31.3372
0.696324 94.984 -31.5317
0.701369 94.968 -31.7252
0.706452 94.952 -31.9174
0.711571 94.937 -32.1083
0.716727 94.920 -32.2979
0.721921 94.904 -32.4863
0.727153 94.886 -32.6737
0.732422 94.868 -32.8607
0.737729 94.849 -33.0479
0.743075 94.830 -33.2358
0.748460 94.809 -33.4252
0.753883 94.788 -33.6164
0.759346 94.766 -33.8098
0.764849 94.744 -34.0054
0.770391 94.721 -34.2034
0.775974 94.698 -34.4039
0.781597 94.674 -34.6069
0.787261 94.650 -34.8124
0.792965 94.626 -35.0204
0.798712 94.601 -35.2308
0.804499 94.576 -35.4437
0.810329 94.550 -35.6590
0.816201 94.524 -35.8766
0.822116 94.497 -36.0967
0.828073 94.470 -36.3190
0.834073 94.443 -36.5436
0.840118 94.416 -36.7705
0.846205 94.388 -36.9994
0.852337 94.359 -37.2305
0.858514 94.330 -37.4636
0.864735 94.301 -37.6987
0.871001 94.272 -37.9356
0.877313 94.242 -38.1743
0.883670 94.212 -38.4146
0.890074 94.181 -38.6566
0.896523 94.151 -38.8999
0.903020 94.119 -39.1446
0.909564 94.088 -39.3905
0.916155 94.056 -39.6374
0.922793 94.024 -39.8853
0.929480 93.992 -40.1338
0.936216 93.959 -40.3829
0.943000 93.927 -40.6323
0.949833 93.893 -40.8819
0.956716 93.860 -41.1314
0.963649 93.827 -41.3805
0.970632 93.793 -41.6291
0.977666 93.759 -41.8769
0.984750 93.725 -42.1236
0.991886 93.690 -42.3689
0.999074 93.656 -42.6125
1.006313 93.621 -42.8540
1.013605 93.587 -43.0932
1.020950 93.552 -43.3295
1.028349 93.517 -43.5627
1.035801 93.482 -43.7924
1.043306 93.447 -44.0180
1.050867 93.412 -44.2392
1.058482 93.377 -44.4555
1.066152 93.342 -44.6663
1.073878 93.307 -44.8712
1.081659 93.272 -45.0698
1.089498 93.237 -45.2614
1.097393 93.202 -45.4458
1.105345 93.166 -45.6224
1.113355 93.130 -45.7911
1.121422 93.094 -45.9517
1.129549 93.057 -46.1041
1.137734 93.019 -46.2482
1.145978 92.981 -46.3840
1.154283 92.942 -46.5116
1.162647 92.903 -46.6311
1.171072 92.863 -46.7425
1.179558 92.823 -46.8459
1.188106 92.782 -46.9415
1.196715 92.741 -47.0293
1.205387 92.699 -47.1094
1.214122 92.657 -47.1821
1.222920 92.615 -47.2474
1.231781 92.573 -47.3056
1.240708 92.531 -47.3569
1.249698 92.488 -47.4014
1.258754 92.446 -47.4393
1.267875 92.403 -47.4711
1.277063 92.361 -47.4968
1.286317 92.319 -47.5169
1.295638 92.277 -47.5316
1.305027 92.236 -47.5413
1.314484 92.195 -47.5464
1.324009 92.154 -47.5474
1.333603 92.114 -47.5446
1.343267 92.075 -47.5386
1.353001 92.037 -47.5298
1.362805 91.999 -47.5189
1.372681 91.963 -47.5065
1.382628 91.928 -47.4930
1.392647 91.893 -47.4793
1.402739 91.861 -47.4658
1.412904 91.829 -47.4531
1.423142 91.799 -47.4417
1.433455 91.771 -47.4317
1.443842 91.744 -47.4228
1.454305 91.719 -47.4145
1.464843 91.696 -47.4052
1.475458 91.674 -47.3933
1.486150 91.654 -47.3769
1.496919 91.635 -47.3544
1.507766 91.618 -47.3248
1.518692 91.602 -47.2876
1.529697 91.587 -47.2427
1.540782 91.573 -47.1903
1.551947 91.561 -47.1307
1.563193 91.550 -47.0646
1.574521 91.541 -46.9923
1.585931 91.533 -46.9148
1.597423 91.527 -46.8327
1.608998 91.522 -46.7468
1.620658 91.518 -46.6580
1.632402 91.516 -46.5671
1.644231 91.515 -46.4751
1.656146 91.517 -46.3830
1.668147 91.519 -46.2918
1.680235 91.524 -46.2025
1.692410 91.530 -46.1163
1.704674 91.537 -46.0343
1.717027 91.547 -45.9575
1.729469 91.558 -45.8873
1.742002 91.571 -45.8247
1.754625 91.586 -45.7709
1.767340 91.603 -45.7269
1.780147 91.622 -45.6936
1.793046 91.643 -45.6714
1.806040 91.666 -45.6604
1.819127 91.691 -45.6601
1.832309 91.719 -45.6691
1.845587 91.750 -45.6858
1.858961 91.783 -45.7085
1.872431 91.820 -45.7357
1.886000 91.860 -45.7668
1.899666 91.903 -45.8018
1.913432 91.950 -45.8409
1.927298 91.999 -45.8848
1.941264 92.051 -45.9341
1.955331 92.105 -45.9900
1.969500 92.162 -46.0532
1.983772 92.222 -46.1249
1.998147 92.283 -46.2062
2.012626 92.347 -46.2981
2.027211 92.412 -46.4017
2.041901 92.479 -46.5182
2.056697 92.547 -46.6487
2.071601 92.616 -46.7943
2.086613 92.686 -46.9561
2.101733 92.757 -47.1354
2.116963 92.828 -47.3333
2.132303 92.899 -47.5508
2.147755 92.971 -47.7888
2.163318 93.042 -48.0479
2.178995 93.113 -48.3286
2.194785 93.185 -48.6308
2.210689 93.257 -48.9538
2.226709 93.329 -49.2968
2.242844 93.403 -49.6586
2.259097 93.478 -50.0383
2.275467 93.554 -50.4349
2.291956 93.631 -50.8475
2.308565 93.709 -51.2755
2.325294 93.788 -51.7181
2.342144 93.869 -52.1747
2.359116 93.949 -52.6449
2.376211 94.031 -53.1282
2.393430 94.112 -53.6241
2.410774 94.194 -54.1325
2.428243 94.276 -54.6532
2.445839 94.358 -55.1859
2.463562 94.439 -55.7308
2.481415 94.520 -56.2881
2.499396 94.599 -56.8582
2.517508 94.678 -57.4418
2.535750 94.756 -58.0399
2.554126 94.833 -58.6536
2.572634 94.909 -59.2845
2.591276 94.985 -59.9335
2.610054 95.059 -60.6014
2.628967 95.133 -61.2879
2.648018 95.206 -61.9922
2.667206 95.279 -62.7130
2.686534 95.351 -63.4487
2.706002 95.423 -64.1975
2.725610 95.494 -64.9577
2.745361 95.564 -65.7273
2.765255 95.633 -66.5046
2.785294 95.701 -67.2879
2.805477 95.769 -68.0758
2.825807 95.835 -68.8669
2.846284 95.901 -69.6604
2.866909 95.965 -70.4559
2.887684 96.028 -71.2536
2.908609 96.090 -72.0546
2.929686 96.150 -72.8607
2.950916 96.209 -73.6744
2.972299 96.267 -74.4978
2.993838 96.323 -75.3323
3.015532 96.378 -76.1782
3.037384 96.432 -77.0348
3.059394 96.484 -77.9009
3.081564 96.535 -78.7746
3.103894 96.585 -79.6539
3.126386 96.633 -80.5365
3.149041 96.680 -81.4201
3.171861 96.725 -82.3026
3.194845 96.770 -83.1818
3.217996 96.813 -84.0564
3.241315 96.854 -84.9252
3.264803 96.894 -85.7884
3.288461 96.933 -86.6468
3.312291 96.971 -87.5025
3.336293 97.006 -88.3578
3.360469 97.040 -89.2145
3.384820 97.073 -90.0735
3.409348 97.103 -90.9347
3.434054 97.133 -91.7971
3.458938 97.160 -92.6590
3.484003 97.186 -93.5185
3.509250 97.211 -94.3731
3.534679 97.235 -95.2204
3.560293 97.258 -96.0580
3.586092 97.280 -96.8837
3.612079 97.300 -97.6959
3.638253 97.320 -98.4938
3.664618 97.338 -99.2774
3.691173 97.356 -100.0478
3.717921 97.372 -100.8065
3.744862 97.387 -101.5546
3.771999 97.400 -102.2930
3.799332 97.412 -103.0218
3.826864 97.424 -103.7409
3.854595 97.435 -104.4495
3.882527 97.445 -105.1465
3.910661 97.455 -105.8307
3.938999 97.464 -106.5007
3.967543 97.474 -107.1551
3.996294 97.485 -107.7924
4.025252 97.495 -108.4118
4.054421 97.506 -109.0126
4.083801 97.516 -109.5948
4.113394 97.527 -110.1590
4.143201 97.538 -110.7059
4.173225 97.549 -111.2368
4.203466 97.560 -111.7525
4.233926 97.572 -112.2543
4.264606 97.585 -112.7431
4.295509 97.600 -113.2195
4.326636 97.616 -113.6839
4.357989 97.633 -114.1361
4.389569 97.652 -114.5755
4.421378 97.673 -115.0014
4.453417 97.696 -115.4130
4.485688 97.721 -115.8105
4.518193 97.747 -116.1949
4.550934 97.775 -116.5677
4.583912 97.805 -116.9312
4.617129 97.836 -117.2879
4.650587 97.869 -117.6400
4.684287 97.904 -117.9897
4.718231 97.941 -118.3383
4.752421 97.979 -118.6865
4.786859 98.020 -119.0342
4.821547 98.062 -119.3810
4.856485 98.107 -119.7264
4.891677 98.153 -120.0710
4.927125 98.201 -120.4155
4.962829 98.250 -120.7613
4.998791 98.300 -121.1100
5.035015 98.350 -121.4632
5.071500 98.401 -121.8223
5.108251 98.453 -122.1884
5.145267 98.504 -122.5620
5.182552 98.556 -122.9431
5.220107 98.609 -123.3312
5.257934 98.661 -123.7256
5.296035 98.713 -124.1255
5.334412 98.765 -124.5301
5.373067 98.817 -124.9390
5.412003 98.867 -125.3517
5.451221 98.916 -125.7683
5.490722 98.964 -126.1890
5.530510 99.010 -126.6138
5.570587 99.055 -127.0427
5.610953 99.098 -127.4750
5.651613 99.140 -127.9093
5.692567 99.180 -128.3439
5.733818 99.218 -128.7769
5.775367 99.255 -129.2065
5.817218 99.290 -129.6314
5.859372 99.323 -130.0509
5.901831 99.355 -130.4647
5.944598 99.384 -130.8728
5.987675 99.411 -131.2746
6.031065 99.437 -131.6694
6.074768 99.462 -132.0560
6.118788 99.485 -132.4328
6.163127 99.507 -132.7986
6.207788 99.528 -133.1522
6.252772 99.548 -133.4930
6.298082 99.568 -133.8209
6.343721 99.586 -134.1361
6.389690 99.605 -134.4393
6.435992 99.623 -134.7310
6.482630 99.641 -135.0115
6.529606 99.659 -135.2813
6.576922 99.678 -135.5405
6.624581 99.698 -135.7891
6.672585 99.718 -136.0277
6.720938 99.740 -136.2574
6.769640 99.762 -136.4797
6.818696 99.786 -136.6969
6.868107 99.810 -136.9109
6.917876 99.836 -137.1236
6.968006 99.863 -137.3364
7.018499 99.891 -137.5500
7.069358 99.921 -137.7654
7.120586 99.951 -137.9839
7.172184 99.983 -138.2072
7.224157 100.015 -138.4370
7.276506 100.047 -138.6750
7.329235 100.080 -138.9227
7.382345 100.113 -139.1806
7.435841 100.146 -139.4490
7.489724 100.179 -139.7278
7.543997 100.211 -140.0171
7.598664 100.242 -140.3167
7.653728 100.272 -140.6268
7.709189 100.301 -140.9472
7.765053 100.328 -141.2776
7.821322 100.353 -141.6173
7.877998 100.376 -141.9650
7.935086 100.398 -142.3189
7.992587 100.417 -142.6776
8.050504 100.434 -143.0397
8.108841 100.448 -143.4043
8.167601 100.461 -143.7702
8.226787 100.471 -144.1364
8.286402 100.478 -144.5011
8.346449 100.484 -144.8626
8.406931 100.488 -145.2195
8.467851 100.490 -145.5707
8.529212 100.491 -145.9155
8.591018 100.490 -146.2536
8.653272 100.488 -146.5846
8.715977 100.485 -146.9080
8.779137 100.482 -147.2237
8.842754 100.478 -147.5315
8.906833 100.474 -147.8318
8.971375 100.470 -148.1256
9.036386 100.466 -148.4137
9.101867 100.463 -148.6975
9.167823 100.461 -148.9779
9.234257 100.459 -149.2560
9.301172 100.458 -149.5329
9.368572 100.458 -149.8100
9.436460 100.459 -150.0887
9.504841 100.460 -150.3705
9.573717 100.462 -150.6565
9.643092 100.465 -150.9473
9.712970 100.468 -151.2436
9.783354 100.471 -151.5460
9.854248 100.475 -151.8547
9.925656 100.478 -152.1700
9.997581 100.482 -152.4919
10.070028 100.485 -152.8198
10.143000 100.488 -153.1532
10.216500 100.491 -153.4913
10.290533 100.493 -153.8335
10.365103 100.495 -154.1789
10.440212 100.496 -154.5268
10.515866 100.497 -154.8762
10.592069 100.497 -155.2263
10.668823 100.498 -155.5762
10.746134 100.498 -155.9256
10.824005 100.498 -156.2741
10.902440 100.499 -156.6214
10.981443 100.500 -156.9674
11.061020 100.501 -157.3121
11.141172 100.502 -157.6557
11.221906 100.505 -157.9986
11.303225 100.508 -158.3412
11.385133 100.511 -158.6840
11.467634 100.516 -159.0274
11.550734 100.521 -159.3717
11.634435 100.526 -159.7173
11.718742 100.532 -160.0643
11.803661 100.539 -160.4128
11.889195 100.546 -160.7626
11.975349 100.553 -161.1134
12.062128 100.560 -161.4646
12.149535 100.567 -161.8158
12.237576 100.574 -162.1661
12.326254 100.581 -162.5148
12.415575 100.588 -162.8611
12.505544 100.595 -163.2041
12.596164 100.603 -163.5434
12.687441 100.610 -163.8783
12.779379 100.617 -164.2085
12.871984 100.625 -164.5339
12.965260 100.633 -164.8544
13.059211 100.641 -165.1703
13.153843 100.650 -165.4820
13.249161 100.659 -165.7900
13.345170 100.668 -166.0947
13.441875 100.678 -166.3968
13.539280 100.688 -166.6967
13.637391 100.699 -166.9947
13.736214 100.709 -167.2910
13.835752 100.718 -167.5853
13.936011 100.728 -167.8773
14.036998 100.737 -168.1666
14.138716 100.745 -168.4523
14.241171 100.753 -168.7336
14.344368 100.759 -169.0094
14.448313 100.766 -169.2792
14.553011 100.771 -169.5421
14.658468 100.776 -169.7980
14.764689 100.781 -170.0468
14.871680 100.786 -170.2890
14.979446 100.792 -170.5258
15.087994 100.797 -170.7586
15.197328 100.803 -170.9892
15.307454 100.810 -171.2199
15.418378 100.816 -171.4531
15.530106 100.823 -171.6911
15.642643 100.830 -171.9359
15.755996 100.836 -172.1891
15.870171 100.842 -172.4519
15.985172 100.845 -172.7243
16.101007 100.847 -173.0056
16.217682 100.847 -173.2944
16.335201 100.843 -173.5881
16.453573 100.836 -173.8837
16.572803 100.826 -174.1775
16.692898 100.813 -174.4656
16.813862 100.797 -174.7440
16.935701 100.778 -175.0092
17.058424 100.757 -175.2585
17.182035 100.735 -175.4901
17.306543 100.713 -175.7032
17.431953 100.691 -175.8989
17.558273 100.671 -176.0793
17.685509 100.653 -176.2481
17.813665 100.637 -176.4101
17.942751 100.625 -176.5710
18.072771 100.615 -176.7367
18.203733 100.609 -176.9130
18.335646 100.605 -177.1054
18.468513 100.604 -177.3179
18.602345 100.603 -177.5533
18.737144 100.603 -177.8129
18.872921 100.602 -178.0961
19.009682 100.600 -178.4008
19.147434 100.596 -178.7234
19.286184 100.589 -179.0592
19.425940 100.580 -179.4032
19.566708 100.568 -179.7497
19.708496 100.554 179.9062
19.851313 100.538 179.5691
19.995163 100.521 179.2419
20.140057 100.504 178.9266
20.285999 100.487 178.6234
20.433001 100.471 178.3309
20.581066 100.457 178.0467
20.730206 100.445 177.7672
20.880424 100.436 177.4882
21.031733 100.428 177.2057
21.184137 100.422 176.9163
21.337646 100.418 176.6172
21.492268 100.413 176.3073
21.648010 100.408 175.9870
21.804880 100.401 175.6581
21.962887 100.393 175.3241
22.122040 100.382 174.9895
22.282345 100.368 174.6599
22.443811 100.351 174.3412
22.606449 100.332 174.0390
22.770266 100.311 173.7586
22.935268 100.288 173.5042
23.101467 100.264 173.2784
23.268869 100.241 173.0822
23.437485 100.219 172.9144
23.607323 100.200 172.7717
23.778391 100.185 172.6489
23.950699 100.173 172.5388
24.124256 100.166 172.4329
24.299070 100.162 172.3221
24.475151 100.163 172.1973
24.652508 100.167 172.0506
24.831150 100.172 171.8760
25.011087 100.177 171.6702
25.192327 100.180 171.4330
25.374882 100.181 171.1678
25.558758 100.177 170.8807
25.743967 100.168 170.5806
25.930519 100.154 170.2772
26.118422 100.135 169.9801
26.307686 100.111 169.6972
26.498322 100.085 169.4336
26.690340 100.058 169.1903
26.883749 100.031 168.9645
27.078560 100.005 168.7499
27.274782 99.981 168.5383
27.472427 99.960 168.3213
27.671503 99.938 168.0925
27.872023 99.917 167.8488
28.073996 99.894 167.5919
28.277431 99.868 167.3275
28.482342 99.838 167.0644
28.688736 99.806 166.8125
28.896626 99.771 166.5807
29.106022 99.735 166.3748
29.316936 99.700 166.1962
29.529379 99.668 166.0412
29.743361 99.640 165.9026
29.958893 99.616 165.7711
30.175987 99.596 165.6372
30.394655 99.579 165.4940
30.614908 99.565 165.3372
30.836756 99.553 165.1659
31.060211 99.541 164.9812
31.285286 99.529 164.7851
31.511992 99.517 164.5787
31.740341 99.506 164.3615
31.970345 99.495 164.1321
32.202015 99.483 163.8885
32.435364 99.470 163.6305
32.670403 99.454 163.3601
32.907146 99.434 163.0827
33.145607 99.411 162.8065
33.385796 99.384 162.5406
33.627724 99.354 162.2933
33.871403 99.322 162.0702
34.116848 99.289 161.8721
34.364071 99.258 161.6959
34.613087 99.229 161.5350
34.863907 99.202 161.3813
35.116547 99.178 161.2274
35.371017 99.155 161.0681
35.627331 99.133 160.9008
35.885502 99.110 160.7252
36.145542 99.088 160.5422
36.407467 99.065 160.3528
36.671291 99.041 160.1575
36.937027 99.015 159.9565
37.204689 98.988 159.7503
37.474289 98.960 159.5408
37.745842 98.928 159.3317
38.019363 98.894 159.1284
38.294868 98.857 158.9373
38.572369 98.819 158.7639
38.851879 98.780 158.6111
39.133415 98.742 158.4781
39.416992 98.707 158.3595
39.702625 98.674 158.2467
39.990326 98.645 158.1299
40.280113 98.618 158.0010
40.571999 98.593 157.8556
40.866001 98.569 157.6943
41.162132 98.544 157.5222
41.460411 98.518 157.3461
41.760849 98.493 157.1714
42.063465 98.469 156.9998
42.368275 98.447 156.8283
42.675293 98.428 156.6506
42.984535 98.411 156.4604
43.296021 98.394 156.2550
43.609760 98.377 156.0370
43.925774 98.358 155.8144
44.244080 98.337 155.5975
44.564690 98.313 155.3961
44.887623 98.288 155.2172
45.212898 98.262 155.0643
45.540531 98.236 154.9378
45.870537 98.210 154.8361
46.202934 98.186 154.7552
46.537739 98.163 154.6886
46.874969 98.141 154.6271
47.214645 98.119 154.5621
47.556782 98.096 154.4898
47.901398 98.069 154.4148
48.248512 98.037 154.3492
48.598141 98.002 154.3058
48.950302 97.968 154.2877
49.305016 97.937 154.2806
49.662300 97.912 154.2543
50.022175 97.891 154.1743
50.384655 97.869 154.0190
50.749763 97.840 153.7931
51.117516 97.800 153.5273
51.487934 97.748 153.2660
51.861038 97.687 153.0478
52.236843 97.625 152.8896
52.615372 97.567 152.7827
52.996643 97.517 152.7013
53.380680 97.475 152.6192
53.767498 97.439 152.5222
54.157120 97.405 152.4121
54.549564 97.374 152.2993
54.944855 97.345 152.1928
55.343006 97.320 152.0938
55.744045 97.298 151.9951
56.147991 97.280 151.8882
56.554863 97.262 151.7709
56.964684 97.243 151.6492
57.377472 97.224 151.5329
57.793251 97.206 151.4247
58.212044 97.190 151.3135
58.633873 97.177 151.1768
59.058758 97.164 150.9938
59.486721 97.147 150.7596
59.917786 97.122 150.4904
60.351974 97.087 150.2164
60.789310 97.045 149.9670
61.229816 96.998 149.7593
61.673512 96.952 149.5956
62.120422 96.909 149.4639
62.570572 96.871 149.3417
63.023983 96.837 149.2037
63.480682 96.804 149.0376
63.940689 96.765 148.8584
64.404030 96.717 148.7073
64.870728 96.664 148.6257
65.340805 96.613 148.6223
65.814293 96.567 148.6638
66.291214 96.527 148.7034
66.771591 96.486 148.7228
67.255447 96.439 148.7452
67.742805 96.387 148.8063
68.233696 96.336 148.9152
68.728142 96.291 149.0409
69.226173 96.253 149.1365
69.727814 96.217 149.1704
70.233093 96.181 149.1375
70.742035 96.141 149.0490
71.254662 96.098 148.9203
71.771004 96.050 148.7660
72.291084 96.001 148.6010
72.814934 95.950 148.4396
73.342583 95.901 148.2938
73.874054 95.856 148.1728
74.409378 95.815 148.0828
74.948578 95.781 148.0274
75.491684 95.755 148.0071
76.038727 95.734 148.0209
76.589737 95.720 148.0670
77.144737 95.709 148.1429
77.703758 95.701 148.2433
78.266830 95.695 148.3562
78.833984 95.689 148.4587
79.405251 95.679 148.5201
79.980652 95.660 148.5148
80.560226 95.624 148.4441
81.143997 95.567 148.3443
81.732002 95.489 148.2697
82.324265 95.400 148.2567
82.920822 95.310 148.2966
