* Measurement data measured by REW V5.30.5
* Source: EXCL: Microphone (USB Sound Device        ), no input selected, L, volume: no control
* Format: 256k Log Swept Sine, 1 sweep at -3.0 dBFS with no timing reference
* Dated: Feb 29, 2024 1:00:14 AM
* REW Settings:
*  C-weighting compensation: Off
*  Target level: 75.0 dB
* Note: KZ Symphony 36ohm L
* Measurement: L Feb 29
* Smoothing: 1/12 octave
* Frequency Step: 96 ppo
* Start Frequency: 0.36621094 Hz
*
* Freq(Hz) SPL(dB) Phase(degrees)
0.366211 89.439 156.9739
0.368865 89.432 156.9504
0.371538 89.423 156.9151
0.374230 89.412 156.8708
0.376942 89.399 156.8197
0.379673 89.385 156.7635
0.382424 89.370 156.7033
0.385196 89.355 156.6397
0.387987 89.340 156.5732
0.390798 89.325 156.5040
0.393630 89.310 156.4320
0.396483 89.294 156.3575
0.399356 89.278 156.2804
0.402250 89.262 156.2006
0.405165 89.246 156.1182
0.408101 89.230 156.0332
0.411058 89.214 155.9454
0.414037 89.198 155.8549
0.417037 89.181 155.7618
0.420059 89.165 155.6658
0.423103 89.148 155.5671
0.426169 89.131 155.4655
0.429257 89.114 155.3611
0.432367 89.097 155.2539
0.435501 89.080 155.1437
0.438656 89.063 155.0307
0.441835 89.045 154.9147
0.445037 89.028 154.7957
0.448262 89.010 154.6738
0.451510 88.992 154.5489
0.454782 88.974 154.4209
0.458077 88.956 154.2899
0.461397 88.938 154.1558
0.464740 88.919 154.0187
0.468108 88.901 153.8784
0.471500 88.882 153.7350
0.474917 88.864 153.5885
0.478358 88.845 153.4388
0.481825 88.826 153.2860
0.485316 88.807 153.1300
0.488833 88.787 152.9708
0.492375 88.768 152.8083
0.495943 88.748 152.6427
0.499537 88.729 152.4739
0.503157 88.709 152.3018
0.506803 88.689 152.1265
0.510475 88.669 151.9480
0.514174 88.648 151.7662
0.517900 88.628 151.5812
0.521653 88.607 151.3930
0.525433 88.587 151.2016
0.529241 88.566 151.0069
0.533076 88.545 150.8090
0.536939 88.523 150.6080
0.540830 88.502 150.4037
0.544749 88.481 150.1964
0.548696 88.459 149.9859
0.552673 88.437 149.7722
0.556677 88.415 149.5555
0.560711 88.393 149.3358
0.564774 88.371 149.1130
0.568867 88.348 148.8873
0.572989 88.326 148.6586
0.577141 88.303 148.4271
0.581324 88.280 148.1927
0.585536 88.257 147.9556
0.589779 88.234 147.7157
0.594053 88.210 147.4732
0.598358 88.187 147.2281
0.602694 88.163 146.9806
0.607061 88.139 146.7306
0.611460 88.115 146.4783
0.615891 88.090 146.2238
0.620354 88.066 145.9671
0.624849 88.041 145.7085
0.629377 88.016 145.4479
0.633938 87.991 145.1855
0.638532 87.966 144.9215
0.643159 87.941 144.6560
0.647819 87.915 144.3891
0.652514 87.890 144.1210
0.657242 87.864 143.8519
0.662005 87.837 143.5819
0.666802 87.811 143.3112
0.671634 87.785 143.0400
0.676501 87.758 142.7686
0.681403 87.731 142.4970
0.686341 87.704 142.2256
0.691314 87.677 141.9545
0.696324 87.649 141.6840
0.701369 87.621 141.4144
0.706452 87.593 141.1456
0.711571 87.564 140.8779
0.716727 87.534 140.6112
0.721921 87.503 140.3454
0.727153 87.470 140.0797
0.732422 87.436 139.8136
0.737729 87.399 139.5459
0.743075 87.359 139.2756
0.748460 87.318 139.0015
0.753883 87.276 138.7230
0.759346 87.232 138.4396
0.764849 87.188 138.1508
0.770391 87.143 137.8564
0.775974 87.098 137.5563
0.781597 87.052 137.2502
0.787261 87.006 136.9382
0.792965 86.959 136.6201
0.798712 86.911 136.2958
0.804499 86.863 135.9653
0.810329 86.815 135.6286
0.816201 86.765 135.2855
0.822116 86.715 134.9361
0.828073 86.665 134.5803
0.834073 86.613 134.2180
0.840118 86.561 133.8492
0.846205 86.508 133.4740
0.852337 86.454 133.0922
0.858514 86.399 132.7039
0.864735 86.343 132.3091
0.871001 86.286 131.9078
0.877313 86.229 131.5000
0.883670 86.169 131.0857
0.890074 86.109 130.6651
0.896523 86.048 130.2381
0.903020 85.985 129.8049
0.909564 85.921 129.3656
0.916155 85.855 128.9202
0.922793 85.788 128.4690
0.929480 85.720 128.0120
0.936216 85.650 127.5495
0.943000 85.578 127.0816
0.949833 85.504 126.6087
0.956716 85.429 126.1310
0.963649 85.351 125.6487
0.970632 85.272 125.1622
0.977666 85.190 124.6720
0.984750 85.107 124.1783
0.991886 85.021 123.6816
0.999074 84.933 123.1825
1.006313 84.842 122.6815
1.013605 84.749 122.1791
1.020950 84.653 121.6761
1.028349 84.555 121.1730
1.035801 84.454 120.6708
1.043306 84.349 120.1701
1.050867 84.242 119.6719
1.058482 84.132 119.1769
1.066152 84.018 118.6862
1.073878 83.901 118.2004
1.081659 83.780 117.7202
1.089498 83.656 117.2461
1.097393 83.528 116.7780
1.105345 83.396 116.3158
1.113355 83.260 115.8587
1.121422 83.120 115.4061
1.129549 82.976 114.9574
1.137734 82.827 114.5118
1.145978 82.675 114.0690
1.154283 82.518 113.6284
1.162647 82.357 113.1898
1.171072 82.193 112.7526
1.179558 82.024 112.3166
1.188106 81.851 111.8814
1.196715 81.674 111.4466
1.205387 81.493 111.0117
1.214122 81.308 110.5765
1.222920 81.120 110.1404
1.231781 80.928 109.7030
1.240708 80.732 109.2638
1.249698 80.532 108.8224
1.258754 80.329 108.3782
1.267875 80.122 107.9307
1.277063 79.912 107.4793
1.286317 79.698 107.0234
1.295638 79.481 106.5623
1.305027 79.261 106.0954
1.314484 79.038 105.6220
1.324009 78.812 105.1412
1.333603 78.583 104.6524
1.343267 78.352 104.1546
1.353001 78.118 103.6471
1.362805 77.881 103.1288
1.372681 77.642 102.5991
1.382628 77.401 102.0567
1.392647 77.158 101.5010
1.402739 76.913 100.9311
1.412904 76.665 100.3462
1.423142 76.416 99.7458
1.433455 76.164 99.1299
1.443842 75.909 98.4990
1.454305 75.650 97.8541
1.464843 75.384 97.1971
1.475458 75.111 96.5304
1.486150 74.827 95.8562
1.496919 74.531 95.1762
1.507766 74.221 94.4910
1.518692 73.899 93.8003
1.529697 73.563 93.1031
1.540782 73.215 92.3973
1.551947 72.856 91.6803
1.563193 72.487 90.9482
1.574521 72.109 90.1963
1.585931 71.724 89.4178
1.597423 71.334 88.6041
1.608998 70.941 87.7430
1.620658 70.546 86.8172
1.632402 70.151 85.8016
1.644231 69.760 84.6575
1.656146 69.373 83.3227
1.668147 68.994 81.6899
1.680235 68.626 79.5577
1.692410 68.270 76.4995
1.704674 67.930 71.4380
1.717027 67.609 60.7843
1.729469 67.311 27.0658
1.742002 67.039 -44.1418
1.754625 66.796 -70.6911
1.767340 66.587 -79.7786
1.780147 66.416 -84.3434
1.793046 66.287 -87.2026
1.806040 66.204 -89.2610
1.819127 66.173 -90.8977
1.832309 66.196 -92.3023
1.845587 66.277 -93.5807
1.858961 66.416 -94.7931
1.872431 66.614 -95.9718
1.886000 66.867 -97.1325
1.899666 67.174 -98.2807
1.913432 67.530 -99.4173
1.927298 67.930 -100.5404
1.941264 68.370 -101.6477
1.955331 68.843 -102.7363
1.969500 69.346 -103.8036
1.983772 69.872 -104.8475
1.998147 70.417 -105.8659
2.012626 70.973 -106.8570
2.027211 71.536 -107.8196
2.041901 72.101 -108.7522
2.056697 72.661 -109.6539
2.071601 73.210 -110.5238
2.086613 73.745 -111.3613
2.101733 74.258 -112.1663
2.116963 74.746 -112.9390
2.132303 75.203 -113.6806
2.147755 75.626 -114.3934
2.163318 76.013 -115.0819
2.178995 76.363 -115.7525
2.194785 76.676 -116.4143
2.210689 76.954 -117.0778
2.226709 77.202 -117.7531
2.242844 77.422 -118.4477
2.259097 77.618 -119.1655
2.275467 77.791 -119.9076
2.291956 77.944 -120.6725
2.308565 78.077 -121.4577
2.325294 78.193 -122.2595
2.342144 78.293 -123.0736
2.359116 78.377 -123.8957
2.376211 78.448 -124.7210
2.393430 78.506 -125.5447
2.410774 78.553 -126.3621
2.428243 78.591 -127.1682
2.445839 78.621 -127.9583
2.463562 78.645 -128.7278
2.481415 78.664 -129.4727
2.499396 78.680 -130.1897
2.517508 78.693 -130.8773
2.535750 78.704 -131.5360
2.554126 78.713 -132.1691
2.572634 78.718 -132.7828
2.591276 78.719 -133.3847
2.610054 78.714 -133.9821
2.628967 78.702 -134.5804
2.648018 78.683 -135.1825
2.667206 78.654 -135.7893
2.686534 78.618 -136.4001
2.706002 78.573 -137.0126
2.725610 78.520 -137.6237
2.745361 78.459 -138.2295
2.765255 78.390 -138.8252
2.785294 78.314 -139.4051
2.805477 78.231 -139.9633
2.825807 78.141 -140.4929
2.846284 78.044 -140.9870
2.866909 77.941 -141.4387
2.887684 77.830 -141.8414
2.908609 77.712 -142.1902
2.929686 77.585 -142.4817
2.950916 77.448 -142.7149
2.972299 77.301 -142.8897
2.993838 77.141 -143.0067
3.015532 76.971 -143.0656
3.037384 76.789 -143.0654
3.059394 76.599 -143.0042
3.081564 76.402 -142.8793
3.103894 76.199 -142.6874
3.126386 75.993 -142.4245
3.149041 75.786 -142.0862
3.171861 75.581 -141.6675
3.194845 75.381 -141.1628
3.217996 75.188 -140.5659
3.241315 75.004 -139.8695
3.264803 74.830 -139.0646
3.288461 74.666 -138.1404
3.312291 74.513 -137.0849
3.336293 74.370 -135.8862
3.360469 74.234 -134.5361
3.384820 74.107 -133.0318
3.409348 73.988 -131.3769
3.434054 73.878 -129.5816
3.458938 73.778 -127.6625
3.484003 73.690 -125.6421
3.509250 73.616 -123.5486
3.534679 73.557 -121.4135
3.560293 73.518 -119.2706
3.586092 73.499 -117.1531
3.612079 73.503 -115.0908
3.638253 73.533 -113.1072
3.664618 73.591 -111.2179
3.691173 73.679 -109.4318
3.717921 73.796 -107.7538
3.744862 73.941 -106.1885
3.771999 74.111 -104.7406
3.799332 74.301 -103.4150
3.826864 74.507 -102.2153
3.854595 74.724 -101.1440
3.882527 74.947 -100.2021
3.910661 75.169 -99.3889
3.938999 75.388 -98.7030
3.967543 75.599 -98.1425
3.996294 75.801 -97.7050
4.025252 75.992 -97.3879
4.054421 76.172 -97.1877
4.083801 76.344 -97.0990
4.113394 76.509 -97.1140
4.143201 76.666 -97.2229
4.173225 76.816 -97.4142
4.203466 76.959 -97.6761
4.233926 77.093 -97.9971
4.264606 77.218 -98.3668
4.295509 77.333 -98.7768
4.326636 77.437 -99.2218
4.357989 77.528 -99.6998
4.389569 77.608 -100.2123
4.421378 77.674 -100.7637
4.453417 77.727 -101.3579
4.485688 77.768 -101.9958
4.518193 77.795 -102.6740
4.550934 77.811 -103.3852
4.583912 77.814 -104.1192
4.617129 77.805 -104.8645
4.650587 77.785 -105.6094
4.684287 77.753 -106.3438
4.718231 77.709 -107.0605
4.752421 77.654 -107.7565
4.786859 77.586 -108.4332
4.821547 77.505 -109.0940
4.856485 77.412 -109.7417
4.891677 77.306 -110.3760
4.927125 77.189 -110.9931
4.962829 77.060 -111.5859
4.998791 76.922 -112.1446
5.035015 76.774 -112.6579
5.071500 76.617 -113.1140
5.108251 76.451 -113.5022
5.145267 76.277 -113.8139
5.182552 76.092 -114.0437
5.220107 75.899 -114.1888
5.257934 75.699 -114.2477
5.296035 75.493 -114.2199
5.334412 75.284 -114.1052
5.373067 75.077 -113.9024
5.412003 74.874 -113.6094
5.451221 74.677 -113.2225
5.490722 74.490 -112.7366
5.530510 74.313 -112.1464
5.570587 74.147 -111.4503
5.610953 73.992 -110.6538
5.651613 73.849 -109.7707
5.692567 73.721 -108.8225
5.733818 73.610 -107.8356
5.775367 73.517 -106.8379
5.817218 73.446 -105.8550
5.859372 73.398 -104.9072
5.901831 73.374 -104.0090
5.944598 73.373 -103.1721
5.987675 73.394 -102.4086
6.031065 73.433 -101.7331
6.074768 73.486 -101.1615
6.118788 73.549 -100.7095
6.163127 73.619 -100.3907
6.207788 73.693 -100.2150
6.252772 73.771 -100.1868
6.298082 73.850 -100.3047
6.343721 73.931 -100.5618
6.389690 74.011 -100.9478
6.435992 74.088 -101.4511
6.482630 74.160 -102.0611
6.529606 74.225 -102.7700
6.576922 74.280 -103.5735
6.624581 74.325 -104.4696
6.672585 74.360 -105.4555
6.720938 74.384 -106.5241
6.769640 74.397 -107.6629
6.818696 74.400 -108.8564
6.868107 74.392 -110.0886
6.917876 74.373 -111.3470
6.968006 74.343 -112.6240
7.018499 74.302 -113.9161
7.069358 74.250 -115.2202
7.120586 74.189 -116.5291
7.172184 74.118 -117.8315
7.224157 74.040 -119.1124
7.276506 73.956 -120.3571
7.329235 73.865 -121.5532
7.382345 73.770 -122.6930
7.435841 73.672 -123.7723
7.489724 73.571 -124.7875
7.543997 73.470 -125.7343
7.598664 73.373 -126.6064
7.653728 73.281 -127.3968
7.709189 73.197 -128.0991
7.765053 73.121 -128.7101
7.821322 73.057 -129.2319
7.877998 73.005 -129.6721
7.935086 72.967 -130.0411
7.992587 72.947 -130.3505
8.050504 72.945 -130.6105
8.108841 72.963 -130.8299
8.167601 73.001 -131.0181
8.226787 73.058 -131.1879
8.286402 73.132 -131.3550
8.346449 73.223 -131.5359
8.406931 73.328 -131.7441
8.467851 73.447 -131.9885
8.529212 73.577 -132.2736
8.591018 73.717 -132.6013
8.653272 73.863 -132.9728
8.715977 74.013 -133.3890
8.779137 74.164 -133.8495
8.842754 74.315 -134.3521
8.906833 74.463 -134.8913
8.971375 74.609 -135.4590
9.036386 74.749 -136.0453
9.101867 74.884 -136.6410
9.167823 75.011 -137.2380
9.234257 75.131 -137.8293
9.301172 75.244 -138.4075
9.368572 75.349 -138.9635
9.436460 75.447 -139.4879
9.504841 75.539 -139.9724
9.573717 75.624 -140.4106
9.643092 75.703 -140.7987
9.712970 75.778 -141.1335
9.783354 75.850 -141.4122
9.854248 75.919 -141.6329
9.925656 75.986 -141.7948
9.997581 76.053 -141.8991
10.070028 76.120 -141.9494
10.143000 76.189 -141.9506
10.216500 76.259 -141.9081
10.290533 76.331 -141.8277
10.365103 76.406 -141.7148
10.440212 76.483 -141.5761
10.515866 76.563 -141.4185
10.592069 76.644 -141.2487
10.668823 76.726 -141.0721
10.746134 76.809 -140.8929
10.824005 76.891 -140.7139
10.902440 76.973 -140.5377
10.981443 77.053 -140.3656
11.061020 77.130 -140.1982
11.141172 77.204 -140.0348
11.221906 77.275 -139.8740
11.303225 77.342 -139.7138
11.385133 77.406 -139.5524
11.467634 77.465 -139.3880
11.550734 77.520 -139.2191
11.634435 77.572 -139.0445
11.718742 77.621 -138.8633
11.803661 77.666 -138.6753
11.889195 77.708 -138.4814
11.975349 77.748 -138.2831
12.062128 77.786 -138.0823
12.149535 77.821 -137.8815
12.237576 77.855 -137.6830
12.326254 77.886 -137.4895
12.415575 77.916 -137.3039
12.505544 77.942 -137.1283
12.596164 77.966 -136.9643
12.687441 77.987 -136.8127
12.779379 78.005 -136.6739
12.871984 78.018 -136.5474
12.965260 78.028 -136.4324
13.059211 78.034 -136.3272
13.153843 78.036 -136.2299
13.249161 78.034 -136.1387
13.345170 78.029 -136.0521
13.441875 78.021 -135.9691
13.539280 78.011 -135.8891
13.637391 78.000 -135.8127
13.736214 77.987 -135.7414
13.835752 77.975 -135.6779
13.936011 77.963 -135.6258
14.036998 77.952 -135.5891
14.138716 77.943 -135.5726
14.241171 77.935 -135.5812
14.344368 77.928 -135.6196
14.448313 77.923 -135.6915
14.553011 77.919 -135.7997
14.658468 77.915 -135.9458
14.764689 77.911 -136.1299
14.871680 77.907 -136.3507
14.979446 77.901 -136.6053
15.087994 77.895 -136.8898
15.197328 77.887 -137.1995
15.307454 77.878 -137.5291
15.418378 77.869 -137.8733
15.530106 77.861 -138.2271
15.642643 77.853 -138.5866
15.755996 77.847 -138.9486
15.870171 77.845 -139.3113
15.985172 77.846 -139.6741
16.101007 77.853 -140.0379
16.217682 77.865 -140.4043
16.335201 77.883 -140.7752
16.453573 77.906 -141.1532
16.572803 77.936 -141.5401
16.692898 77.970 -141.9368
16.813862 78.010 -142.3434
16.935701 78.053 -142.7583
17.058424 78.099 -143.1790
17.182035 78.147 -143.6012
17.306543 78.198 -144.0203
17.431953 78.249 -144.4308
17.558273 78.302 -144.8274
17.685509 78.356 -145.2050
17.813665 78.412 -145.5597
17.942751 78.468 -145.8884
18.072771 78.527 -146.1894
18.203733 78.587 -146.4625
18.335646 78.649 -146.7085
18.468513 78.714 -146.9292
18.602345 78.779 -147.1268
18.737144 78.846 -147.3038
18.872921 78.914 -147.4626
19.009682 78.982 -147.6052
19.147434 79.049 -147.7327
19.286184 79.115 -147.8462
19.425940 79.180 -147.9459
19.566708 79.242 -148.0320
19.708496 79.302 -148.1046
19.851313 79.360 -148.1640
19.995163 79.415 -148.2108
20.140057 79.466 -148.2461
20.285999 79.516 -148.2712
20.433001 79.562 -148.2879
20.581066 79.605 -148.2978
20.730206 79.644 -148.3027
20.880424 79.681 -148.3042
21.031733 79.714 -148.3036
21.184137 79.744 -148.3022
21.337646 79.770 -148.3010
21.492268 79.794 -148.3016
21.648010 79.815 -148.3058
21.804880 79.834 -148.3158
21.962887 79.851 -148.3344
22.122040 79.866 -148.3648
22.282345 79.880 -148.4104
22.443811 79.893 -148.4742
22.606449 79.904 -148.5589
22.770266 79.915 -148.6664
22.935268 79.924 -148.7974
23.101467 79.931 -148.9517
23.268869 79.938 -149.1283
23.437485 79.944 -149.3259
23.607323 79.950 -149.5426
23.778391 79.956 -149.7770
23.950699 79.963 -150.0282
24.124256 79.971 -150.2956
24.299070 79.981 -150.5790
24.475151 79.993 -150.8781
24.652508 80.008 -151.1926
24.831150 80.025 -151.5213
25.011087 80.044 -151.8621
25.192327 80.066 -152.2122
25.374882 80.090 -152.5680
25.558758 80.116 -152.9256
25.743967 80.144 -153.2812
25.930519 80.175 -153.6316
26.118422 80.208 -153.9742
26.307686 80.244 -154.3074
26.498322 80.282 -154.6303
26.690340 80.322 -154.9423
26.883749 80.364 -155.2428
27.078560 80.407 -155.5311
27.274782 80.451 -155.8060
27.472427 80.495 -156.0665
27.671503 80.539 -156.3112
27.872023 80.583 -156.5392
28.073996 80.626 -156.7504
28.277431 80.668 -156.9455
28.482342 80.709 -157.1260
28.688736 80.750 -157.2941
28.896626 80.788 -157.4522
29.106022 80.826 -157.6031
29.316936 80.861 -157.7492
29.529379 80.895 -157.8927
29.743361 80.926 -158.0356
29.958893 80.954 -158.1800
30.175987 80.981 -158.3278
30.394655 81.005 -158.4811
30.614908 81.028 -158.6418
30.836756 81.048 -158.8119
31.060211 81.066 -158.9929
31.285286 81.083 -159.1862
31.511992 81.099 -159.3927
31.740341 81.113 -159.6131
31.970345 81.127 -159.8483
32.202015 81.140 -160.0986
32.435364 81.153 -160.3643
32.670403 81.166 -160.6452
32.907146 81.179 -160.9401
33.145607 81.193 -161.2475
33.385796 81.207 -161.5649
33.627724 81.222 -161.8895
33.871403 81.238 -162.2185
34.116848 81.256 -162.5495
34.364071 81.275 -162.8805
34.613087 81.295 -163.2106
34.863907 81.318 -163.5392
35.116547 81.342 -163.8657
35.371017 81.367 -164.1899
35.627331 81.394 -164.5114
35.885502 81.421 -164.8296
36.145542 81.449 -165.1437
36.407467 81.476 -165.4530
36.671291 81.503 -165.7566
36.937027 81.528 -166.0533
37.204689 81.552 -166.3419
37.474289 81.575 -166.6212
37.745842 81.596 -166.8907
38.019363 81.616 -167.1503
38.294868 81.634 -167.4011
38.572369 81.652 -167.6451
38.851879 81.669 -167.8850
39.133415 81.686 -168.1239
39.416992 81.701 -168.3646
39.702625 81.717 -168.6099
39.990326 81.732 -168.8618
40.280113 81.746 -169.1223
40.571999 81.760 -169.3924
40.866001 81.772 -169.6722
41.162132 81.784 -169.9602
41.460411 81.795 -170.2537
41.760849 81.806 -170.5490
42.063465 81.816 -170.8433
42.368275 81.826 -171.1353
42.675293 81.839 -171.4271
42.984535 81.853 -171.7238
43.296021 81.870 -172.0316
43.609760 81.887 -172.3562
43.925774 81.904 -172.6998
44.244080 81.920 -173.0600
44.564690 81.933 -173.4301
44.887623 81.942 -173.8010
45.212898 81.949 -174.1640
45.540531 81.953 -174.5131
45.870537 81.957 -174.8462
46.202934 81.961 -175.1652
46.537739 81.965 -175.4743
46.874969 81.971 -175.7790
47.214645 81.978 -176.0841
47.556782 81.985 -176.3931
47.901398 81.992 -176.7077
48.248512 81.999 -177.0271
48.598141 82.005 -177.3492
48.950302 82.010 -177.6710
49.305016 82.015 -177.9908
49.662300 82.020 -178.3086
50.022175 82.025 -178.6264
50.384655 82.030 -178.9463
50.749763 82.034 -179.2683
51.117516 82.038 -179.5903
51.487934 82.041 -179.9096
51.861038 82.043 179.7747
52.236843 82.046 179.4596
52.615372 82.049 179.1389
52.996643 82.053 178.8070
53.380680 82.055 178.4629
53.767498 82.055 178.1107
54.157120 82.053 177.7571
54.549564 82.050 177.4074
54.944855 82.047 177.0628
55.343006 82.044 176.7216
55.744045 82.040 176.3825
56.147991 82.037 176.0468
56.554863 82.035 175.7184
56.964684 82.033 175.4001
57.377472 82.032 175.0917
57.793251 82.033 174.7889
58.212044 82.036 174.4864
58.633873 82.040 174.1804
59.058758 82.044 173.8699
59.486721 82.047 173.5560
59.917786 82.049 173.2402
60.351974 82.049 172.9238
60.789310 82.048 172.6073
61.229816 82.046 172.2908
61.673512 82.044 171.9728
62.120422 82.041 171.6495
62.570572 82.039 171.3144
63.023983 82.037 170.9605
63.480682 82.034 170.5836
63.940689 82.030 170.1851
64.404030 82.024 169.7725
64.870728 82.015 169.3571
65.340805 82.004 168.9485
65.814293 81.993 168.5514
66.291214 81.983 168.1643
66.771591 81.974 167.7820
67.255447 81.966 167.4000
67.742805 81.958 167.0169
68.233696 81.949 166.6357
68.728142 81.938 166.2610
69.226173 81.925 165.8955
69.727814 81.913 165.5377
70.233093 81.900 165.1822
70.742035 81.887 164.8230
71.254662 81.872 164.4572
71.771004 81.856 164.0868
72.291084 81.839 163.7162
72.814934 81.821 163.3488
73.342583 81.802 162.9849
73.874054 81.784 162.6222
74.409378 81.766 162.2587
74.948578 81.747 161.8937
75.491684 81.729 161.5285
76.038727 81.710 161.1647
76.589737 81.691 160.8031
77.144737 81.671 160.4424
77.703758 81.652 160.0798
78.266830 81.634 159.7115
78.833984 81.615 159.3345
79.405251 81.597 158.9466
79.980652 81.578 158.5468
80.560226 81.559 158.1348
81.143997 81.539 157.7122
81.732002 81.518 157.2820
82.324265 81.495 156.8475
82.920822 81.471 156.4115
