* Measurement data measured by REW V5.31
* Source: EXCL: Microphone (USB Sound Device        ), MICROPHONE (Master Volume), R, volume: 0.390
* Format: 256k Log Swept Sine, 1 sweep at -15.0 dBFS with no timing reference
* Dated: Dec 9, 2024 1:19:00 PM
* REW Settings:
*  C-weighting compensation: Off
*  Target level: 75.0 dB
* Note: 
* Measurement: L KZ Sonata 1000
* Smoothing: 1/12 octave
* Frequency Step: 96 ppo
* Start Frequency: 0.36621094 Hz
*
* Freq(Hz) SPL(dB) Phase(degrees)
0.366211 95.045 158.9871
0.368865 95.037 158.9673
0.371538 95.025 158.9376
0.374230 95.010 158.9001
0.376942 94.994 158.8568
0.379673 94.976 158.8091
0.382424 94.957 158.7578
0.385196 94.938 158.7036
0.387987 94.918 158.6467
0.390798 94.899 158.5874
0.393630 94.879 158.5257
0.396483 94.858 158.4615
0.399356 94.838 158.3950
0.402250 94.818 158.3261
0.405165 94.797 158.2549
0.408101 94.776 158.1812
0.411058 94.755 158.1050
0.414037 94.734 158.0264
0.417037 94.713 157.9453
0.420059 94.692 157.8617
0.423103 94.670 157.7755
0.426169 94.649 157.6868
0.429257 94.627 157.5955
0.432368 94.605 157.5016
0.435501 94.583 157.4050
0.438656 94.560 157.3058
0.441835 94.538 157.2040
0.445037 94.515 157.0994
0.448262 94.492 156.9921
0.451510 94.469 156.8821
0.454782 94.446 156.7693
0.458077 94.423 156.6538
0.461397 94.399 156.5354
0.464740 94.376 156.4143
0.468108 94.352 156.2903
0.471500 94.328 156.1635
0.474917 94.304 156.0338
0.478358 94.280 155.9012
0.481825 94.255 155.7657
0.485316 94.230 155.6274
0.488833 94.206 155.4861
0.492375 94.180 155.3419
0.495943 94.155 155.1948
0.499537 94.130 155.0447
0.503157 94.104 154.8917
0.506803 94.078 154.7358
0.510475 94.053 154.5769
0.514175 94.026 154.4150
0.517900 94.000 154.2502
0.521653 93.973 154.0825
0.525434 93.947 153.9118
0.529241 93.920 153.7382
0.533076 93.893 153.5616
0.536939 93.865 153.3822
0.540830 93.838 153.1999
0.544749 93.810 153.0147
0.548696 93.782 152.8267
0.552673 93.754 152.6358
0.556677 93.726 152.4421
0.560711 93.697 152.2457
0.564774 93.669 152.0466
0.568867 93.640 151.8447
0.572989 93.611 151.6403
0.577141 93.581 151.4332
0.581324 93.552 151.2236
0.585536 93.522 151.0115
0.589779 93.492 150.7970
0.594053 93.462 150.5802
0.598358 93.431 150.3611
0.602694 93.401 150.1398
0.607061 93.370 149.9164
0.611460 93.339 149.6909
0.615891 93.307 149.4636
0.620354 93.276 149.2345
0.624849 93.244 149.0037
0.629377 93.212 148.7713
0.633938 93.180 148.5375
0.638532 93.147 148.3024
0.643159 93.115 148.0661
0.647819 93.082 147.8289
0.652514 93.048 147.5909
0.657242 93.015 147.3522
0.662005 92.981 147.1131
0.666802 92.947 146.8738
0.671634 92.913 146.6345
0.676501 92.879 146.3954
0.681403 92.844 146.1567
0.686341 92.809 145.9187
0.691314 92.774 145.6817
0.696324 92.738 145.4459
0.701370 92.702 145.2116
0.706452 92.666 144.9789
0.711571 92.628 144.7480
0.716728 92.590 144.5189
0.721921 92.550 144.2914
0.727153 92.508 144.0651
0.732422 92.463 143.8391
0.737729 92.416 143.6124
0.743075 92.366 143.3839
0.748460 92.315 143.1524
0.753883 92.265 142.9174
0.759346 92.214 142.6781
0.764849 92.165 142.4343
0.770391 92.117 142.1856
0.775974 92.070 141.9318
0.781597 92.024 141.6729
0.787261 91.980 141.4087
0.792966 91.936 141.1391
0.798712 91.894 140.8641
0.804500 91.852 140.5835
0.810329 91.811 140.2972
0.816201 91.770 140.0052
0.822116 91.729 139.7075
0.828073 91.688 139.4039
0.834074 91.647 139.0944
0.840118 91.606 138.7790
0.846206 91.564 138.4575
0.852338 91.521 138.1300
0.858514 91.477 137.7963
0.864735 91.431 137.4566
0.871001 91.384 137.1107
0.877313 91.335 136.7586
0.883670 91.283 136.4003
0.890074 91.229 136.0359
0.896524 91.172 135.6654
0.903020 91.112 135.2888
0.909564 91.049 134.9062
0.916155 90.981 134.5176
0.922794 90.909 134.1232
0.929481 90.833 133.7231
0.936216 90.751 133.3174
0.943000 90.664 132.9064
0.949834 90.572 132.4902
0.956717 90.473 132.0691
0.963649 90.367 131.6434
0.970632 90.254 131.2135
0.977666 90.134 130.7797
0.984750 90.006 130.3425
0.991886 89.868 129.9025
0.999074 89.722 129.4600
1.006314 89.566 129.0159
1.013606 89.400 128.5709
1.020951 89.223 128.1257
1.028349 89.035 127.6812
1.035801 88.835 127.2385
1.043307 88.622 126.7987
1.050867 88.396 126.3630
1.058482 88.155 125.9327
1.066152 87.900 125.5092
1.073878 87.628 125.0938
1.081660 87.339 124.6878
1.089498 87.029 124.2924
1.097393 86.698 123.9083
1.105345 86.341 123.5360
1.113355 85.955 123.1756
1.121423 85.539 122.8271
1.129549 85.089 122.4905
1.137734 84.606 122.1659
1.145979 84.089 121.8534
1.154283 83.539 121.5536
1.162647 82.955 121.2667
1.171072 82.341 120.9935
1.179558 81.696 120.7345
1.188106 81.023 120.4907
1.196715 80.322 120.2630
1.205387 79.596 120.0527
1.214122 78.847 119.8611
1.222920 78.077 119.6900
1.231782 77.287 119.5412
1.240708 76.480 119.4172
1.249699 75.658 119.3209
1.258754 74.825 119.2557
1.267876 73.982 119.2259
1.277063 73.132 119.2367
1.286318 72.279 119.2945
1.295639 71.426 119.4075
1.305027 70.576 119.5861
1.314484 69.733 119.8435
1.324009 68.900 120.1970
1.333604 68.084 120.6697
1.343268 67.286 121.2928
1.353002 66.514 122.1095
1.362806 65.772 123.1815
1.372681 65.065 124.5991
1.382628 64.401 126.4996
1.392647 63.785 129.1002
1.402739 63.226 132.7610
1.412904 62.730 138.1064
1.423142 62.307 146.2522
1.433455 61.964 159.0974
1.443843 61.711 178.7987
1.454305 61.554 -156.2932
1.464844 61.502 -134.0739
1.475459 61.557 -118.9252
1.486150 61.722 -109.3954
1.496920 61.995 -103.3048
1.507767 62.373 -99.2678
1.518693 62.851 -96.5037
1.529698 63.422 -94.5671
1.540783 64.080 -93.1923
1.551948 64.817 -92.2132
1.563194 65.624 -91.5215
1.574521 66.495 -91.0443
1.585931 67.421 -90.7302
1.597423 68.394 -90.5428
1.608999 69.406 -90.4552
1.620658 70.449 -90.4471
1.632402 71.515 -90.5034
1.644232 72.596 -90.6119
1.656146 73.686 -90.7633
1.668147 74.775 -90.9503
1.680235 75.857 -91.1668
1.692411 76.925 -91.4081
1.704675 77.972 -91.6701
1.717028 78.990 -91.9496
1.729470 79.973 -92.2442
1.742003 80.914 -92.5515
1.754626 81.807 -92.8702
1.767341 82.648 -93.1992
1.780147 83.431 -93.5381
1.793047 84.153 -93.8873
1.806040 84.813 -94.2480
1.819128 85.412 -94.6228
1.832310 85.952 -95.0148
1.845587 86.439 -95.4274
1.858961 86.878 -95.8635
1.872432 87.273 -96.3242
1.886001 87.629 -96.8093
1.899667 87.948 -97.3172
1.913433 88.233 -97.8456
1.927299 88.486 -98.3918
1.941265 88.710 -98.9530
1.955332 88.905 -99.5263
1.969501 89.074 -100.1090
1.983773 89.219 -100.6984
1.998148 89.344 -101.2920
2.012627 89.449 -101.8875
2.027212 89.537 -102.4825
2.041902 89.612 -103.0750
2.056698 89.677 -103.6631
2.071602 89.733 -104.2449
2.086614 89.785 -104.8186
2.101734 89.835 -105.3829
2.116964 89.887 -105.9366
2.132304 89.944 -106.4789
2.147756 90.008 -107.0099
2.163320 90.080 -107.5303
2.178996 90.162 -108.0425
2.194786 90.251 -108.5499
2.210690 90.346 -109.0569
2.226710 90.443 -109.5679
2.242845 90.539 -110.0865
2.259098 90.633 -110.6146
2.275468 90.722 -111.1529
2.291957 90.806 -111.7007
2.308566 90.885 -112.2570
2.325295 90.958 -112.8201
2.342145 91.027 -113.3879
2.359117 91.090 -113.9584
2.376212 91.148 -114.5291
2.393431 91.202 -115.0977
2.410775 91.252 -115.6617
2.428244 91.299 -116.2185
2.445840 91.342 -116.7657
2.463564 91.382 -117.3006
2.481416 91.419 -117.8212
2.499397 91.454 -118.3254
2.517509 91.487 -118.8121
2.535752 91.518 -119.2811
2.554127 91.547 -119.7334
2.572635 91.573 -120.1713
2.591277 91.595 -120.5981
2.610055 91.614 -121.0165
2.628968 91.628 -121.4290
2.648019 91.639 -121.8367
2.667208 91.645 -122.2400
2.686535 91.647 -122.6385
2.706003 91.645 -123.0312
2.725612 91.640 -123.4171
2.745363 91.631 -123.7945
2.765257 91.620 -124.1615
2.785295 91.606 -124.5160
2.805478 91.590 -124.8560
2.825808 91.572 -125.1788
2.846285 91.553 -125.4823
2.866910 91.533 -125.7639
2.887685 91.511 -126.0215
2.908611 91.488 -126.2533
2.929688 91.464 -126.4583
2.950917 91.437 -126.6360
2.972301 91.409 -126.7865
2.993839 91.378 -126.9104
3.015534 91.344 -127.0084
3.037386 91.307 -127.0811
3.059396 91.269 -127.1293
3.081565 91.229 -127.1537
3.103896 91.188 -127.1548
3.126388 91.147 -127.1335
3.149043 91.106 -127.0904
3.171862 91.065 -127.0259
3.194847 91.027 -126.9405
3.217998 90.991 -126.8344
3.241317 90.957 -126.7072
3.264805 90.927 -126.5579
3.288463 90.900 -126.3847
3.312293 90.876 -126.1853
3.336295 90.854 -125.9574
3.360471 90.836 -125.7000
3.384822 90.820 -125.4136
3.409350 90.807 -125.1001
3.434056 90.797 -124.7627
3.458940 90.789 -124.4057
3.484005 90.784 -124.0340
3.509252 90.782 -123.6528
3.534681 90.784 -123.2677
3.560295 90.790 -122.8840
3.586094 90.800 -122.5064
3.612081 90.815 -122.1385
3.638255 90.834 -121.7827
3.664620 90.859 -121.4391
3.691175 90.889 -121.1070
3.717923 90.925 -120.7850
3.744864 90.967 -120.4727
3.772001 91.013 -120.1709
3.799335 91.064 -119.8816
3.826866 91.119 -119.6078
3.854597 91.176 -119.3527
3.882529 91.237 -119.1200
3.910664 91.298 -118.9131
3.939002 91.361 -118.7356
3.967546 91.425 -118.5901
3.996296 91.488 -118.4789
4.025255 91.552 -118.4033
4.054423 91.615 -118.3634
4.083804 91.680 -118.3584
4.113396 91.745 -118.3870
4.143204 91.811 -118.4473
4.173227 91.876 -118.5374
4.203468 91.941 -118.6553
4.233928 92.006 -118.7991
4.264609 92.068 -118.9672
4.295512 92.128 -119.1584
4.326639 92.185 -119.3722
4.357992 92.239 -119.6088
4.389572 92.289 -119.8690
4.421380 92.335 -120.1540
4.453419 92.377 -120.4646
4.485691 92.416 -120.8002
4.518196 92.451 -121.1589
4.550936 92.482 -121.5372
4.583914 92.510 -121.9312
4.617131 92.534 -122.3362
4.650589 92.554 -122.7482
4.684289 92.569 -123.1633
4.718233 92.581 -123.5793
4.752424 92.588 -123.9954
4.786862 92.590 -124.4121
4.821549 92.588 -124.8306
4.856488 92.581 -125.2513
4.891680 92.569 -125.6732
4.927127 92.554 -126.0942
4.962831 92.534 -126.5108
4.998794 92.512 -126.9190
5.035017 92.486 -127.3145
5.071503 92.457 -127.6937
5.108253 92.426 -128.0536
5.145270 92.392 -128.3928
5.182555 92.355 -128.7109
5.220110 92.316 -129.0081
5.257937 92.274 -129.2850
5.296038 92.230 -129.5417
5.334415 92.186 -129.7782
5.373071 92.141 -129.9937
5.412006 92.097 -130.1873
5.451224 92.054 -130.3575
5.490725 92.013 -130.5030
5.530514 91.973 -130.6226
5.570590 91.936 -130.7163
5.610957 91.901 -130.7856
5.651616 91.868 -130.8334
5.692570 91.838 -130.8636
5.733821 91.811 -130.8809
5.775370 91.789 -130.8894
5.817221 91.772 -130.8925
5.859375 91.759 -130.8922
5.901834 91.752 -130.8897
5.944602 91.751 -130.8863
5.987679 91.754 -130.8843
6.031068 91.763 -130.8874
6.074771 91.776 -130.9006
6.118792 91.793 -130.9293
6.163131 91.814 -130.9782
6.207792 91.839 -131.0512
6.252776 91.867 -131.1506
6.298086 91.899 -131.2770
6.343725 91.935 -131.4306
6.389694 91.972 -131.6113
6.435996 92.012 -131.8194
6.482634 92.052 -132.0552
6.529610 92.093 -132.3196
6.576926 92.134 -132.6132
6.624585 92.174 -132.9362
6.672590 92.213 -133.2878
6.720942 92.251 -133.6661
6.769645 92.288 -134.0678
6.818700 92.323 -134.4890
6.868111 92.355 -134.9261
6.917881 92.385 -135.3761
6.968010 92.412 -135.8369
7.018504 92.436 -136.3069
7.069362 92.458 -136.7844
7.120590 92.476 -137.2662
7.172189 92.491 -137.7483
7.224161 92.504 -138.2261
7.276511 92.515 -138.6953
7.329239 92.523 -139.1527
7.382350 92.529 -139.5964
7.435845 92.534 -140.0250
7.489729 92.537 -140.4372
7.544002 92.539 -140.8312
7.598669 92.540 -141.2050
7.653732 92.542 -141.5567
7.709194 92.545 -141.8848
7.765058 92.549 -142.1888
7.821327 92.554 -142.4695
7.878004 92.561 -142.7281
7.935091 92.570 -142.9668
7.992592 92.582 -143.1873
8.050510 92.597 -143.3913
8.108847 92.616 -143.5804
8.167607 92.639 -143.7565
8.226793 92.665 -143.9223
8.286408 92.695 -144.0812
8.346454 92.728 -144.2369
8.406936 92.764 -144.3926
8.467856 92.804 -144.5506
8.529218 92.847 -144.7126
8.591024 92.892 -144.8800
8.653278 92.939 -145.0544
8.715983 92.988 -145.2371
8.779143 93.038 -145.4294
8.842760 93.089 -145.6318
8.906839 93.139 -145.8438
8.971381 93.190 -146.0644
9.036392 93.240 -146.2921
9.101873 93.289 -146.5254
9.167829 93.337 -146.7625
9.234263 93.383 -147.0021
9.301178 93.427 -147.2422
9.368578 93.469 -147.4803
9.436467 93.510 -147.7139
9.504847 93.548 -147.9406
9.573723 93.584 -148.1584
9.643099 93.618 -148.3658
9.712976 93.649 -148.5616
9.783361 93.678 -148.7444
9.854255 93.704 -148.9132
9.925663 93.727 -149.0673
9.997588 93.747 -149.2065
10.070035 93.764 -149.3314
10.143007 93.780 -149.4427
10.216507 93.793 -149.5414
10.290540 93.806 -149.6286
10.365109 93.818 -149.7055
10.440219 93.829 -149.7737
10.515873 93.840 -149.8349
10.592076 93.851 -149.8909
10.668830 93.862 -149.9431
10.746141 93.873 -149.9929
10.824012 93.884 -150.0413
10.902447 93.895 -150.0892
10.981451 93.905 -150.1375
11.061027 93.915 -150.1865
11.141180 93.923 -150.2365
11.221913 93.931 -150.2873
11.303232 93.938 -150.3386
11.385140 93.943 -150.3901
11.467641 93.947 -150.4415
11.550741 93.950 -150.4923
11.634442 93.952 -150.5421
11.718750 93.952 -150.5906
11.803669 93.952 -150.6377
11.889203 93.952 -150.6833
11.975357 93.951 -150.7278
12.062136 93.949 -150.7714
12.149543 93.947 -150.8148
12.237583 93.944 -150.8586
12.326262 93.941 -150.9036
12.415583 93.937 -150.9506
12.505552 93.933 -151.0004
12.596172 93.928 -151.0538
12.687449 93.922 -151.1112
12.779387 93.916 -151.1731
12.871992 93.908 -151.2399
12.965268 93.900 -151.3115
13.059220 93.891 -151.3879
13.153852 93.881 -151.4690
13.249170 93.870 -151.5543
13.345179 93.860 -151.6435
13.441884 93.848 -151.7364
13.539289 93.837 -151.8328
13.637401 93.825 -151.9325
13.736223 93.813 -152.0358
13.835761 93.802 -152.1430
13.936021 93.790 -152.2547
14.037007 93.779 -152.3716
14.138725 93.769 -152.4947
14.241180 93.759 -152.6249
14.344377 93.749 -152.7632
14.448323 93.741 -152.9104
14.553021 93.732 -153.0671
14.658478 93.724 -153.2338
14.764700 93.717 -153.4103
14.871691 93.709 -153.5964
14.979457 93.702 -153.7913
15.088005 93.695 -153.9939
15.197339 93.689 -154.2028
15.307465 93.682 -154.4166
15.418389 93.676 -154.6337
15.530117 93.670 -154.8525
15.642655 93.665 -155.0717
15.756008 93.660 -155.2902
15.870182 93.656 -155.5073
15.985184 93.653 -155.7225
16.101019 93.652 -155.9359
16.217694 93.652 -156.1477
16.335214 93.654 -156.3584
16.453586 93.657 -156.5685
16.572815 93.663 -156.7785
16.692909 93.669 -156.9888
16.813872 93.678 -157.1993
16.935713 93.688 -157.4098
17.058436 93.698 -157.6195
17.182048 93.710 -157.8273
17.306556 93.722 -158.0319
17.431967 93.735 -158.2316
17.558286 93.748 -158.4249
17.685521 93.761 -158.6102
17.813677 93.774 -158.7864
17.942762 93.787 -158.9523
18.072783 93.801 -159.1077
18.203746 93.815 -159.2523
18.335658 93.830 -159.3866
18.468526 93.846 -159.5113
18.602356 93.862 -159.6273
18.737156 93.879 -159.7356
18.872934 93.897 -159.8374
19.009695 93.915 -159.9335
19.147447 93.933 -160.0248
19.286197 93.951 -160.1121
19.425953 93.969 -160.1957
19.566721 93.986 -160.2763
19.708510 94.003 -160.3542
19.851326 94.019 -160.4302
19.995177 94.034 -160.5048
20.140070 94.048 -160.5786
20.286013 94.061 -160.6523
20.433014 94.073 -160.7268
20.581080 94.083 -160.8025
20.730219 94.092 -160.8796
20.880439 94.099 -160.9582
21.031747 94.105 -161.0380
21.184152 94.109 -161.1186
21.337661 94.111 -161.1993
21.492282 94.113 -161.2797
21.648024 94.113 -161.3596
21.804895 94.112 -161.4392
21.962902 94.111 -161.5194
22.122054 94.109 -161.6014
22.282360 94.107 -161.6871
22.443827 94.105 -161.7783
22.606464 94.102 -161.8767
22.770280 94.100 -161.9836
22.935283 94.097 -162.0996
23.101481 94.094 -162.2245
23.268884 94.090 -162.3571
23.437500 94.085 -162.4955
23.607338 94.080 -162.6377
23.778406 94.075 -162.7818
23.950714 94.070 -162.9265
24.124271 94.065 -163.0717
24.299086 94.062 -163.2181
24.475167 94.061 -163.3680
24.652524 94.062 -163.5242
24.831166 94.065 -163.6895
25.011103 94.069 -163.8661
25.192344 94.073 -164.0548
25.374898 94.078 -164.2542
25.558775 94.082 -164.4606
25.743984 94.084 -164.6683
25.930536 94.084 -164.8703
26.118439 94.083 -165.0588
26.307704 94.082 -165.2275
26.498341 94.080 -165.3716
26.690359 94.079 -165.4901
26.883768 94.082 -165.5852
27.078579 94.087 -165.6628
27.274801 94.097 -165.7311
27.472446 94.110 -165.7995
27.671522 94.126 -165.8763
27.872042 94.143 -165.9670
28.074014 94.160 -166.0735
28.277450 94.175 -166.1931
28.482360 94.186 -166.3191
28.688755 94.194 -166.4426
28.896645 94.198 -166.5540
29.106042 94.199 -166.6456
29.316957 94.199 -166.7130
29.529400 94.199 -166.7567
29.743382 94.201 -166.7819
29.958915 94.206 -166.7978
30.176009 94.213 -166.8157
30.394677 94.224 -166.8464
30.614929 94.236 -166.8981
30.836778 94.249 -166.9751
31.060234 94.260 -167.0774
31.285309 94.269 -167.2009
31.512015 94.275 -167.3394
31.740364 94.278 -167.4859
31.970368 94.278 -167.6344
32.202039 94.277 -167.7808
32.435388 94.274 -167.9230
32.670428 94.271 -168.0610
32.907171 94.268 -168.1956
33.145630 94.265 -168.3280
33.385817 94.262 -168.4586
33.627745 94.260 -168.5872
33.871425 94.258 -168.7133
34.116871 94.257 -168.8358
34.364096 94.257 -168.9546
34.613113 94.258 -169.0695
34.863934 94.260 -169.1814
35.116572 94.262 -169.2913
35.371041 94.266 -169.4002
35.627354 94.270 -169.5089
35.885525 94.274 -169.6178
36.145566 94.278 -169.7266
36.407492 94.282 -169.8347
36.671316 94.285 -169.9411
36.937051 94.287 -170.0444
37.204712 94.288 -170.1434
37.474313 94.289 -170.2369
37.745867 94.288 -170.3245
38.019389 94.287 -170.4059
38.294893 94.284 -170.4814
38.572394 94.282 -170.5510
38.851905 94.278 -170.6146
39.133442 94.275 -170.6718
39.417019 94.270 -170.7220
39.702651 94.266 -170.7645
39.990353 94.263 -170.7998
40.280140 94.260 -170.8289
40.572026 94.258 -170.8531
40.866028 94.258 -170.8740
41.162160 94.259 -170.8918
41.460438 94.262 -170.9058
41.760877 94.266 -170.9147
42.063494 94.273 -170.9182
42.368303 94.284 -170.9182
42.675322 94.298 -170.9198
42.984565 94.316 -170.9315
43.296048 94.339 -170.9631
43.609789 94.365 -171.0237
43.925804 94.392 -171.1187
44.244108 94.418 -171.2485
44.564719 94.442 -171.4083
44.887654 94.463 -171.5896
45.212928 94.480 -171.7830
45.540560 94.493 -171.9812
45.870565 94.504 -172.1804
46.202962 94.513 -172.3804
46.537768 94.519 -172.5833
46.875000 94.523 -172.7896
47.214676 94.524 -172.9971
47.556813 94.521 -173.2006
47.901429 94.516 -173.3939
48.248542 94.510 -173.5735
48.598171 94.502 -173.7405
48.950334 94.495 -173.8995
49.305048 94.487 -174.0553
49.662333 94.479 -174.2084
50.022206 94.468 -174.3532
50.384688 94.456 -174.4803
50.749796 94.444 -174.5820
51.117550 94.434 -174.6578
51.487969 94.428 -174.7161
51.861072 94.427 -174.7709
52.236879 94.429 -174.8356
52.615409 94.433 -174.9175
52.996681 94.438 -175.0165
53.380717 94.442 -175.1278
53.767536 94.446 -175.2462
54.157158 94.448 -175.3683
54.549603 94.450 -175.4927
54.944892 94.451 -175.6180
55.343045 94.451 -175.7418
55.744084 94.451 -175.8618
56.148028 94.451 -175.9771
56.554900 94.451 -176.0892
56.964720 94.451 -176.2009
57.377510 94.452 -176.3149
57.793291 94.453 -176.4322
58.212085 94.454 -176.5523
58.633914 94.455 -176.6743
59.058799 94.455 -176.7975
59.486764 94.454 -176.9214
59.917829 94.453 -177.0453
60.352019 94.450 -177.1672
60.789354 94.447 -177.2847
61.229859 94.443 -177.3959
61.673556 94.438 -177.5006
62.120468 94.434 -177.6000
62.570618 94.430 -177.6960
63.024031 94.425 -177.7901
63.480729 94.421 -177.8832
63.940736 94.417 -177.9761
64.404077 94.414 -178.0701
64.870776 94.411 -178.1670
65.340856 94.408 -178.2680
65.814343 94.405 -178.3738
66.291261 94.401 -178.4843
66.771635 94.398 -178.5986
67.255489 94.394 -178.7159
67.742850 94.390 -178.8346
68.233743 94.385 -178.9525
68.728193 94.379 -179.0676
69.226226 94.374 -179.1788
69.727867 94.368 -179.2859
70.233144 94.363 -179.3886
70.742083 94.358 -179.4870
71.254709 94.354 -179.5813
71.771050 94.350 -179.6726
72.291132 94.347 -179.7632
72.814984 94.345 -179.8554
73.342631 94.343 -179.9510
73.874102 94.341 179.9491
74.409424 94.339 179.8448
74.948626 94.336 179.7370
75.491734 94.332 179.6273
76.038779 94.328 179.5172
76.589787 94.324 179.4073
77.144788 94.319 179.2970
77.703811 94.315 179.1848
78.266885 94.311 179.0695
78.834039 94.308 178.9500
79.405303 94.305 178.8254
79.980706 94.302 178.6955
80.560280 94.299 178.5607
