* Measurement data measured by REW V5.31.3
* Source: EXCL: Microphone (USB Sound Device        ), MICROPHONE (Master Volume), R, volume: 0.390
* Format: 256k Log Swept Sine, 1 sweep at -17.0 dBFS with no timing reference
* Dated: Jun 21, 2025 11:46:28 PM
* REW Settings:
*  C-weighting compensation: Off
*  Target level: 75.0 dB
* Note: KZ Vader Pro 1000
* Measurement: L KZ Vader Pro 1000
* Smoothing: 1/12 octave
* Frequency Step: 96 ppo
* Start Frequency: 0.36621094 Hz
*
* Freq(Hz) SPL(dB) Phase(degrees)
0.366211 94.873 156.5031
0.368865 94.867 156.4787
0.371538 94.858 156.4422
0.374230 94.848 156.3963
0.376942 94.836 156.3434
0.379673 94.823 156.2852
0.382424 94.809 156.2229
0.385196 94.795 156.1572
0.387987 94.781 156.0885
0.390798 94.767 156.0169
0.393630 94.752 155.9427
0.396483 94.737 155.8657
0.399356 94.723 155.7862
0.402250 94.708 155.7039
0.405165 94.693 155.6190
0.408101 94.678 155.5313
0.411058 94.663 155.4409
0.414037 94.647 155.3477
0.417037 94.632 155.2518
0.420059 94.616 155.1530
0.423103 94.601 155.0514
0.426169 94.585 154.9469
0.429257 94.569 154.8396
0.432368 94.553 154.7293
0.435501 94.537 154.6160
0.438656 94.521 154.4998
0.441835 94.505 154.3806
0.445037 94.488 154.2584
0.448262 94.472 154.1332
0.451510 94.455 154.0048
0.454782 94.438 153.8734
0.458077 94.421 153.7389
0.461397 94.404 153.6013
0.464740 94.387 153.4606
0.468108 94.370 153.3166
0.471500 94.352 153.1695
0.474917 94.335 153.0192
0.478358 94.317 152.8657
0.481825 94.299 152.7090
0.485316 94.281 152.5490
0.488833 94.263 152.3857
0.492375 94.245 152.2193
0.495943 94.227 152.0495
0.499537 94.208 151.8764
0.503157 94.190 151.7001
0.506803 94.171 151.5205
0.510475 94.152 151.3376
0.514175 94.133 151.1514
0.517900 94.114 150.9620
0.521653 94.095 150.7692
0.525434 94.076 150.5732
0.529241 94.056 150.3738
0.533076 94.036 150.1713
0.536939 94.016 149.9655
0.540830 93.996 149.7564
0.544749 93.976 149.5442
0.548696 93.956 149.3287
0.552673 93.936 149.1101
0.556677 93.915 148.8884
0.560711 93.894 148.6635
0.564774 93.874 148.4356
0.568867 93.853 148.2047
0.572989 93.831 147.9707
0.577141 93.810 147.7339
0.581324 93.789 147.4942
0.585536 93.767 147.2516
0.589779 93.745 147.0063
0.594053 93.723 146.7582
0.598358 93.701 146.5076
0.602694 93.679 146.2543
0.607061 93.657 145.9987
0.611460 93.634 145.7406
0.615891 93.611 145.4803
0.620354 93.588 145.2177
0.624849 93.565 144.9531
0.629377 93.542 144.6865
0.633938 93.519 144.4181
0.638532 93.495 144.1480
0.643159 93.471 143.8763
0.647819 93.447 143.6031
0.652514 93.423 143.3287
0.657242 93.399 143.0531
0.662005 93.375 142.7766
0.666802 93.350 142.4993
0.671634 93.325 142.2215
0.676501 93.300 141.9433
0.681403 93.275 141.6648
0.686341 93.250 141.3864
0.691314 93.224 141.1083
0.696324 93.198 140.8306
0.701370 93.172 140.5536
0.706452 93.146 140.2774
0.711571 93.118 140.0020
0.716728 93.091 139.7276
0.721921 93.062 139.4538
0.727153 93.031 139.1801
0.732422 92.999 138.9057
0.737729 92.965 138.6296
0.743075 92.928 138.3507
0.748460 92.890 138.0680
0.753883 92.851 137.7807
0.759346 92.810 137.4883
0.764849 92.769 137.1905
0.770391 92.727 136.8870
0.775974 92.685 136.5776
0.781597 92.642 136.2623
0.787261 92.598 135.9408
0.792966 92.554 135.6132
0.798712 92.510 135.2794
0.804500 92.464 134.9393
0.810329 92.418 134.5929
0.816201 92.372 134.2401
0.822116 92.325 133.8809
0.828073 92.277 133.5153
0.834074 92.228 133.1432
0.840118 92.179 132.7646
0.846206 92.129 132.3795
0.852338 92.078 131.9879
0.858514 92.026 131.5897
0.864735 91.974 131.1851
0.871001 91.920 130.7740
0.877313 91.866 130.3565
0.883670 91.810 129.9326
0.890074 91.754 129.5024
0.896524 91.696 129.0660
0.903020 91.638 128.6234
0.909564 91.578 128.1747
0.916155 91.517 127.7202
0.922794 91.455 127.2598
0.929481 91.391 126.7939
0.936216 91.326 126.3226
0.943000 91.260 125.8462
0.949834 91.192 125.3648
0.956717 91.123 124.8787
0.963649 91.053 124.3883
0.970632 90.980 123.8938
0.977666 90.906 123.3957
0.984750 90.831 122.8944
0.991886 90.753 122.3902
0.999074 90.674 121.8838
1.006314 90.593 121.3755
1.013606 90.510 120.8660
1.020951 90.425 120.3558
1.028349 90.338 119.8458
1.035801 90.248 119.3365
1.043307 90.157 118.8287
1.050867 90.063 118.3232
1.058482 89.967 117.8209
1.066152 89.868 117.3225
1.073878 89.768 116.8287
1.081660 89.666 116.3402
1.089498 89.562 115.8572
1.097393 89.457 115.3797
1.105345 89.352 114.9074
1.113355 89.248 114.4395
1.121423 89.145 113.9754
1.129549 89.043 113.5144
1.137734 88.944 113.0557
1.145979 88.846 112.5991
1.154283 88.749 112.1438
1.162647 88.653 111.6897
1.171072 88.559 111.2361
1.179558 88.465 110.7829
1.188106 88.370 110.3295
1.196715 88.276 109.8757
1.205387 88.180 109.4209
1.214122 88.082 108.9648
1.222920 87.983 108.5069
1.231782 87.881 108.0469
1.240708 87.775 107.5841
1.249699 87.666 107.1182
1.258754 87.553 106.6486
1.267876 87.434 106.1748
1.277063 87.309 105.6963
1.286318 87.178 105.2125
1.295639 87.040 104.7228
1.305027 86.894 104.2266
1.314484 86.739 103.7233
1.324009 86.574 103.2123
1.333604 86.399 102.6929
1.343268 86.213 102.1644
1.353002 86.015 101.6263
1.362806 85.804 101.0778
1.372681 85.578 100.5184
1.382628 85.338 99.9474
1.392647 85.082 99.3643
1.402739 84.809 98.7687
1.412904 84.517 98.1603
1.423142 84.206 97.5390
1.433455 83.874 96.9053
1.443843 83.517 96.2596
1.454305 83.134 95.6034
1.464844 82.721 94.9383
1.475459 82.274 94.2662
1.486150 81.788 93.5890
1.496920 81.261 92.9080
1.507767 80.691 92.2237
1.518693 80.077 91.5362
1.529698 79.420 90.8447
1.540783 78.721 90.1484
1.551948 77.983 89.4457
1.563194 77.208 88.7350
1.574521 76.398 88.0142
1.585931 75.557 87.2807
1.597423 74.689 86.5315
1.608999 73.797 85.7630
1.620658 72.885 84.9707
1.632402 71.959 84.1494
1.644232 71.021 83.2921
1.656146 70.078 82.3907
1.668147 69.136 81.4345
1.680235 68.199 80.4096
1.692411 67.275 79.2981
1.704675 66.371 78.0757
1.717028 65.494 76.7092
1.729470 64.653 75.1520
1.742003 63.859 73.3365
1.754626 63.121 71.1610
1.767341 62.451 68.4663
1.780147 61.862 64.9887
1.793047 61.368 60.2620
1.806040 60.981 53.3950
1.819128 60.715 42.5507
1.832310 60.580 24.0194
1.845587 60.582 -6.0255
1.858961 60.723 -38.7231
1.872432 60.998 -60.7219
1.886001 61.400 -73.6460
1.899667 61.918 -81.7941
1.913433 62.540 -87.4458
1.927299 63.254 -91.6813
1.941265 64.045 -95.0439
1.955332 64.901 -97.8287
1.969501 65.809 -100.2080
1.983773 66.756 -102.2882
1.998148 67.730 -104.1385
2.012627 68.721 -105.8056
2.027212 69.716 -107.3224
2.041902 70.705 -108.7124
2.056698 71.678 -109.9931
2.071602 72.626 -111.1776
2.086614 73.539 -112.2763
2.101734 74.408 -113.2978
2.116964 75.226 -114.2496
2.132304 75.986 -115.1390
2.147756 76.682 -115.9741
2.163320 77.311 -116.7651
2.178996 77.873 -117.5242
2.194786 78.369 -118.2669
2.210690 78.805 -119.0099
2.226710 79.188 -119.7687
2.242845 79.522 -120.5541
2.259098 79.812 -121.3719
2.275468 80.063 -122.2235
2.291957 80.278 -123.1066
2.308566 80.459 -124.0174
2.325295 80.608 -124.9506
2.342145 80.729 -125.9003
2.359117 80.823 -126.8602
2.376212 80.894 -127.8240
2.393431 80.943 -128.7852
2.410775 80.974 -129.7372
2.428244 80.990 -130.6736
2.445840 80.993 -131.5880
2.463564 80.988 -132.4745
2.481416 80.976 -133.3279
2.499397 80.961 -134.1441
2.517509 80.946 -134.9214
2.535752 80.930 -135.6611
2.554127 80.915 -136.3687
2.572635 80.899 -137.0531
2.591277 80.880 -137.7260
2.610055 80.856 -138.3982
2.628968 80.824 -139.0776
2.648019 80.782 -139.7689
2.667208 80.729 -140.4736
2.686535 80.665 -141.1910
2.706003 80.589 -141.9181
2.725612 80.501 -142.6507
2.745363 80.399 -143.3829
2.765257 80.284 -144.1078
2.785295 80.156 -144.8170
2.805478 80.013 -145.5009
2.825808 79.857 -146.1488
2.846285 79.685 -146.7491
2.866910 79.497 -147.2900
2.887685 79.291 -147.7603
2.908611 79.065 -148.1505
2.929688 78.815 -148.4539
2.950917 78.538 -148.6667
2.972301 78.232 -148.7867
2.993839 77.895 -148.8112
3.015534 77.528 -148.7356
3.037386 77.132 -148.5523
3.059396 76.714 -148.2503
3.081565 76.278 -147.8156
3.103896 75.830 -147.2305
3.126388 75.379 -146.4734
3.149043 74.933 -145.5192
3.171862 74.501 -144.3383
3.194847 74.094 -142.8972
3.217998 73.722 -141.1579
3.241317 73.395 -139.0784
3.264805 73.121 -136.6130
3.288463 72.909 -133.7134
3.312293 72.760 -130.3336
3.336295 72.674 -126.4396
3.360471 72.650 -122.0272
3.384822 72.682 -117.1386
3.409350 72.765 -111.8734
3.434056 72.893 -106.3863
3.458940 73.060 -100.8693
3.484005 73.261 -95.5205
3.509252 73.489 -90.5119
3.534681 73.739 -85.9676
3.560295 74.007 -81.9567
3.586094 74.290 -78.5004
3.612081 74.586 -75.5837
3.638255 74.895 -73.1689
3.664620 75.220 -71.2061
3.691175 75.562 -69.6406
3.717923 75.923 -68.4183
3.744864 76.304 -67.4892
3.772001 76.701 -66.8080
3.799335 77.110 -66.3350
3.826866 77.524 -66.0356
3.854597 77.937 -65.8803
3.882529 78.344 -65.8447
3.910664 78.736 -65.9092
3.939002 79.110 -66.0593
3.967546 79.460 -66.2851
3.996296 79.783 -66.5818
4.025255 80.077 -66.9486
4.054423 80.344 -67.3868
4.083804 80.584 -67.8968
4.113396 80.800 -68.4750
4.143204 80.993 -69.1135
4.173227 81.165 -69.8009
4.203468 81.319 -70.5242
4.233928 81.455 -71.2695
4.264609 81.576 -72.0241
4.295512 81.682 -72.7774
4.326639 81.775 -73.5217
4.357992 81.855 -74.2543
4.389572 81.921 -74.9771
4.421380 81.975 -75.6958
4.453419 82.014 -76.4171
4.485691 82.038 -77.1449
4.518196 82.048 -77.8781
4.550936 82.044 -78.6113
4.583914 82.026 -79.3352
4.617131 81.995 -80.0380
4.650589 81.952 -80.7068
4.684289 81.897 -81.3292
4.718233 81.831 -81.8950
4.752424 81.753 -82.3971
4.786862 81.663 -82.8329
4.821549 81.560 -83.2026
4.856488 81.445 -83.5070
4.891680 81.319 -83.7456
4.927127 81.183 -83.9159
4.962831 81.040 -84.0128
4.998794 80.892 -84.0293
5.035017 80.742 -83.9565
5.071503 80.591 -83.7844
5.108253 80.441 -83.5021
5.145270 80.293 -83.0996
5.182555 80.146 -82.5696
5.220110 80.001 -81.9094
5.257937 79.860 -81.1226
5.296038 79.725 -80.2184
5.334415 79.599 -79.2114
5.373071 79.486 -78.1192
5.412006 79.391 -76.9612
5.451224 79.317 -75.7549
5.490725 79.267 -74.5153
5.530514 79.242 -73.2541
5.570590 79.243 -71.9835
5.610957 79.267 -70.7200
5.651616 79.312 -69.4855
5.692570 79.375 -68.3053
5.733821 79.453 -67.2056
5.775370 79.543 -66.2096
5.817221 79.643 -65.3357
5.859375 79.753 -64.5949
5.901834 79.870 -63.9910
5.944602 79.996 -63.5221
5.987679 80.127 -63.1832
6.031068 80.261 -62.9682
6.074771 80.395 -62.8711
6.118792 80.526 -62.8868
6.163131 80.650 -63.0118
6.207792 80.764 -63.2437
6.252776 80.869 -63.5805
6.298086 80.962 -64.0184
6.343725 81.045 -64.5494
6.389694 81.117 -65.1616
6.435996 81.177 -65.8407
6.482634 81.225 -66.5723
6.529610 81.261 -67.3447
6.576926 81.284 -68.1506
6.624585 81.293 -68.9866
6.672590 81.289 -69.8514
6.720942 81.272 -70.7411
6.769645 81.243 -71.6480
6.818700 81.202 -72.5609
6.868111 81.150 -73.4671
6.917881 81.088 -74.3549
6.968010 81.017 -75.2161
7.018504 80.936 -76.0464
7.069362 80.847 -76.8437
7.120590 80.752 -77.6055
7.172189 80.651 -78.3280
7.224161 80.547 -79.0051
7.276511 80.443 -79.6300
7.329239 80.339 -80.1966
7.382350 80.238 -80.7011
7.435845 80.141 -81.1442
7.489729 80.048 -81.5305
7.544002 79.964 -81.8676
7.598669 79.889 -82.1643
7.653732 79.827 -82.4286
7.709194 79.779 -82.6670
7.765058 79.747 -82.8859
7.821327 79.729 -83.0940
7.878004 79.728 -83.3040
7.935091 79.741 -83.5310
7.992592 79.769 -83.7905
8.050510 79.812 -84.0947
8.108847 79.869 -84.4515
8.167607 79.939 -84.8653
8.226793 80.021 -85.3391
8.286408 80.111 -85.8757
8.346454 80.209 -86.4777
8.406936 80.311 -87.1467
8.467856 80.417 -87.8819
8.529218 80.525 -88.6790
8.591024 80.634 -89.5307
8.653278 80.743 -90.4278
8.715983 80.849 -91.3611
8.779143 80.953 -92.3227
8.842760 81.054 -93.3055
8.906839 81.150 -94.3020
8.971381 81.242 -95.3027
9.036392 81.330 -96.2966
9.101873 81.414 -97.2729
9.167829 81.494 -98.2227
9.234263 81.571 -99.1396
9.301178 81.644 -100.0182
9.368578 81.715 -100.8529
9.436467 81.785 -101.6383
9.504847 81.854 -102.3692
9.573723 81.924 -103.0428
9.643099 81.996 -103.6584
9.712976 82.069 -104.2174
9.783361 82.145 -104.7223
9.854255 82.226 -105.1759
9.925663 82.310 -105.5817
9.997588 82.400 -105.9439
10.070035 82.494 -106.2682
10.143007 82.593 -106.5613
10.216507 82.696 -106.8301
10.290540 82.804 -107.0805
10.365109 82.915 -107.3172
10.440219 83.029 -107.5444
10.515873 83.145 -107.7661
10.592076 83.262 -107.9854
10.668830 83.379 -108.2045
10.746141 83.495 -108.4240
10.824012 83.609 -108.6433
10.902447 83.722 -108.8610
10.981451 83.831 -109.0754
11.061027 83.937 -109.2847
11.141180 84.040 -109.4866
11.221913 84.139 -109.6784
11.303232 84.234 -109.8574
11.385140 84.325 -110.0216
11.467641 84.413 -110.1695
11.550741 84.498 -110.3003
11.634442 84.580 -110.4141
11.718750 84.660 -110.5110
11.803669 84.738 -110.5922
11.889203 84.814 -110.6594
11.975357 84.888 -110.7154
12.062136 84.961 -110.7629
12.149543 85.033 -110.8047
12.237583 85.103 -110.8437
12.326262 85.171 -110.8823
12.415583 85.237 -110.9232
12.505552 85.300 -110.9681
12.596172 85.361 -111.0182
12.687449 85.419 -111.0739
12.779387 85.474 -111.1352
12.871992 85.525 -111.2014
12.965268 85.572 -111.2718
13.059220 85.616 -111.3451
13.153852 85.656 -111.4199
13.249170 85.692 -111.4950
13.345179 85.726 -111.5699
13.441884 85.757 -111.6444
13.539289 85.785 -111.7189
13.637401 85.812 -111.7945
13.736223 85.838 -111.8731
13.835761 85.863 -111.9574
13.936021 85.888 -112.0504
14.037007 85.912 -112.1554
14.138725 85.936 -112.2760
14.241180 85.960 -112.4155
14.344377 85.983 -112.5768
14.448323 86.006 -112.7620
14.553021 86.028 -112.9724
14.658478 86.048 -113.2084
14.764700 86.067 -113.4695
14.871691 86.083 -113.7541
14.979457 86.098 -114.0600
15.088005 86.111 -114.3844
15.197339 86.122 -114.7243
15.307465 86.132 -115.0767
15.418389 86.141 -115.4386
15.530117 86.150 -115.8080
15.642655 86.159 -116.1834
15.756008 86.170 -116.5640
15.870182 86.182 -116.9500
15.985184 86.197 -117.3424
16.101019 86.215 -117.7427
16.217694 86.237 -118.1528
16.335214 86.262 -118.5744
16.453586 86.290 -119.0091
16.572815 86.322 -119.4581
16.692909 86.357 -119.9214
16.813872 86.395 -120.3985
16.935713 86.435 -120.8877
17.058436 86.477 -121.3867
17.182048 86.521 -121.8922
17.306556 86.566 -122.4009
17.431967 86.613 -122.9090
17.558286 86.661 -123.4130
17.685521 86.710 -123.9097
17.813677 86.761 -124.3965
17.942762 86.813 -124.8714
18.072783 86.867 -125.3328
18.203746 86.923 -125.7799
18.335658 86.980 -126.2119
18.468526 87.038 -126.6285
18.602356 87.097 -127.0293
18.737156 87.157 -127.4138
18.872934 87.218 -127.7814
19.009695 87.279 -128.1315
19.147447 87.339 -128.4633
19.286197 87.400 -128.7767
19.425953 87.461 -129.0716
19.566721 87.521 -129.3489
19.708510 87.581 -129.6100
19.851326 87.641 -129.8572
19.995177 87.701 -130.0932
20.140070 87.760 -130.3214
20.286013 87.818 -130.5448
20.433014 87.875 -130.7661
20.581080 87.929 -130.9872
20.730219 87.981 -131.2089
20.880439 88.029 -131.4309
21.031747 88.073 -131.6515
21.184152 88.113 -131.8685
21.337661 88.149 -132.0791
21.492282 88.181 -132.2807
21.648024 88.210 -132.4714
21.804895 88.236 -132.6507
21.962902 88.260 -132.8197
22.122054 88.284 -132.9816
22.282360 88.308 -133.1411
22.443827 88.332 -133.3043
22.606464 88.358 -133.4782
22.770280 88.384 -133.6696
22.935283 88.411 -133.8844
23.101481 88.438 -134.1274
23.268884 88.464 -134.4011
23.437500 88.490 -134.7061
23.607338 88.513 -135.0407
23.778406 88.534 -135.4017
23.950714 88.553 -135.7845
24.124271 88.570 -136.1840
24.299086 88.584 -136.5949
24.475167 88.597 -137.0125
24.652524 88.610 -137.4328
24.831166 88.623 -137.8532
25.011103 88.637 -138.2720
25.192344 88.652 -138.6886
25.374898 88.670 -139.1033
25.558775 88.690 -139.5170
25.743984 88.713 -139.9306
25.930536 88.739 -140.3449
26.118439 88.767 -140.7606
26.307704 88.797 -141.1773
26.498341 88.830 -141.5944
26.690359 88.863 -142.0102
26.883768 88.898 -142.4229
27.078579 88.934 -142.8301
27.274801 88.969 -143.2294
27.472446 89.005 -143.6189
27.671522 89.041 -143.9967
27.872042 89.077 -144.3617
28.074014 89.113 -144.7136
28.277450 89.148 -145.0525
28.482360 89.183 -145.3793
28.688755 89.218 -145.6954
28.896645 89.251 -146.0023
29.106042 89.284 -146.3021
29.316957 89.316 -146.5967
29.529400 89.345 -146.8878
29.743382 89.373 -147.1768
29.958915 89.399 -147.4644
30.176009 89.422 -147.7509
30.394677 89.443 -148.0356
30.614929 89.461 -148.3176
30.836778 89.477 -148.5961
31.060234 89.492 -148.8710
31.285309 89.505 -149.1430
31.512015 89.518 -149.4147
31.740364 89.532 -149.6898
31.970368 89.546 -149.9730
32.202039 89.561 -150.2690
32.435388 89.576 -150.5814
32.670428 89.592 -150.9119
32.907171 89.607 -151.2599
33.145630 89.621 -151.6228
33.385817 89.635 -151.9965
33.627745 89.648 -152.3765
33.871425 89.661 -152.7591
34.116871 89.674 -153.1422
34.364096 89.688 -153.5249
34.613113 89.703 -153.9075
34.863934 89.720 -154.2906
35.116572 89.737 -154.6740
35.371041 89.755 -155.0566
35.627354 89.773 -155.4366
35.885525 89.791 -155.8119
36.145566 89.810 -156.1808
36.407492 89.828 -156.5427
36.671316 89.847 -156.8984
36.937051 89.866 -157.2488
37.204712 89.884 -157.5950
37.474313 89.902 -157.9371
37.745867 89.918 -158.2741
38.019389 89.933 -158.6043
38.294893 89.947 -158.9263
38.572394 89.960 -159.2399
38.851905 89.973 -159.5464
39.133442 89.985 -159.8491
39.417019 89.997 -160.1520
39.702651 90.009 -160.4588
39.990353 90.021 -160.7715
40.280140 90.031 -161.0902
40.572026 90.041 -161.4132
40.866028 90.050 -161.7388
41.162160 90.058 -162.0663
41.460438 90.066 -162.3972
41.760877 90.076 -162.7351
42.063494 90.085 -163.0843
42.368303 90.094 -163.4474
42.675322 90.102 -163.8244
42.984565 90.108 -164.2110
43.296048 90.112 -164.6006
43.609789 90.113 -164.9858
43.925804 90.112 -165.3613
44.244108 90.111 -165.7253
44.564719 90.110 -166.0792
44.887654 90.110 -166.4265
45.212928 90.110 -166.7701
45.540560 90.109 -167.1110
45.870565 90.109 -167.4484
46.202962 90.109 -167.7807
46.537768 90.109 -168.1073
46.875000 90.110 -168.4301
47.214676 90.113 -168.7529
47.556813 90.117 -169.0808
47.901429 90.122 -169.4178
48.248542 90.127 -169.7656
48.598171 90.131 -170.1235
48.950334 90.135 -170.4889
49.305048 90.138 -170.8580
49.662333 90.139 -171.2273
50.022206 90.139 -171.5937
50.384688 90.138 -171.9545
50.749796 90.136 -172.3080
51.117550 90.133 -172.6532
51.487969 90.131 -172.9901
51.861072 90.128 -173.3197
52.236879 90.126 -173.6439
52.615409 90.123 -173.9645
52.996681 90.120 -174.2834
53.380717 90.118 -174.6015
53.767536 90.115 -174.9201
54.157158 90.111 -175.2404
54.549603 90.108 -175.5636
54.944892 90.104 -175.8907
55.343045 90.100 -176.2220
55.744084 90.095 -176.5570
56.148028 90.090 -176.8952
56.554900 90.085 -177.2371
56.964720 90.081 -177.5836
57.377510 90.076 -177.9360
57.793291 90.071 -178.2939
58.212085 90.065 -178.6546
58.633914 90.059 -179.0148
59.058799 90.052 -179.3713
59.486764 90.044 -179.7239
59.917829 90.037 179.9258
60.352019 90.029 179.5750
60.789354 90.021 179.2225
61.229859 90.011 178.8690
61.673556 90.001 178.5164
62.120468 89.988 178.1672
62.570618 89.975 177.8226
63.024031 89.961 177.4830
63.480729 89.946 177.1473
63.940736 89.931 176.8140
64.404077 89.917 176.4809
64.870776 89.902 176.1464
65.340856 89.888 175.8097
65.814343 89.873 175.4716
66.291261 89.857 175.1334
66.771635 89.842 174.7966
67.255489 89.826 174.4619
67.742850 89.810 174.1289
68.233743 89.793 173.7975
68.728193 89.776 173.4674
69.226226 89.759 173.1389
69.727867 89.741 172.8121
70.233144 89.722 172.4868
70.742083 89.703 172.1630
71.254709 89.683 171.8406
71.771050 89.662 171.5203
72.291132 89.641 171.2033
72.814984 89.620 170.8898
73.342631 89.598 170.5794
73.874102 89.577 170.2707
74.409424 89.556 169.9623
74.948626 89.535 169.6539
75.491734 89.514 169.3455
76.038779 89.493 169.0378
76.589787 89.471 168.7314
77.144788 89.450 168.4268
77.703811 89.429 168.1235
78.266885 89.407 167.8207
78.834039 89.387 167.5164
79.405303 89.367 167.2076
79.980706 89.347 166.8907
80.560280 89.327 166.5635
81.144053 89.305 166.2256
81.732056 89.283 165.8782
82.324320 89.258 165.5238
82.920876 89.231 165.1656
83.521755 89.202 164.8074
84.126988 89.170 164.4525
84.736607 89.137 164.1035
