* Measurement data measured by REW V5.31
* Source: EXCL: Microphone (USB Sound Device        ), MICROPHONE (Master Volume), L, volume: 0.560
* Format: 256k Log Swept Sine, 1 sweep at -5.0 dBFS with no timing reference
* Dated: May 13, 2024 12:15:59 AM
* REW Settings:
*  C-weighting compensation: Off
*  Target level: 75.0 dB
* Note: KZ Vader 0000
* Measurement: L KZ Vader 0000
* Smoothing: 1/12 octave
* Frequency Step: 96 ppo
* Start Frequency: 0.36621094 Hz
*
* Freq(Hz) SPL(dB) Phase(degrees)
0.366211 84.086 158.2506
0.368865 84.081 158.2287
0.371538 84.073 158.1959
0.374230 84.064 158.1546
0.376942 84.053 158.1071
0.379673 84.042 158.0548
0.382424 84.030 157.9989
0.385196 84.018 157.9399
0.387987 84.005 157.8782
0.390798 83.992 157.8140
0.393630 83.980 157.7474
0.396483 83.967 157.6784
0.399356 83.954 157.6071
0.402250 83.941 157.5333
0.405165 83.928 157.4572
0.408101 83.915 157.3787
0.411058 83.901 157.2977
0.414037 83.888 157.2143
0.417037 83.874 157.1284
0.420059 83.861 157.0400
0.423103 83.847 156.9492
0.426169 83.833 156.8557
0.429257 83.819 156.7598
0.432368 83.805 156.6612
0.435501 83.791 156.5600
0.438656 83.777 156.4563
0.441835 83.763 156.3499
0.445037 83.748 156.2408
0.448262 83.734 156.1291
0.451510 83.719 156.0146
0.454782 83.704 155.8975
0.458077 83.690 155.7777
0.461397 83.675 155.6551
0.464740 83.660 155.5298
0.468108 83.644 155.4017
0.471500 83.629 155.2708
0.474917 83.614 155.1372
0.478358 83.598 155.0007
0.481825 83.583 154.8615
0.485316 83.567 154.7195
0.488833 83.551 154.5746
0.492375 83.535 154.4269
0.495943 83.519 154.2764
0.499537 83.503 154.1230
0.503157 83.487 153.9668
0.506803 83.470 153.8078
0.510475 83.454 153.6460
0.514175 83.437 153.4813
0.517900 83.420 153.3138
0.521653 83.403 153.1435
0.525434 83.386 152.9705
0.529241 83.369 152.7946
0.533076 83.352 152.6160
0.536939 83.334 152.4346
0.540830 83.317 152.2505
0.544749 83.299 152.0636
0.548696 83.281 151.8741
0.552673 83.264 151.6820
0.556677 83.245 151.4872
0.560711 83.227 151.2899
0.564774 83.209 151.0900
0.568867 83.191 150.8876
0.572989 83.172 150.6827
0.577141 83.153 150.4754
0.581324 83.135 150.2658
0.585536 83.116 150.0539
0.589779 83.096 149.8398
0.594053 83.077 149.6234
0.598358 83.058 149.4050
0.602694 83.038 149.1846
0.607061 83.019 148.9622
0.611460 82.999 148.7380
0.615891 82.979 148.5121
0.620354 82.959 148.2844
0.624849 82.938 148.0553
0.629377 82.918 147.8247
0.633938 82.898 147.5927
0.638532 82.877 147.3596
0.643159 82.856 147.1254
0.647819 82.835 146.8903
0.652514 82.814 146.6544
0.657242 82.793 146.4179
0.662005 82.771 146.1809
0.666802 82.750 145.9437
0.671634 82.728 145.7063
0.676501 82.706 145.4690
0.681403 82.684 145.2320
0.686341 82.662 144.9955
0.691314 82.639 144.7596
0.696324 82.616 144.5247
0.701370 82.594 144.2908
0.706452 82.570 144.0582
0.711571 82.547 143.8269
0.716728 82.522 143.5969
0.721921 82.497 143.3681
0.727153 82.471 143.1401
0.732422 82.443 142.9121
0.737729 82.413 142.6833
0.743075 82.381 142.4529
0.748460 82.348 142.2200
0.753883 82.314 141.9839
0.759346 82.279 141.7443
0.764849 82.243 141.5009
0.770391 82.206 141.2535
0.775974 82.169 141.0020
0.781597 82.131 140.7463
0.787261 82.093 140.4865
0.792966 82.054 140.2223
0.798712 82.014 139.9540
0.804500 81.974 139.6813
0.810329 81.934 139.4045
0.816201 81.892 139.1233
0.822116 81.850 138.8379
0.828073 81.808 138.5483
0.834074 81.765 138.2545
0.840118 81.721 137.9565
0.846206 81.676 137.6543
0.852338 81.631 137.3481
0.858514 81.585 137.0378
0.864735 81.538 136.7236
0.871001 81.491 136.4054
0.877313 81.443 136.0835
0.883670 81.394 135.7578
0.890074 81.344 135.4285
0.896524 81.293 135.0958
0.903020 81.242 134.7597
0.909564 81.190 134.4204
0.916155 81.137 134.0781
0.922794 81.083 133.7330
0.929481 81.028 133.3852
0.936216 80.972 133.0351
0.943000 80.915 132.6828
0.949834 80.857 132.3287
0.956717 80.798 131.9729
0.963649 80.739 131.6160
0.970632 80.678 131.2581
0.977666 80.616 130.8997
0.984750 80.553 130.5412
0.991886 80.489 130.1830
0.999074 80.424 129.8256
1.006314 80.357 129.4695
1.013606 80.289 129.1152
1.020951 80.221 128.7635
1.028349 80.151 128.4148
1.035801 80.079 128.0698
1.043307 80.006 127.7293
1.050867 79.932 127.3940
1.058482 79.857 127.0647
1.066152 79.780 126.7422
1.073878 79.702 126.4271
1.081660 79.622 126.1203
1.089498 79.540 125.8223
1.097393 79.457 125.5335
1.105345 79.371 125.2540
1.113355 79.284 124.9839
1.121423 79.194 124.7231
1.129549 79.102 124.4715
1.137734 79.008 124.2292
1.145979 78.912 123.9961
1.154283 78.813 123.7721
1.162647 78.712 123.5574
1.171072 78.609 123.3520
1.179558 78.503 123.1560
1.188106 78.396 122.9694
1.196715 78.286 122.7924
1.205387 78.174 122.6251
1.214122 78.061 122.4676
1.222920 77.945 122.3199
1.231782 77.828 122.1823
1.240708 77.709 122.0548
1.249699 77.588 121.9377
1.258754 77.466 121.8310
1.267876 77.342 121.7349
1.277063 77.217 121.6496
1.286318 77.091 121.5751
1.295639 76.963 121.5117
1.305027 76.834 121.4596
1.314484 76.704 121.4187
1.324009 76.573 121.3893
1.333604 76.442 121.3716
1.343268 76.310 121.3655
1.353002 76.177 121.3712
1.362806 76.044 121.3887
1.372681 75.911 121.4181
1.382628 75.778 121.4594
1.392647 75.645 121.5126
1.402739 75.512 121.5777
1.412904 75.379 121.6549
1.423142 75.246 121.7444
1.433455 75.114 121.8471
1.443843 74.982 121.9641
1.454305 74.850 122.0976
1.464844 74.717 122.2509
1.475459 74.583 122.4279
1.486150 74.446 122.6331
1.496920 74.306 122.8705
1.507767 74.163 123.1437
1.518693 74.017 123.4555
1.529698 73.868 123.8081
1.540783 73.716 124.2032
1.551948 73.562 124.6426
1.563194 73.406 125.1275
1.574521 73.247 125.6590
1.585931 73.088 126.2382
1.597423 72.928 126.8658
1.608999 72.768 127.5424
1.620658 72.608 128.2683
1.632402 72.450 129.0435
1.644232 72.293 129.8677
1.656146 72.139 130.7402
1.668147 71.988 131.6598
1.680235 71.841 132.6249
1.692411 71.699 133.6333
1.704675 71.562 134.6821
1.717028 71.432 135.7679
1.729470 71.308 136.8869
1.742003 71.193 138.0343
1.754626 71.088 139.2052
1.767341 70.992 140.3944
1.780147 70.907 141.5965
1.793047 70.835 142.8071
1.806040 70.776 144.0223
1.819128 70.730 145.2401
1.832310 70.700 146.4603
1.845587 70.685 147.6838
1.858961 70.685 148.9109
1.872432 70.701 150.1404
1.886001 70.732 151.3690
1.899667 70.778 152.5914
1.913433 70.837 153.8015
1.927299 70.910 154.9923
1.941265 70.995 156.1568
1.955332 71.091 157.2884
1.969501 71.197 158.3808
1.983773 71.313 159.4285
1.998148 71.437 160.4266
2.012627 71.569 161.3710
2.027212 71.706 162.2583
2.041902 71.847 163.0856
2.056698 71.992 163.8509
2.071602 72.139 164.5525
2.086614 72.287 165.1891
2.101734 72.435 165.7600
2.116964 72.580 166.2646
2.132304 72.723 166.7026
2.147756 72.862 167.0740
2.163320 72.997 167.3788
2.178996 73.127 167.6174
2.194786 73.254 167.7903
2.210690 73.378 167.8987
2.226710 73.500 167.9442
2.242845 73.623 167.9291
2.259098 73.746 167.8561
2.275468 73.869 167.7285
2.291957 73.994 167.5496
2.308566 74.120 167.3231
2.325295 74.246 167.0526
2.342145 74.373 166.7414
2.359117 74.499 166.3929
2.376212 74.625 166.0105
2.393431 74.750 165.5969
2.410775 74.874 165.1550
2.428244 74.996 164.6872
2.445840 75.116 164.1958
2.463564 75.233 163.6824
2.481416 75.346 163.1481
2.499397 75.456 162.5935
2.517509 75.562 162.0179
2.535752 75.663 161.4194
2.554127 75.760 160.7948
2.572635 75.852 160.1399
2.591277 75.940 159.4503
2.610055 76.023 158.7231
2.628968 76.102 157.9571
2.648019 76.177 157.1531
2.667208 76.248 156.3134
2.686535 76.315 155.4411
2.706003 76.378 154.5404
2.725612 76.438 153.6154
2.745363 76.495 152.6706
2.765257 76.549 151.7106
2.785295 76.600 150.7397
2.805478 76.648 149.7620
2.825808 76.694 148.7814
2.846285 76.737 147.8008
2.866910 76.777 146.8224
2.887685 76.816 145.8465
2.908611 76.851 144.8715
2.929688 76.885 143.8939
2.950917 76.915 142.9083
2.972301 76.943 141.9093
2.993839 76.967 140.8928
3.015534 76.987 139.8568
3.037386 77.005 138.8009
3.059396 77.019 137.7268
3.081565 77.030 136.6368
3.103896 77.038 135.5345
3.126388 77.043 134.4237
3.149043 77.046 133.3087
3.171862 77.047 132.1940
3.194847 77.045 131.0838
3.217998 77.042 129.9821
3.241317 77.036 128.8914
3.264805 77.029 127.8131
3.288463 77.020 126.7463
3.312293 77.008 125.6879
3.336295 76.994 124.6340
3.360471 76.978 123.5810
3.384822 76.959 122.5263
3.409350 76.937 121.4693
3.434056 76.913 120.4109
3.458940 76.887 119.3531
3.484005 76.859 118.2993
3.509252 76.830 117.2533
3.534681 76.800 116.2200
3.560295 76.769 115.2043
3.586094 76.738 114.2113
3.612081 76.707 113.2458
3.638255 76.676 112.3114
3.664620 76.644 111.4102
3.691175 76.612 110.5427
3.717923 76.580 109.7080
3.744864 76.547 108.9042
3.772001 76.513 108.1295
3.799335 76.479 107.3823
3.826866 76.446 106.6610
3.854597 76.414 105.9650
3.882529 76.384 105.2939
3.910664 76.356 104.6480
3.939002 76.332 104.0282
3.967546 76.312 103.4365
3.996296 76.296 102.8753
4.025255 76.285 102.3479
4.054423 76.279 101.8575
4.083804 76.277 101.4061
4.113396 76.279 100.9938
4.143204 76.286 100.6188
4.173227 76.298 100.2770
4.203468 76.315 99.9636
4.233928 76.338 99.6728
4.264609 76.366 99.3986
4.295512 76.400 99.1359
4.326639 76.442 98.8805
4.357992 76.491 98.6303
4.389572 76.547 98.3852
4.421380 76.612 98.1466
4.453419 76.684 97.9164
4.485691 76.765 97.6947
4.518196 76.853 97.4793
4.550936 76.947 97.2661
4.583914 77.048 97.0491
4.617131 77.154 96.8221
4.650589 77.265 96.5786
4.684289 77.379 96.3131
4.718233 77.497 96.0216
4.752424 77.619 95.7023
4.786862 77.744 95.3555
4.821549 77.872 94.9831
4.856488 78.005 94.5871
4.891680 78.140 94.1694
4.927127 78.277 93.7310
4.962831 78.416 93.2722
4.998794 78.555 92.7926
5.035017 78.694 92.2914
5.071503 78.832 91.7676
5.108253 78.967 91.2200
5.145270 79.101 90.6481
5.182555 79.232 90.0525
5.220110 79.361 89.4350
5.257937 79.489 88.7987
5.296038 79.613 88.1477
5.334415 79.735 87.4861
5.373071 79.854 86.8176
5.412006 79.969 86.1452
5.451224 80.080 85.4705
5.490725 80.187 84.7938
5.530514 80.290 84.1145
5.570590 80.388 83.4327
5.610957 80.482 82.7495
5.651616 80.571 82.0678
5.692570 80.657 81.3916
5.733821 80.739 80.7254
5.775370 80.816 80.0735
5.817221 80.890 79.4388
5.859375 80.960 78.8231
5.901834 81.027 78.2265
5.944602 81.089 77.6487
5.987679 81.148 77.0900
6.031068 81.204 76.5513
6.074771 81.258 76.0346
6.118792 81.309 75.5424
6.163131 81.359 75.0771
6.207792 81.407 74.6406
6.252776 81.454 74.2338
6.298086 81.500 73.8567
6.343725 81.546 73.5080
6.389694 81.591 73.1862
6.435996 81.636 72.8894
6.482634 81.682 72.6159
6.529610 81.729 72.3645
6.576926 81.778 72.1342
6.624585 81.829 71.9244
6.672590 81.882 71.7339
6.720942 81.938 71.5604
6.769645 81.995 71.4005
6.818700 82.054 71.2501
6.868111 82.116 71.1051
6.917881 82.181 70.9619
6.968010 82.247 70.8179
7.018504 82.316 70.6715
7.069362 82.387 70.5213
7.120590 82.461 70.3652
7.172189 82.535 70.2007
7.224161 82.610 70.0251
7.276511 82.686 69.8358
7.329239 82.762 69.6310
7.382350 82.838 69.4100
7.435845 82.914 69.1727
7.489729 82.989 68.9197
7.544002 83.062 68.6518
7.598669 83.134 68.3695
7.653732 83.204 68.0734
7.709194 83.271 67.7640
7.765058 83.336 67.4420
7.821327 83.397 67.1088
7.878004 83.456 66.7667
7.935091 83.512 66.4181
7.992592 83.564 66.0656
8.050510 83.613 65.7111
8.108847 83.659 65.3561
8.167607 83.701 65.0018
8.226793 83.741 64.6499
8.286408 83.777 64.3021
8.346454 83.811 63.9604
8.406936 83.843 63.6265
8.467856 83.873 63.3015
8.529218 83.901 62.9858
8.591024 83.927 62.6794
8.653278 83.952 62.3822
8.715983 83.976 62.0938
8.779143 84.000 61.8140
8.842760 84.024 61.5423
8.906839 84.047 61.2776
8.971381 84.071 61.0184
9.036392 84.096 60.7628
9.101873 84.121 60.5087
9.167829 84.146 60.2542
9.234263 84.173 59.9979
9.301178 84.201 59.7381
9.368578 84.229 59.4731
9.436467 84.258 59.2009
9.504847 84.287 58.9200
9.573723 84.316 58.6290
9.643099 84.345 58.3271
9.712976 84.373 58.0141
9.783361 84.399 57.6896
9.854255 84.423 57.3534
9.925663 84.444 57.0058
9.997588 84.462 56.6470
10.070035 84.477 56.2778
10.143007 84.489 55.8994
10.216507 84.498 55.5128
10.290540 84.504 55.1193
10.365109 84.509 54.7196
10.440219 84.512 54.3149
10.515873 84.514 53.9064
10.592076 84.515 53.4952
10.668830 84.515 53.0820
10.746141 84.514 52.6675
10.824012 84.513 52.2520
10.902447 84.512 51.8358
10.981451 84.512 51.4191
11.061027 84.511 51.0017
11.141180 84.511 50.5835
11.221913 84.512 50.1641
11.303232 84.513 49.7430
11.385140 84.515 49.3199
11.467641 84.517 48.8943
11.550741 84.521 48.4661
11.634442 84.526 48.0350
11.718750 84.531 47.6009
11.803669 84.538 47.1638
11.889203 84.546 46.7240
11.975357 84.554 46.2821
12.062136 84.564 45.8384
12.149543 84.574 45.3938
12.237583 84.585 44.9489
12.326262 84.596 44.5045
12.415583 84.608 44.0615
12.505552 84.620 43.6206
12.596172 84.633 43.1824
12.687449 84.646 42.7476
12.779387 84.660 42.3165
12.871992 84.674 41.8893
12.965268 84.689 41.4663
13.059220 84.705 41.0473
13.153852 84.722 40.6322
13.249170 84.740 40.2208
13.345179 84.759 39.8130
13.441884 84.778 39.4084
13.539289 84.799 39.0070
13.637401 84.820 38.6088
13.736223 84.841 38.2138
13.835761 84.862 37.8223
13.936021 84.883 37.4348
14.037007 84.904 37.0517
14.138725 84.925 36.6736
14.241180 84.945 36.3012
14.344377 84.964 35.9352
14.448323 84.983 35.5761
14.553021 85.002 35.2243
14.658478 85.020 34.8801
14.764700 85.037 34.5435
14.871691 85.055 34.2143
14.979457 85.072 33.8920
15.088005 85.089 33.5760
15.197339 85.107 33.2654
15.307465 85.124 32.9593
15.418389 85.140 32.6566
15.530117 85.157 32.3565
15.642655 85.173 32.0580
15.756008 85.188 31.7605
15.870182 85.202 31.4635
15.985184 85.215 31.1667
16.101019 85.227 30.8702
16.217694 85.238 30.5741
16.335214 85.248 30.2787
16.453586 85.256 29.9844
16.572815 85.264 29.6913
16.692909 85.270 29.3998
16.813872 85.276 29.1098
16.935713 85.281 28.8211
17.058436 85.285 28.5333
17.182048 85.289 28.2458
17.306556 85.293 27.9575
17.431967 85.296 27.6675
17.558286 85.299 27.3747
17.685521 85.302 27.0782
17.813677 85.304 26.7769
17.942762 85.306 26.4703
18.072783 85.307 26.1579
18.203746 85.308 25.8395
18.335658 85.309 25.5152
18.468526 85.309 25.1853
18.602356 85.308 24.8503
18.737156 85.307 24.5106
18.872934 85.306 24.1669
19.009695 85.306 23.8196
19.147447 85.305 23.4690
19.286197 85.305 23.1155
19.425953 85.305 22.7591
19.566721 85.305 22.3999
19.708510 85.306 22.0379
19.851326 85.308 21.6730
19.995177 85.310 21.3054
20.140070 85.312 20.9352
20.286013 85.316 20.5628
20.433014 85.319 20.1884
20.581080 85.324 19.8127
20.730219 85.329 19.4363
20.880439 85.335 19.0597
21.031747 85.341 18.6836
21.184152 85.348 18.3087
21.337661 85.356 17.9356
21.492282 85.365 17.5649
21.648024 85.374 17.1972
21.804895 85.384 16.8330
21.962902 85.394 16.4729
22.122054 85.404 16.1176
22.282360 85.414 15.7675
22.443827 85.425 15.4230
22.606464 85.436 15.0845
22.770280 85.446 14.7519
22.935283 85.457 14.4253
23.101481 85.468 14.1042
23.268884 85.478 13.7883
23.437500 85.488 13.4770
23.607338 85.498 13.1697
23.778406 85.507 12.8660
23.950714 85.515 12.5655
24.124271 85.523 12.2682
24.299086 85.529 11.9738
24.475167 85.534 11.6827
24.652524 85.538 11.3947
24.831166 85.541 11.1098
25.011103 85.543 10.8278
25.192344 85.545 10.5481
25.374898 85.546 10.2699
25.558775 85.546 9.9923
25.743984 85.545 9.7139
25.930536 85.544 9.4336
26.118439 85.543 9.1505
26.307704 85.541 8.8635
26.498341 85.539 8.5720
26.690359 85.536 8.2757
26.883768 85.532 7.9745
27.078579 85.529 7.6683
27.274801 85.524 7.3574
27.472446 85.520 7.0418
27.671522 85.515 6.7218
27.872042 85.510 6.3976
28.074014 85.506 6.0692
28.277450 85.501 5.7371
28.482360 85.496 5.4014
28.688755 85.492 5.0628
28.896645 85.488 4.7217
29.106042 85.484 4.3791
29.316957 85.480 4.0358
29.529400 85.477 3.6927
29.743382 85.474 3.3508
29.958915 85.472 3.0109
30.176009 85.470 2.6737
30.394677 85.470 2.3394
30.614929 85.469 2.0081
30.836778 85.470 1.6796
31.060234 85.471 1.3534
31.285309 85.473 1.0291
31.512015 85.474 0.7063
31.740364 85.476 0.3847
31.970368 85.478 0.0644
32.202039 85.479 -0.2545
32.435388 85.480 -0.5717
32.670428 85.480 -0.8869
32.907171 85.480 -1.2000
33.145630 85.479 -1.5112
33.385817 85.477 -1.8208
33.627745 85.475 -2.1293
33.871425 85.472 -2.4371
34.116871 85.468 -2.7444
34.364096 85.464 -3.0514
34.613113 85.458 -3.3583
34.863934 85.452 -3.6649
35.116572 85.446 -3.9715
35.371041 85.439 -4.2782
35.627354 85.431 -4.5854
35.885525 85.424 -4.8938
36.145566 85.416 -5.2038
36.407492 85.408 -5.5160
36.671316 85.400 -5.8309
36.937051 85.392 -6.1488
37.204712 85.384 -6.4696
37.474313 85.377 -6.7930
37.745867 85.369 -7.1183
38.019389 85.360 -7.4443
38.294893 85.352 -7.7699
38.572394 85.344 -8.0939
38.851905 85.335 -8.4155
39.133442 85.327 -8.7346
39.417019 85.320 -9.0516
39.702651 85.312 -9.3674
39.990353 85.305 -9.6830
40.280140 85.298 -9.9992
40.572026 85.291 -10.3164
40.866028 85.284 -10.6343
41.162160 85.276 -10.9519
41.460438 85.267 -11.2677
41.760877 85.258 -11.5800
42.063494 85.247 -11.8872
42.368303 85.236 -12.1883
42.675322 85.225 -12.4834
42.984565 85.214 -12.7738
43.296048 85.204 -13.0617
43.609789 85.194 -13.3498
43.925804 85.185 -13.6405
44.244108 85.176 -13.9356
44.564719 85.167 -14.2361
44.887654 85.158 -14.5425
45.212928 85.148 -14.8555
45.540560 85.139 -15.1758
45.870565 85.129 -15.5039
46.202962 85.117 -15.8393
46.537768 85.105 -16.1798
46.875000 85.091 -16.5221
47.214676 85.076 -16.8618
47.556813 85.059 -17.1954
47.901429 85.043 -17.5209
48.248542 85.028 -17.8386
48.598171 85.013 -18.1507
48.950334 85.000 -18.4603
49.305048 84.989 -18.7712
49.662333 84.979 -19.0873
50.022206 84.970 -19.4113
50.384688 84.960 -19.7440
50.749796 84.950 -20.0836
51.117550 84.939 -20.4254
51.487969 84.926 -20.7634
51.861072 84.911 -21.0923
52.236879 84.896 -21.4099
52.615409 84.880 -21.7171
52.996681 84.865 -22.0166
53.380717 84.849 -22.3105
53.767536 84.832 -22.5984
54.157158 84.815 -22.8783
54.549603 84.797 -23.1489
54.944892 84.780 -23.4128
55.343045 84.765 -23.6763
55.744084 84.751 -23.9485
56.148028 84.738 -24.2368
56.554900 84.725 -24.5446
56.964720 84.711 -24.8702
57.377510 84.696 -25.2088
57.793291 84.679 -25.5555
58.212085 84.662 -25.9066
58.633914 84.644 -26.2605
59.058799 84.627 -26.6163
59.486764 84.609 -26.9719
59.917829 84.591 -27.3243
60.352019 84.574 -27.6705
60.789354 84.556 -28.0090
61.229859 84.539 -28.3405
61.673556 84.523 -28.6669
62.120468 84.505 -28.9894
62.570618 84.487 -29.3072
63.024031 84.466 -29.6183
63.480729 84.445 -29.9208
63.940736 84.421 -30.2151
64.404077 84.397 -30.5039
64.870776 84.372 -30.7914
65.340856 84.345 -31.0799
65.814343 84.318 -31.3689
66.291261 84.290 -31.6550
66.771635 84.263 -31.9360
67.255489 84.238 -32.2144
67.742850 84.216 -32.4990
68.233743 84.198 -32.8003
68.728193 84.180 -33.1233
69.226226 84.162 -33.4623
69.727867 84.142 -33.8020
70.233144 84.120 -34.1266
70.742083 84.099 -34.4310
71.254709 84.079 -34.7246
71.771050 84.060 -35.0232
72.291132 84.039 -35.3349
72.814984 84.014 -35.6528
73.342631 83.984 -35.9606
73.874102 83.951 -36.2470
74.409424 83.918 -36.5158
74.948626 83.885 -36.7821
75.491734 83.852 -37.0594
76.038779 83.817 -37.3485
76.589787 83.780 -37.6368
77.144788 83.741 -37.9086
77.703811 83.702 -38.1555
78.266885 83.667 -38.3802
78.834039 83.636 -38.5942
79.405303 83.611 -38.8127
79.980706 83.591 -39.0524
80.560280 83.574 -39.3277
81.144053 83.557 -39.6480
81.732056 83.538 -40.0132
82.324320 83.514 -40.4096
82.920876 83.484 -40.8102
83.521755 83.448 -41.1828
84.126988 83.411 -41.5009
84.736607 83.377 -41.7535
85.350643 83.351 -41.9448
85.969129 83.333 -42.0889
86.592097 83.324 -42.2014
87.219579 83.322 -42.2913
87.851608 83.322 -42.3577
88.488217 83.324 -42.3945
89.129439 83.326 -42.4020
89.775308 83.330 -42.3975
90.425856 83.335 -42.4103
91.081119 83.340 -42.4664
91.741131 83.342 -42.5825
92.405925 83.342 -42.7791
93.075536 83.338 -43.0792
93.750000 83.328 -43.4818
94.429351 83.310 -43.9532
95.113625 83.290 -44.4644
95.802858 83.270 -45.0199
96.497085 83.251 -45.6297
97.196342 83.228 -46.2717
97.900667 83.200 -46.8993
98.610096 83.168 -47.4758
99.324665 83.134 -47.9873
100.044413 83.101 -48.4369
100.769376 83.068 -48.8379
101.499592 83.036 -49.2062
