* Measurement data measured by REW V5.31
* Source: EXCL: Microphone (USB Sound Device        ), MICROPHONE (Master Volume), L, volume: 0.560
* Format: 256k Log Swept Sine, 1 sweep at -5.0 dBFS with no timing reference
* Dated: May 13, 2024 12:18:35 AM
* REW Settings:
*  C-weighting compensation: Off
*  Target level: 75.0 dB
* Note: KZ Vader 1000 L
* Measurement: L KZ Vader 1000
* Smoothing: 1/12 octave
* Frequency Step: 96 ppo
* Start Frequency: 0.36621094 Hz
*
* Freq(Hz) SPL(dB) Phase(degrees)
0.366211 83.303 158.9279
0.368865 83.298 158.9068
0.371538 83.291 158.8751
0.374230 83.282 158.8354
0.376942 83.272 158.7896
0.379673 83.261 158.7392
0.382424 83.250 158.6853
0.385196 83.238 158.6285
0.387987 83.226 158.5691
0.390798 83.214 158.5073
0.393630 83.202 158.4432
0.396483 83.190 158.3768
0.399356 83.178 158.3082
0.402250 83.165 158.2372
0.405165 83.153 158.1640
0.408101 83.140 158.0885
0.411058 83.128 158.0106
0.414037 83.115 157.9304
0.417037 83.102 157.8478
0.420059 83.089 157.7629
0.423103 83.076 157.6755
0.426169 83.063 157.5857
0.429257 83.050 157.4935
0.432368 83.036 157.3988
0.435501 83.023 157.3017
0.438656 83.009 157.2020
0.441835 82.996 157.0998
0.445037 82.982 156.9951
0.448262 82.968 156.8878
0.451510 82.954 156.7780
0.454782 82.940 156.6656
0.458077 82.926 156.5506
0.461397 82.912 156.4330
0.464740 82.898 156.3127
0.468108 82.883 156.1899
0.471500 82.869 156.0644
0.474917 82.854 155.9362
0.478358 82.839 155.8054
0.481825 82.824 155.6719
0.485316 82.809 155.5357
0.488833 82.794 155.3969
0.492375 82.779 155.2553
0.495943 82.764 155.1111
0.499537 82.748 154.9642
0.503157 82.733 154.8146
0.506803 82.717 154.6623
0.510475 82.702 154.5074
0.514175 82.686 154.3497
0.517900 82.670 154.1894
0.521653 82.654 154.0264
0.525434 82.637 153.8608
0.529241 82.621 153.6926
0.533076 82.605 153.5217
0.536939 82.588 153.3482
0.540830 82.571 153.1722
0.544749 82.555 152.9935
0.548696 82.538 152.8124
0.552673 82.521 152.6288
0.556677 82.504 152.4426
0.560711 82.486 152.2541
0.564774 82.469 152.0632
0.568867 82.451 151.8699
0.572989 82.434 151.6743
0.577141 82.416 151.4764
0.581324 82.398 151.2763
0.585536 82.380 151.0741
0.589779 82.362 150.8698
0.594053 82.343 150.6635
0.598358 82.325 150.4552
0.602694 82.306 150.2450
0.607061 82.288 150.0331
0.611460 82.269 149.8194
0.615891 82.250 149.6041
0.620354 82.231 149.3873
0.624849 82.211 149.1691
0.629377 82.192 148.9495
0.633938 82.172 148.7288
0.638532 82.153 148.5069
0.643159 82.133 148.2842
0.647819 82.113 148.0606
0.652514 82.093 147.8363
0.657242 82.073 147.6115
0.662005 82.052 147.3864
0.666802 82.032 147.1610
0.671634 82.011 146.9357
0.676501 81.990 146.7104
0.681403 81.969 146.4855
0.686341 81.948 146.2612
0.691314 81.927 146.0376
0.696324 81.905 145.8150
0.701370 81.883 145.5934
0.706452 81.861 145.3732
0.711571 81.839 145.1543
0.716728 81.815 144.9368
0.721921 81.792 144.7205
0.727153 81.766 144.5050
0.732422 81.740 144.2897
0.737729 81.712 144.0739
0.743075 81.682 143.8566
0.748460 81.651 143.6371
0.753883 81.618 143.4149
0.759346 81.585 143.1894
0.764849 81.551 142.9606
0.770391 81.517 142.7281
0.775974 81.481 142.4921
0.781597 81.446 142.2522
0.787261 81.409 142.0086
0.792966 81.372 141.7613
0.798712 81.335 141.5101
0.804500 81.297 141.2552
0.810329 81.258 140.9966
0.816201 81.219 140.7341
0.822116 81.179 140.4679
0.828073 81.139 140.1981
0.834074 81.098 139.9245
0.840118 81.056 139.6473
0.846206 81.014 139.3665
0.852338 80.971 139.0821
0.858514 80.927 138.7943
0.864735 80.883 138.5031
0.871001 80.838 138.2085
0.877313 80.792 137.9107
0.883670 80.746 137.6098
0.890074 80.699 137.3058
0.896524 80.651 136.9990
0.903020 80.602 136.6894
0.909564 80.553 136.3772
0.916155 80.503 136.0627
0.922794 80.452 135.7458
0.929481 80.400 135.4270
0.936216 80.348 135.1063
0.943000 80.295 134.7841
0.949834 80.241 134.4606
0.956717 80.186 134.1362
0.963649 80.130 133.8110
0.970632 80.074 133.4854
0.977666 80.016 133.1599
0.984750 79.958 132.8347
0.991886 79.898 132.5104
0.999074 79.838 132.1873
1.006314 79.777 131.8660
1.013606 79.715 131.5469
1.020951 79.652 131.2307
1.028349 79.588 130.9178
1.035801 79.523 130.6090
1.043307 79.457 130.3049
1.050867 79.390 130.0062
1.058482 79.322 129.7135
1.066152 79.253 129.4278
1.073878 79.182 129.1496
1.081660 79.111 128.8796
1.089498 79.038 128.6185
1.097393 78.963 128.3665
1.105345 78.887 128.1241
1.113355 78.810 127.8913
1.121423 78.730 127.6681
1.129549 78.648 127.4546
1.137734 78.565 127.2507
1.145979 78.479 127.0565
1.154283 78.391 126.8721
1.162647 78.301 126.6974
1.171072 78.210 126.5326
1.179558 78.116 126.3777
1.188106 78.021 126.2329
1.196715 77.924 126.0982
1.205387 77.825 125.9737
1.214122 77.724 125.8596
1.222920 77.622 125.7559
1.231782 77.519 125.6627
1.240708 77.414 125.5802
1.249699 77.308 125.5085
1.258754 77.201 125.4476
1.267876 77.092 125.3976
1.277063 76.983 125.3587
1.286318 76.873 125.3309
1.295639 76.762 125.3143
1.305027 76.650 125.3089
1.314484 76.538 125.3148
1.324009 76.426 125.3320
1.333604 76.313 125.3605
1.343268 76.200 125.4002
1.353002 76.088 125.4511
1.362806 75.975 125.5130
1.372681 75.863 125.5858
1.382628 75.752 125.6692
1.392647 75.641 125.7631
1.402739 75.531 125.8673
1.412904 75.422 125.9815
1.423142 75.314 126.1059
1.433455 75.207 126.2407
1.443843 75.101 126.3869
1.454305 74.996 126.5462
1.464844 74.892 126.7210
1.475459 74.788 126.9148
1.486150 74.683 127.1312
1.496920 74.577 127.3735
1.507767 74.470 127.6442
1.518693 74.361 127.9453
1.529698 74.252 128.2781
1.540783 74.142 128.6436
1.551948 74.030 129.0424
1.563194 73.919 129.4747
1.574521 73.806 129.9409
1.585931 73.694 130.4407
1.597423 73.583 130.9741
1.608999 73.472 131.5405
1.620658 73.362 132.1393
1.632402 73.253 132.7697
1.644232 73.147 133.4305
1.656146 73.043 134.1203
1.668147 72.941 134.8376
1.680235 72.843 135.5801
1.692411 72.749 136.3458
1.704675 72.659 137.1319
1.717028 72.573 137.9357
1.729470 72.493 138.7537
1.742003 72.418 139.5827
1.754626 72.350 140.4191
1.767341 72.289 141.2593
1.780147 72.236 142.0999
1.793047 72.191 142.9382
1.806040 72.155 143.7723
1.819128 72.128 144.6019
1.832310 72.112 145.4278
1.845587 72.105 146.2520
1.858961 72.110 147.0763
1.872432 72.125 147.9013
1.886001 72.151 148.7260
1.899667 72.187 149.5480
1.913433 72.233 150.3642
1.927299 72.288 151.1705
1.941265 72.351 151.9630
1.955332 72.423 152.7373
1.969501 72.502 153.4894
1.983773 72.589 154.2154
1.998148 72.681 154.9117
2.012627 72.779 155.5750
2.027212 72.881 156.2022
2.041902 72.987 156.7906
2.056698 73.096 157.3376
2.071602 73.207 157.8412
2.086614 73.319 158.2992
2.101734 73.432 158.7101
2.116964 73.544 159.0723
2.132304 73.655 159.3846
2.147756 73.765 159.6459
2.163320 73.872 159.8556
2.178996 73.977 160.0136
2.194786 74.081 160.1200
2.210690 74.184 160.1760
2.226710 74.287 160.1829
2.242845 74.391 160.1426
2.259098 74.496 160.0573
2.275468 74.603 159.9293
2.291957 74.712 159.7608
2.308566 74.823 159.5543
2.325295 74.935 159.3120
2.342145 75.047 159.0361
2.359117 75.161 158.7289
2.376212 75.275 158.3924
2.393431 75.388 158.0285
2.410775 75.502 157.6391
2.428244 75.614 157.2257
2.445840 75.725 156.7897
2.463564 75.833 156.3321
2.481416 75.940 155.8537
2.499397 76.044 155.3545
2.517509 76.145 154.8340
2.535752 76.242 154.2907
2.554127 76.336 153.7221
2.572635 76.426 153.1253
2.591277 76.514 152.4972
2.610055 76.598 151.8359
2.628968 76.679 151.1409
2.648019 76.758 150.4134
2.667208 76.834 149.6553
2.686535 76.907 148.8695
2.706003 76.978 148.0595
2.725612 77.046 147.2288
2.745363 77.113 146.3809
2.765257 77.177 145.5197
2.785295 77.239 144.6485
2.805478 77.299 143.7708
2.825808 77.356 142.8894
2.846285 77.412 142.0067
2.866910 77.467 141.1243
2.887685 77.519 140.2424
2.908611 77.569 139.3596
2.929688 77.617 138.4732
2.950917 77.663 137.5788
2.972301 77.706 136.6725
2.993839 77.747 135.7513
3.015534 77.785 134.8139
3.037386 77.821 133.8605
3.059396 77.854 132.8926
3.081565 77.884 131.9126
3.103896 77.913 130.9234
3.126388 77.939 129.9285
3.149043 77.963 128.9312
3.171862 77.986 127.9353
3.194847 78.007 126.9443
3.217998 78.027 125.9609
3.241317 78.045 124.9874
3.264805 78.061 124.0244
3.288463 78.077 123.0713
3.312293 78.090 122.1255
3.336295 78.102 121.1838
3.360471 78.112 120.2436
3.384822 78.119 119.3030
3.409350 78.125 118.3619
3.434056 78.129 117.4211
3.458940 78.131 116.4826
3.484005 78.132 115.5489
3.509252 78.132 114.6234
3.534681 78.132 113.7097
3.560295 78.131 112.8115
3.586094 78.131 111.9327
3.612081 78.130 111.0764
3.638255 78.129 110.2452
3.664620 78.129 109.4404
3.691175 78.128 108.6617
3.717923 78.127 107.9083
3.744864 78.125 107.1785
3.772001 78.124 106.4709
3.799335 78.122 105.7841
3.826866 78.121 105.1171
3.854597 78.121 104.4692
3.882529 78.123 103.8403
3.910664 78.126 103.2304
3.939002 78.132 102.6402
3.967546 78.140 102.0709
3.996296 78.152 101.5242
4.025255 78.167 101.0020
4.054423 78.186 100.5062
4.083804 78.208 100.0380
4.113396 78.233 99.5973
4.143204 78.261 99.1825
4.173227 78.293 98.7908
4.203468 78.328 98.4187
4.233928 78.367 98.0624
4.264609 78.410 97.7180
4.295512 78.457 97.3819
4.326639 78.509 97.0517
4.357992 78.565 96.7259
4.389572 78.627 96.4046
4.421380 78.694 96.0891
4.453419 78.767 95.7805
4.485691 78.844 95.4791
4.518196 78.927 95.1834
4.550936 79.014 94.8907
4.583914 79.105 94.5969
4.617131 79.200 94.2978
4.650589 79.298 93.9889
4.684289 79.399 93.6666
4.718233 79.502 93.3281
4.752424 79.608 92.9720
4.786862 79.717 92.5984
4.821549 79.828 92.2086
4.856488 79.941 91.8038
4.891680 80.057 91.3851
4.927127 80.174 90.9529
4.962831 80.293 90.5072
4.998794 80.411 90.0475
5.035017 80.530 89.5729
5.071503 80.647 89.0824
5.108253 80.764 88.5751
5.145270 80.879 88.0506
5.182555 80.993 87.5091
5.220110 81.105 86.9518
5.257937 81.216 86.3809
5.296038 81.326 85.7990
5.334415 81.433 85.2090
5.373071 81.538 84.6135
5.412006 81.641 84.0146
5.451224 81.740 83.4133
5.490725 81.837 82.8100
5.530514 81.930 82.2042
5.570590 82.020 81.5959
5.610957 82.106 80.9862
5.651616 82.190 80.3770
5.692570 82.270 79.7715
5.733821 82.348 79.1729
5.775370 82.422 78.5843
5.817221 82.494 78.0079
5.859375 82.562 77.4450
5.901834 82.628 76.8958
5.944602 82.691 76.3599
5.987679 82.751 75.8378
6.031068 82.809 75.3300
6.074771 82.864 74.8381
6.118792 82.918 74.3639
6.163131 82.971 73.9092
6.207792 83.022 73.4753
6.252776 83.073 73.0628
6.298086 83.122 72.6717
6.343725 83.171 72.3011
6.389694 83.219 71.9498
6.435996 83.267 71.6166
6.482634 83.316 71.3003
6.529610 83.365 71.0001
6.576926 83.415 70.7153
6.624585 83.467 70.4455
6.672590 83.519 70.1898
6.720942 83.573 69.9467
6.769645 83.628 69.7139
6.818700 83.685 69.4884
6.868111 83.742 69.2674
6.917881 83.802 69.0483
6.968010 83.863 68.8295
7.018504 83.925 68.6098
7.069362 83.989 68.3881
7.120590 84.054 68.1630
7.172189 84.120 67.9327
7.224161 84.186 67.6950
7.276511 84.252 67.4482
7.329239 84.319 67.1909
7.382350 84.385 66.9224
7.435845 84.451 66.6427
7.489729 84.517 66.3520
7.544002 84.581 66.0506
7.598669 84.644 65.7390
7.653732 84.706 65.4173
7.709194 84.765 65.0857
7.765058 84.823 64.7447
7.821327 84.878 64.3953
7.878004 84.932 64.0389
7.935091 84.982 63.6773
7.992592 85.031 63.3122
8.050510 85.077 62.9449
8.108847 85.120 62.5764
8.167607 85.161 62.2078
8.226793 85.200 61.8399
8.286408 85.236 61.4742
8.346454 85.270 61.1121
8.406936 85.302 60.7547
8.467856 85.333 60.4029
8.529218 85.362 60.0569
8.591024 85.390 59.7168
8.653278 85.417 59.3825
8.715983 85.443 59.0539
8.779143 85.468 58.7307
8.842760 85.493 58.4127
8.906839 85.518 58.0990
8.971381 85.543 57.7888
9.036392 85.568 57.4805
9.101873 85.594 57.1729
9.167829 85.619 56.8647
9.234263 85.646 56.5547
9.301178 85.672 56.2418
9.368578 85.699 55.9249
9.436467 85.726 55.6026
9.504847 85.754 55.2736
9.573723 85.781 54.9371
9.643099 85.807 54.5925
9.712976 85.833 54.2395
9.783361 85.857 53.8779
9.854255 85.879 53.5075
9.925663 85.898 53.1283
9.997588 85.914 52.7405
10.070035 85.928 52.3448
10.143007 85.938 51.9418
10.216507 85.946 51.5322
10.290540 85.952 51.1170
10.365109 85.956 50.6966
10.440219 85.959 50.2720
10.515873 85.961 49.8439
10.592076 85.962 49.4131
10.668830 85.962 48.9803
10.746141 85.962 48.5459
10.824012 85.961 48.1103
10.902447 85.960 47.6737
10.981451 85.959 47.2364
11.061027 85.959 46.7983
11.141180 85.958 46.3596
11.221913 85.958 45.9199
11.303232 85.958 45.4793
11.385140 85.959 45.0375
11.467641 85.960 44.5944
11.550741 85.962 44.1500
11.634442 85.965 43.7042
11.718750 85.968 43.2571
11.803669 85.973 42.8089
11.889203 85.978 42.3598
11.975357 85.983 41.9102
12.062136 85.990 41.4606
12.149543 85.997 41.0116
12.237583 86.005 40.5634
12.326262 86.014 40.1168
12.415583 86.023 39.6723
12.505552 86.032 39.2302
12.596172 86.042 38.7910
12.687449 86.052 38.3548
12.779387 86.063 37.9218
12.871992 86.075 37.4921
12.965268 86.087 37.0655
13.059220 86.100 36.6418
13.153852 86.114 36.2209
13.249170 86.128 35.8024
13.345179 86.144 35.3861
13.441884 86.160 34.9719
13.539289 86.176 34.5597
13.637401 86.193 34.1495
13.736223 86.210 33.7414
13.835761 86.227 33.3359
13.936021 86.243 32.9333
14.037007 86.259 32.5344
14.138725 86.275 32.1396
14.241180 86.290 31.7498
14.344377 86.304 31.3656
14.448323 86.317 30.9876
14.553021 86.330 30.6163
14.658478 86.343 30.2520
14.764700 86.355 29.8947
14.871691 86.366 29.5442
14.979457 86.378 29.2001
15.088005 86.389 28.8617
15.197339 86.400 28.5282
15.307465 86.411 28.1987
15.418389 86.422 27.8721
15.530117 86.433 27.5473
15.642655 86.443 27.2236
15.756008 86.453 26.9001
15.870182 86.461 26.5762
15.985184 86.469 26.2515
16.101019 86.476 25.9261
16.217694 86.482 25.6000
16.335214 86.486 25.2735
16.453586 86.489 24.9469
16.572815 86.491 24.6208
16.692909 86.492 24.2955
16.813872 86.492 23.9712
16.935713 86.492 23.6482
17.058436 86.491 23.3263
17.182048 86.489 23.0051
17.306556 86.487 22.6843
17.431967 86.485 22.3630
17.558286 86.482 22.0404
17.685521 86.479 21.7156
17.813677 86.476 21.3878
17.942762 86.472 21.0562
18.072783 86.468 20.7201
18.203746 86.464 20.3792
18.335658 86.460 20.0333
18.468526 86.455 19.6823
18.602356 86.450 19.3265
18.737156 86.445 18.9662
18.872934 86.440 18.6019
19.009695 86.435 18.2340
19.147447 86.430 17.8631
19.286197 86.425 17.4898
19.425953 86.420 17.1144
19.566721 86.416 16.7374
19.708510 86.412 16.3590
19.851326 86.408 15.9796
19.995177 86.405 15.5994
20.140070 86.402 15.2185
20.286013 86.400 14.8372
20.433014 86.399 14.4555
20.581080 86.398 14.0737
20.730219 86.398 13.6918
20.880439 86.399 13.3100
21.031747 86.400 12.9285
21.184152 86.402 12.5474
21.337661 86.405 12.1670
21.492282 86.408 11.7879
21.648024 86.412 11.4105
21.804895 86.416 11.0355
21.962902 86.420 10.6637
22.122054 86.424 10.2959
22.282360 86.428 9.9330
22.443827 86.431 9.5757
22.606464 86.435 9.2245
22.770280 86.438 8.8798
22.935283 86.441 8.5417
23.101481 86.443 8.2100
23.268884 86.445 7.8844
23.437500 86.447 7.5642
23.607338 86.449 7.2490
23.778406 86.450 6.9380
23.950714 86.450 6.6307
24.124271 86.450 6.3267
24.299086 86.448 6.0256
24.475167 86.446 5.7268
24.652524 86.444 5.4298
24.831166 86.440 5.1342
25.011103 86.436 4.8390
25.192344 86.431 4.5436
25.374898 86.426 4.2469
25.558775 86.420 3.9482
25.743984 86.413 3.6470
25.930536 86.405 3.3429
26.118439 86.396 3.0358
26.307704 86.387 2.7262
26.498341 86.377 2.4143
26.690359 86.366 2.1008
26.883768 86.354 1.7858
27.078579 86.343 1.4696
27.274801 86.331 1.1517
27.472446 86.320 0.8318
27.671522 86.308 0.5091
27.872042 86.297 0.1831
28.074014 86.286 -0.1465
28.277450 86.276 -0.4796
28.482360 86.266 -0.8158
28.688755 86.256 -1.1543
28.896645 86.246 -1.4942
29.106042 86.237 -1.8347
29.316957 86.228 -2.1750
29.529400 86.219 -2.5149
29.743382 86.212 -2.8544
29.958915 86.205 -3.1936
30.176009 86.198 -3.5325
30.394677 86.192 -3.8708
30.614929 86.186 -4.2080
30.836778 86.180 -4.5430
31.060234 86.174 -4.8745
31.285309 86.167 -5.2014
31.512015 86.161 -5.5230
31.740364 86.154 -5.8391
31.970368 86.147 -6.1503
32.202039 86.140 -6.4578
32.435388 86.133 -6.7634
32.670428 86.126 -7.0685
32.907171 86.119 -7.3743
33.145630 86.111 -7.6814
33.385817 86.102 -7.9895
33.627745 86.091 -8.2976
33.871425 86.080 -8.6046
34.116871 86.067 -8.9094
34.364096 86.054 -9.2115
34.613113 86.040 -9.5108
34.863934 86.026 -9.8083
35.116572 86.012 -10.1053
35.371041 85.998 -10.4033
35.627354 85.983 -10.7037
35.885525 85.969 -11.0072
36.145566 85.955 -11.3139
36.407492 85.940 -11.6237
36.671316 85.925 -11.9360
36.937051 85.910 -12.2502
37.204712 85.896 -12.5657
37.474313 85.881 -12.8822
37.745867 85.866 -13.1992
38.019389 85.851 -13.5161
38.294893 85.836 -13.8320
38.572394 85.821 -14.1461
38.851905 85.807 -14.4576
39.133442 85.792 -14.7662
39.417019 85.777 -15.0718
39.702651 85.763 -15.3751
39.990353 85.749 -15.6767
40.280140 85.735 -15.9771
40.572026 85.720 -16.2762
40.866028 85.706 -16.5738
41.162160 85.691 -16.8693
41.460438 85.676 -17.1622
41.760877 85.661 -17.4528
42.063494 85.646 -17.7415
42.368303 85.631 -18.0293
42.675322 85.615 -18.3176
42.984565 85.600 -18.6073
43.296048 85.585 -18.8992
43.609789 85.569 -19.1933
43.925804 85.553 -19.4891
44.244108 85.536 -19.7859
44.564719 85.519 -20.0827
44.887654 85.502 -20.3789
45.212928 85.484 -20.6744
45.540560 85.467 -20.9696
45.870565 85.449 -21.2652
46.202962 85.431 -21.5616
46.537768 85.412 -21.8584
46.875000 85.393 -22.1544
47.214676 85.374 -22.4482
47.556813 85.354 -22.7387
47.901429 85.334 -23.0259
48.248542 85.315 -23.3110
48.598171 85.295 -23.5960
48.950334 85.276 -23.8823
49.305048 85.257 -24.1701
49.662333 85.237 -24.4585
50.022206 85.217 -24.7463
50.384688 85.197 -25.0331
50.749796 85.178 -25.3201
51.117550 85.159 -25.6099
51.487969 85.140 -25.9045
51.861072 85.121 -26.2036
52.236879 85.101 -26.5040
52.615409 85.079 -26.8005
52.996681 85.057 -27.0883
53.380717 85.036 -27.3653
53.767536 85.015 -27.6337
54.157158 84.996 -27.8982
54.549603 84.978 -28.1636
54.944892 84.960 -28.4334
55.343045 84.943 -28.7092
55.744084 84.926 -28.9921
56.148028 84.908 -29.2841
56.554900 84.890 -29.5871
56.964720 84.870 -29.9006
57.377510 84.847 -30.2199
57.793291 84.823 -30.5374
58.212085 84.797 -30.8461
58.633914 84.772 -31.1437
59.058799 84.747 -31.4337
59.486764 84.725 -31.7229
59.917829 84.705 -32.0163
60.352019 84.685 -32.3141
60.789354 84.665 -32.6127
61.229859 84.644 -32.9073
61.673556 84.624 -33.1952
62.120468 84.603 -33.4758
62.570618 84.582 -33.7497
63.024031 84.561 -34.0172
63.480729 84.538 -34.2790
63.940736 84.514 -34.5367
64.404077 84.489 -34.7934
64.870776 84.462 -35.0527
65.340856 84.435 -35.3180
65.814343 84.406 -35.5919
66.291261 84.377 -35.8760
66.771635 84.347 -36.1702
67.255489 84.318 -36.4732
67.742850 84.290 -36.7837
68.233743 84.264 -37.1007
68.728193 84.242 -37.4230
69.226226 84.223 -37.7471
69.727867 84.207 -38.0667
70.233144 84.193 -38.3744
70.742083 84.182 -38.6623
71.254709 84.172 -38.9234
71.771050 84.163 -39.1555
72.291132 84.155 -39.3670
72.814984 84.144 -39.5749
73.342631 84.125 -39.7893
73.874102 84.092 -39.9962
74.409424 84.043 -40.1588
74.948626 83.978 -40.2366
75.491734 83.906 -40.2049
76.038779 83.836 -40.0625
76.589787 83.779 -39.8411
77.144788 83.746 -39.6215
77.703811 83.740 -39.5262
78.266885 83.753 -39.6642
78.834039 83.767 -40.0635
79.405303 83.767 -40.6575
79.980706 83.750 -41.3357
80.560280 83.721 -42.0056
81.144053 83.688 -42.6181
81.732056 83.658 -43.1586
82.324320 83.633 -43.6319
82.920876 83.614 -44.0523
83.521755 83.600 -44.4335
84.126988 83.586 -44.7830
84.736607 83.572 -45.1051
85.350643 83.555 -45.4068
85.969129 83.535 -45.6984
86.592097 83.512 -45.9887
87.219579 83.484 -46.2831
87.851608 83.454 -46.5858
88.488217 83.423 -46.9000
89.129439 83.392 -47.2263
89.775308 83.361 -47.5593
90.425856 83.331 -47.8885
91.081119 83.301 -48.2020
91.741131 83.273 -48.4927
92.405925 83.247 -48.7591
93.075536 83.220 -49.0027
93.750000 83.192 -49.2251
94.429351 83.162 -49.4284
95.113625 83.130 -49.6159
95.802858 83.096 -49.7936
96.497085 83.063 -49.9740
97.196342 83.031 -50.1770
97.900667 83.001 -50.4206
98.610096 82.972 -50.7082
99.324665 82.941 -51.0278
100.044413 82.911 -51.3618
100.769376 82.882 -51.6970
101.499592 82.854 -52.0254
