* Measurement data measured by REW V5.31.3
* Source: EXCL: Microphone (USB Sound Device        ), MICROPHONE (Master Volume), R, volume: 0.390
* Format: 256k Log Swept Sine, 1 sweep at -17.0 dBFS with no timing reference
* Dated: Jun 21, 2025 11:43:03 PM
* REW Settings:
*  C-weighting compensation: Off
*  Target level: 75.0 dB
* Note: KZ Vader Pro 0000
* Measurement: L KZ Vader Pro 0000
* Smoothing: 1/12 octave
* Frequency Step: 96 ppo
* Start Frequency: 0.36621094 Hz
*
* Freq(Hz) SPL(dB) Phase(degrees)
0.366211 94.703 156.3931
0.368865 94.697 156.3686
0.371538 94.688 156.3320
0.374230 94.677 156.2859
0.376942 94.665 156.2329
0.379673 94.652 156.1745
0.382424 94.638 156.1120
0.385196 94.624 156.0461
0.387987 94.610 155.9771
0.390798 94.596 155.9053
0.393630 94.581 155.8308
0.396483 94.566 155.7537
0.399356 94.552 155.6738
0.402250 94.537 155.5912
0.405165 94.522 155.5060
0.408101 94.506 155.4180
0.411058 94.491 155.3273
0.414037 94.476 155.2338
0.417037 94.460 155.1375
0.420059 94.445 155.0383
0.423103 94.429 154.9363
0.426169 94.413 154.8314
0.429257 94.397 154.7236
0.432368 94.381 154.6129
0.435501 94.365 154.4992
0.438656 94.349 154.3826
0.441835 94.332 154.2629
0.445037 94.316 154.1402
0.448262 94.299 154.0144
0.451510 94.282 153.8856
0.454782 94.266 153.7536
0.458077 94.249 153.6186
0.461397 94.231 153.4804
0.464740 94.214 153.3391
0.468108 94.197 153.1945
0.471500 94.179 153.0468
0.474917 94.162 152.8958
0.478358 94.144 152.7417
0.481825 94.126 152.5843
0.485316 94.108 152.4236
0.488833 94.090 152.2597
0.492375 94.071 152.0925
0.495943 94.053 151.9220
0.499537 94.035 151.7482
0.503157 94.016 151.5711
0.506803 93.997 151.3907
0.510475 93.978 151.2070
0.514175 93.959 151.0200
0.517900 93.940 150.8297
0.521653 93.920 150.6360
0.525434 93.901 150.4391
0.529241 93.881 150.2389
0.533076 93.861 150.0355
0.536939 93.841 149.8287
0.540830 93.821 149.6188
0.544749 93.801 149.4056
0.548696 93.781 149.1891
0.552673 93.760 148.9696
0.556677 93.740 148.7468
0.560711 93.719 148.5210
0.564774 93.698 148.2921
0.568867 93.677 148.0601
0.572989 93.655 147.8251
0.577141 93.634 147.5872
0.581324 93.612 147.3464
0.585536 93.591 147.1027
0.589779 93.569 146.8563
0.594053 93.547 146.6072
0.598358 93.524 146.3554
0.602694 93.502 146.1010
0.607061 93.480 145.8442
0.611460 93.457 145.5850
0.615891 93.434 145.3235
0.620354 93.411 145.0599
0.624849 93.388 144.7941
0.629377 93.364 144.5264
0.633938 93.341 144.2568
0.638532 93.317 143.9855
0.643159 93.293 143.7126
0.647819 93.269 143.4383
0.652514 93.245 143.1627
0.657242 93.221 142.8860
0.662005 93.196 142.6084
0.666802 93.171 142.3300
0.671634 93.146 142.0510
0.676501 93.121 141.7717
0.681403 93.096 141.4922
0.686341 93.070 141.2127
0.691314 93.045 140.9335
0.696324 93.019 140.6548
0.701370 92.992 140.3768
0.706452 92.966 140.0996
0.711571 92.939 139.8233
0.716728 92.911 139.5480
0.721921 92.882 139.2732
0.727153 92.851 138.9987
0.732422 92.818 138.7235
0.737729 92.784 138.4465
0.743075 92.747 138.1668
0.748460 92.709 137.8832
0.753883 92.669 137.5951
0.759346 92.628 137.3018
0.764849 92.587 137.0031
0.770391 92.545 136.6987
0.775974 92.502 136.3884
0.781597 92.459 136.0720
0.787261 92.415 135.7496
0.792966 92.371 135.4210
0.798712 92.326 135.0861
0.804500 92.281 134.7450
0.810329 92.234 134.3975
0.816201 92.188 134.0436
0.822116 92.140 133.6832
0.828073 92.092 133.3164
0.834074 92.043 132.9431
0.840118 91.994 132.5632
0.846206 91.944 132.1769
0.852338 91.892 131.7840
0.858514 91.840 131.3845
0.864735 91.788 130.9785
0.871001 91.734 130.5660
0.877313 91.679 130.1471
0.883670 91.623 129.7217
0.890074 91.566 129.2900
0.896524 91.509 128.8521
0.903020 91.450 128.4079
0.909564 91.389 127.9577
0.916155 91.328 127.5016
0.922794 91.265 127.0396
0.929481 91.201 126.5721
0.936216 91.136 126.0992
0.943000 91.069 125.6210
0.949834 91.001 125.1380
0.956717 90.932 124.6502
0.963649 90.860 124.1581
0.970632 90.788 123.6620
0.977666 90.713 123.1622
0.984750 90.637 122.6591
0.991886 90.559 122.1533
0.999074 90.479 121.6452
1.006314 90.397 121.1353
1.013606 90.313 120.6243
1.020951 90.227 120.1126
1.028349 90.139 119.6011
1.035801 90.049 119.0905
1.043307 89.956 118.5814
1.050867 89.861 118.0748
1.058482 89.764 117.5714
1.066152 89.664 117.0720
1.073878 89.563 116.5774
1.081660 89.459 116.0882
1.089498 89.354 115.6048
1.097393 89.248 115.1270
1.105345 89.142 114.6545
1.113355 89.037 114.1867
1.121423 88.933 113.7228
1.129549 88.831 113.2621
1.137734 88.731 112.8040
1.145979 88.633 112.3480
1.154283 88.536 111.8936
1.162647 88.441 111.4405
1.171072 88.346 110.9882
1.179558 88.252 110.5363
1.188106 88.159 110.0846
1.196715 88.064 109.6325
1.205387 87.969 109.1796
1.214122 87.872 108.7257
1.222920 87.774 108.2702
1.231782 87.672 107.8126
1.240708 87.567 107.3527
1.249699 87.458 106.8898
1.258754 87.345 106.4234
1.267876 87.226 105.9531
1.277063 87.101 105.4784
1.286318 86.970 104.9986
1.295639 86.831 104.5132
1.305027 86.683 104.0216
1.314484 86.527 103.5233
1.324009 86.360 103.0175
1.333604 86.183 102.5037
1.343268 85.994 101.9812
1.353002 85.792 101.4495
1.362806 85.577 100.9078
1.372681 85.347 100.3555
1.382628 85.101 99.7921
1.392647 84.838 99.2172
1.402739 84.558 98.6302
1.412904 84.258 98.0310
1.423142 83.938 97.4196
1.433455 83.595 96.7964
1.443843 83.228 96.1620
1.454305 82.833 95.5180
1.464844 82.406 94.8661
1.475459 81.943 94.2085
1.486150 81.440 93.5472
1.496920 80.893 92.8838
1.507767 80.301 92.2191
1.518693 79.664 91.5532
1.529698 78.981 90.8858
1.540783 78.254 90.2163
1.551948 77.485 89.5434
1.563194 76.678 88.8658
1.574521 75.834 88.1818
1.585931 74.957 87.4893
1.597423 74.052 86.7859
1.608999 73.121 86.0686
1.620658 72.169 85.3336
1.632402 71.201 84.5765
1.644232 70.221 83.7916
1.656146 69.235 82.9717
1.668147 68.249 82.1077
1.680235 67.269 81.1872
1.692411 66.302 80.1941
1.704675 65.355 79.1061
1.717028 64.437 77.8915
1.729470 63.557 76.5045
1.742003 62.725 74.8754
1.754626 61.953 72.8936
1.767341 61.253 70.3719
1.780147 60.639 66.9677
1.793047 60.127 61.9831
1.806040 59.730 53.7786
1.819128 59.464 37.8244
1.832310 59.340 2.8244
1.845587 59.363 -43.7137
1.858961 59.537 -69.1124
1.872432 59.857 -81.1754
1.886001 60.313 -88.1094
1.899667 60.894 -92.7753
1.913433 61.585 -96.2651
1.927299 62.373 -99.0658
1.941265 63.242 -101.4230
1.955332 64.177 -103.4732
1.969501 65.166 -105.2979
1.983773 66.193 -106.9485
1.998148 67.248 -108.4595
2.012627 68.316 -109.8546
2.027212 69.387 -111.1505
2.041902 70.449 -112.3598
2.056698 71.492 -113.4918
2.071602 72.506 -114.5537
2.086614 73.481 -115.5515
2.101734 74.408 -116.4901
2.116964 75.280 -117.3746
2.132304 76.088 -118.2100
2.147756 76.828 -119.0029
2.163320 77.496 -119.7616
2.178996 78.092 -120.4972
2.194786 78.618 -121.2238
2.210690 79.078 -121.9568
2.226710 79.481 -122.7106
2.242845 79.831 -123.4952
2.259098 80.133 -124.3157
2.275468 80.393 -125.1729
2.291957 80.612 -126.0645
2.308566 80.795 -126.9864
2.325295 80.943 -127.9331
2.342145 81.060 -128.8988
2.359117 81.148 -129.8773
2.376212 81.210 -130.8620
2.393431 81.250 -131.8468
2.410775 81.271 -132.8250
2.428244 81.275 -133.7905
2.445840 81.268 -134.7372
2.463564 81.251 -135.6592
2.481416 81.230 -136.5518
2.499397 81.206 -137.4113
2.517509 81.184 -138.2363
2.535752 81.163 -139.0287
2.554127 81.146 -139.7940
2.572635 81.131 -140.5419
2.591277 81.114 -141.2843
2.610055 81.094 -142.0322
2.628968 81.067 -142.7939
2.648019 81.033 -143.5741
2.667208 80.989 -144.3747
2.686535 80.934 -145.1949
2.706003 80.867 -146.0322
2.725612 80.788 -146.8826
2.745363 80.696 -147.7405
2.765257 80.590 -148.5992
2.785295 80.470 -149.4510
2.805478 80.336 -150.2866
2.825808 80.186 -151.0963
2.846285 80.019 -151.8692
2.866910 79.835 -152.5947
2.887685 79.631 -153.2633
2.908611 79.406 -153.8675
2.929688 79.156 -154.4035
2.950917 78.878 -154.8710
2.972301 78.571 -155.2719
2.993839 78.232 -155.6076
3.015534 77.864 -155.8779
3.037386 77.467 -156.0799
3.059396 77.046 -156.2077
3.081565 76.605 -156.2522
3.103896 76.151 -156.2010
3.126388 75.688 -156.0381
3.149043 75.225 -155.7432
3.171862 74.770 -155.2911
3.194847 74.329 -154.6506
3.217998 73.912 -153.7834
3.241317 73.526 -152.6424
3.264805 73.177 -151.1696
3.288463 72.869 -149.2942
3.312293 72.604 -146.9319
3.336295 72.381 -143.9868
3.360471 72.198 -140.3606
3.384822 72.051 -135.9684
3.409350 71.940 -130.7635
3.434056 71.863 -124.7720
3.458940 71.820 -118.1281
3.484005 71.810 -111.0869
3.509252 71.834 -103.9933
3.534681 71.893 -97.2064
3.560295 71.988 -91.0160
3.586094 72.122 -85.5951
3.612081 72.298 -81.0013
3.638255 72.519 -77.2073
3.664620 72.790 -74.1381
3.691175 73.113 -71.6990
3.717923 73.488 -69.7943
3.744864 73.910 -68.3360
3.772001 74.371 -67.2465
3.799335 74.862 -66.4595
3.826866 75.369 -65.9189
3.854597 75.882 -65.5784
3.882529 76.389 -65.4004
3.910664 76.879 -65.3554
3.939002 77.343 -65.4214
3.967546 77.774 -65.5835
3.996296 78.167 -65.8333
4.025255 78.520 -66.1682
4.054423 78.835 -66.5885
4.083804 79.114 -67.0934
4.113396 79.360 -67.6780
4.143204 79.577 -68.3325
4.173227 79.769 -69.0431
4.203468 79.936 -69.7942
4.233928 80.083 -70.5697
4.264609 80.211 -71.3546
4.295512 80.322 -72.1365
4.326639 80.417 -72.9068
4.357992 80.498 -73.6621
4.389572 80.564 -74.4049
4.421380 80.615 -75.1420
4.453419 80.651 -75.8812
4.485691 80.670 -76.6269
4.518196 80.672 -77.3784
4.550936 80.657 -78.1294
4.583914 80.627 -78.8690
4.617131 80.582 -79.5837
4.650589 80.522 -80.2583
4.684289 80.448 -80.8781
4.718233 80.361 -81.4304
4.752424 80.259 -81.9067
4.786862 80.143 -82.3027
4.821549 80.012 -82.6179
4.856488 79.865 -82.8521
4.891680 79.706 -83.0036
4.927127 79.534 -83.0682
4.962831 79.355 -83.0388
4.998794 79.170 -82.9056
5.035017 78.983 -82.6568
5.071503 78.798 -82.2784
5.108253 78.614 -81.7560
5.145270 78.434 -81.0756
5.182555 78.258 -80.2263
5.220110 78.086 -79.2038
5.257937 77.920 -78.0118
5.296038 77.764 -76.6634
5.334415 77.622 -75.1792
5.373071 77.499 -73.5864
5.412006 77.401 -71.9153
5.451224 77.332 -70.1957
5.490725 77.298 -68.4539
5.530514 77.299 -66.7123
5.570590 77.336 -64.9921
5.610957 77.404 -63.3184
5.651616 77.500 -61.7203
5.692570 77.618 -60.2288
5.733821 77.753 -58.8728
5.775370 77.900 -57.6766
5.817221 78.054 -56.6569
5.859375 78.214 -55.8216
5.901834 78.379 -55.1703
5.944602 78.548 -54.6956
5.987679 78.718 -54.3860
6.031068 78.888 -54.2281
6.074771 79.053 -54.2091
6.118792 79.211 -54.3178
6.163131 79.357 -54.5458
6.207792 79.489 -54.8880
6.252776 79.606 -55.3410
6.298086 79.707 -55.9001
6.343725 79.792 -56.5563
6.389694 79.862 -57.2959
6.435996 79.916 -58.1018
6.482634 79.954 -58.9567
6.529610 79.976 -59.8466
6.576926 79.982 -60.7625
6.624585 79.971 -61.7009
6.672590 79.943 -62.6609
6.720942 79.899 -63.6392
6.769645 79.839 -64.6278
6.818700 79.764 -65.6143
6.868111 79.676 -66.5838
6.917881 79.574 -67.5225
6.968010 79.460 -68.4201
7.018504 79.334 -69.2707
7.069362 79.197 -70.0714
7.120590 79.051 -70.8192
7.172189 78.898 -71.5095
7.224161 78.740 -72.1350
7.276511 78.581 -72.6870
7.329239 78.422 -73.1571
7.382350 78.265 -73.5398
7.435845 78.113 -73.8347
7.489729 77.967 -74.0476
7.544002 77.831 -74.1891
7.598669 77.708 -74.2720
7.653732 77.602 -74.3087
7.709194 77.515 -74.3102
7.765058 77.450 -74.2868
7.821327 77.405 -74.2524
7.878004 77.382 -74.2262
7.935091 77.380 -74.2311
7.992592 77.398 -74.2899
8.050510 77.436 -74.4212
8.108847 77.493 -74.6371
8.167607 77.567 -74.9440
8.226793 77.656 -75.3458
8.286408 77.756 -75.8455
8.346454 77.865 -76.4454
8.406936 77.980 -77.1464
8.467856 78.099 -77.9465
8.529218 78.221 -78.8390
8.591024 78.343 -79.8130
8.653278 78.464 -80.8554
8.715983 78.583 -81.9532
8.779143 78.698 -83.0953
8.842760 78.808 -84.2722
8.906839 78.914 -85.4740
8.971381 79.014 -86.6881
9.036392 79.110 -87.9002
9.101873 79.200 -89.0964
9.167829 79.286 -90.2652
9.234263 79.368 -91.3984
9.301178 79.445 -92.4889
9.368578 79.521 -93.5295
9.436467 79.594 -94.5124
9.504847 79.667 -95.4307
9.573723 79.741 -96.2802
9.643099 79.816 -97.0592
9.712976 79.893 -97.7684
9.783361 79.973 -98.4096
9.854255 80.058 -98.9852
9.925663 80.148 -99.4982
9.997588 80.243 -99.9529
10.070035 80.345 -100.3553
10.143007 80.451 -100.7130
10.216507 80.564 -101.0334
10.290540 80.681 -101.3234
10.365109 80.803 -101.5885
10.440219 80.930 -101.8341
10.515873 81.059 -102.0652
10.592076 81.190 -102.2863
10.668830 81.322 -102.5005
10.746141 81.454 -102.7096
10.824012 81.586 -102.9138
10.902447 81.716 -103.1130
10.981451 81.844 -103.3064
11.061027 81.969 -103.4930
11.141180 82.091 -103.6712
11.221913 82.210 -103.8393
11.303232 82.325 -103.9953
11.385140 82.437 -104.1376
11.467641 82.545 -104.2653
11.550741 82.650 -104.3780
11.634442 82.751 -104.4756
11.718750 82.850 -104.5585
11.803669 82.945 -104.6275
11.889203 83.038 -104.6838
11.975357 83.128 -104.7293
12.062136 83.215 -104.7657
12.149543 83.300 -104.7948
12.237583 83.381 -104.8179
12.326262 83.459 -104.8364
12.415583 83.534 -104.8513
12.505552 83.605 -104.8629
12.596172 83.672 -104.8714
12.687449 83.736 -104.8763
12.779387 83.795 -104.8767
12.871992 83.851 -104.8719
12.965268 83.903 -104.8611
13.059220 83.951 -104.8437
13.153852 83.997 -104.8193
13.249170 84.040 -104.7882
13.345179 84.081 -104.7517
13.441884 84.120 -104.7116
13.539289 84.159 -104.6709
13.637401 84.197 -104.6331
13.736223 84.235 -104.6023
13.835761 84.273 -104.5834
13.936021 84.311 -104.5813
14.037007 84.349 -104.6007
14.138725 84.386 -104.6457
14.241180 84.423 -104.7200
14.344377 84.459 -104.8261
14.448323 84.493 -104.9653
14.553021 84.525 -105.1374
14.658478 84.553 -105.3413
14.764700 84.579 -105.5749
14.871691 84.601 -105.8349
14.979457 84.620 -106.1176
15.088005 84.635 -106.4190
15.197339 84.648 -106.7353
15.307465 84.659 -107.0632
15.418389 84.669 -107.4001
15.530117 84.678 -107.7443
15.642655 84.688 -108.0954
15.756008 84.699 -108.4540
15.870182 84.712 -108.8215
15.985184 84.728 -109.2003
16.101019 84.747 -109.5930
16.217694 84.769 -110.0022
16.335214 84.795 -110.4299
16.453586 84.823 -110.8773
16.572815 84.855 -111.3446
16.692909 84.889 -111.8305
16.813872 84.925 -112.3326
16.935713 84.962 -112.8472
17.058436 85.001 -113.3698
17.182048 85.041 -113.8953
17.306556 85.082 -114.4185
17.431967 85.126 -114.9347
17.558286 85.171 -115.4398
17.685521 85.220 -115.9308
17.813677 85.271 -116.4059
17.942762 85.326 -116.8647
18.072783 85.385 -117.3077
18.203746 85.447 -117.7365
18.335658 85.514 -118.1530
18.468526 85.584 -118.5593
18.602356 85.657 -118.9574
18.737156 85.731 -119.3483
18.872934 85.808 -119.7326
19.009695 85.885 -120.1097
19.147447 85.961 -120.4785
19.286197 86.037 -120.8372
19.425953 86.112 -121.1836
19.566721 86.185 -121.5156
19.708510 86.256 -121.8313
19.851326 86.325 -122.1291
19.995177 86.393 -122.4081
20.140070 86.458 -122.6682
20.286013 86.521 -122.9094
20.433014 86.582 -123.1326
20.581080 86.641 -123.3389
20.730219 86.699 -123.5297
20.880439 86.754 -123.7068
21.031747 86.808 -123.8721
21.184152 86.860 -124.0280
21.337661 86.910 -124.1774
21.492282 86.959 -124.3235
21.648024 87.006 -124.4701
21.804895 87.052 -124.6212
21.962902 87.097 -124.7809
22.122054 87.140 -124.9532
22.282360 87.181 -125.1412
22.443827 87.219 -125.3468
22.606464 87.254 -125.5709
22.770280 87.286 -125.8127
22.935283 87.314 -126.0701
23.101481 87.339 -126.3403
23.268884 87.361 -126.6199
23.437500 87.380 -126.9057
23.607338 87.397 -127.1954
23.778406 87.413 -127.4878
23.950714 87.429 -127.7834
24.124271 87.446 -128.0842
24.299086 87.464 -128.3931
24.475167 87.485 -128.7137
24.652524 87.508 -129.0494
24.831166 87.533 -129.4027
25.011103 87.561 -129.7746
25.192344 87.589 -130.1647
25.374898 87.619 -130.5706
25.558775 87.650 -130.9890
25.743984 87.681 -131.4155
25.930536 87.713 -131.8456
26.118439 87.746 -132.2750
26.307704 87.781 -132.7005
26.498341 87.817 -133.1196
26.690359 87.854 -133.5308
26.883768 87.894 -133.9334
27.078579 87.935 -134.3274
27.274801 87.978 -134.7129
27.472446 88.022 -135.0902
27.671522 88.068 -135.4593
27.872042 88.114 -135.8201
28.074014 88.160 -136.1724
28.277450 88.206 -136.5159
28.482360 88.251 -136.8501
28.688755 88.295 -137.1749
28.896645 88.339 -137.4900
29.106042 88.381 -137.7960
29.316957 88.422 -138.0934
29.529400 88.461 -138.3834
29.743382 88.499 -138.6678
29.958915 88.536 -138.9483
30.176009 88.570 -139.2271
30.394677 88.604 -139.5061
30.614929 88.635 -139.7866
30.836778 88.664 -140.0699
31.060234 88.692 -140.3565
31.285309 88.718 -140.6470
31.512015 88.742 -140.9418
31.740364 88.765 -141.2418
31.970368 88.788 -141.5480
32.202039 88.810 -141.8621
32.435388 88.831 -142.1855
32.670428 88.853 -142.5196
32.907171 88.875 -142.8649
33.145630 88.896 -143.2212
33.385817 88.918 -143.5876
33.627745 88.939 -143.9623
33.871425 88.961 -144.3435
34.116871 88.983 -144.7296
34.364096 89.006 -145.1190
34.613113 89.029 -145.5107
34.863934 89.053 -145.9035
35.116572 89.077 -146.2965
35.371041 89.102 -146.6883
35.627354 89.127 -147.0772
35.885525 89.152 -147.4613
36.145566 89.177 -147.8386
36.407492 89.202 -148.2076
36.671316 89.227 -148.5674
36.937051 89.252 -148.9184
37.204712 89.277 -149.2618
37.474313 89.303 -149.6000
37.745867 89.329 -149.9360
38.019389 89.354 -150.2725
38.294893 89.379 -150.6117
38.572394 89.403 -150.9545
38.851905 89.425 -151.3003
39.133442 89.445 -151.6474
39.417019 89.464 -151.9935
39.702651 89.480 -152.3368
39.990353 89.496 -152.6766
40.280140 89.511 -153.0138
40.572026 89.526 -153.3502
40.866028 89.542 -153.6886
41.162160 89.557 -154.0312
41.460438 89.573 -154.3795
41.760877 89.589 -154.7339
42.063494 89.604 -155.0938
42.368303 89.620 -155.4582
42.675322 89.635 -155.8259
42.984565 89.651 -156.1958
43.296048 89.666 -156.5672
43.609789 89.681 -156.9394
43.925804 89.696 -157.3118
44.244108 89.710 -157.6838
44.564719 89.725 -158.0548
44.887654 89.738 -158.4241
45.212928 89.752 -158.7911
45.540560 89.765 -159.1554
45.870565 89.777 -159.5171
46.202962 89.789 -159.8768
46.537768 89.801 -160.2355
46.875000 89.812 -160.5947
47.214676 89.824 -160.9553
47.556813 89.834 -161.3180
47.901429 89.844 -161.6828
48.248542 89.853 -162.0488
48.598171 89.862 -162.4151
48.950334 89.870 -162.7809
49.305048 89.877 -163.1456
49.662333 89.885 -163.5096
50.022206 89.892 -163.8732
50.384688 89.900 -164.2372
50.749796 89.907 -164.6021
51.117550 89.914 -164.9679
51.487969 89.920 -165.3340
51.861072 89.926 -165.6995
52.236879 89.932 -166.0638
52.615409 89.936 -166.4260
52.996681 89.941 -166.7861
53.380717 89.945 -167.1446
53.767536 89.949 -167.5022
54.157158 89.953 -167.8600
54.549603 89.957 -168.2191
54.944892 89.961 -168.5808
55.343045 89.966 -168.9460
55.744084 89.970 -169.3157
56.148028 89.974 -169.6903
56.554900 89.979 -170.0701
56.964720 89.982 -170.4543
57.377510 89.986 -170.8416
57.793291 89.988 -171.2303
58.212085 89.991 -171.6190
58.633914 89.992 -172.0068
59.058799 89.993 -172.3933
59.486764 89.993 -172.7782
59.917829 89.992 -173.1606
60.352019 89.989 -173.5397
60.789354 89.986 -173.9151
61.229859 89.982 -174.2875
61.673556 89.977 -174.6585
62.120468 89.972 -175.0302
62.570618 89.966 -175.4040
63.024031 89.958 -175.7804
63.480729 89.950 -176.1587
63.940736 89.941 -176.5376
64.404077 89.931 -176.9160
64.870776 89.921 -177.2937
65.340856 89.911 -177.6711
65.814343 89.900 -178.0484
66.291261 89.889 -178.4250
66.771635 89.878 -178.7995
67.255489 89.866 -179.1703
67.742850 89.854 -179.5373
68.233743 89.842 -179.9011
68.728193 89.829 179.7377
69.226226 89.816 179.3795
69.727867 89.801 179.0252
70.233144 89.786 178.6755
70.742083 89.770 178.3306
71.254709 89.753 177.9913
71.771050 89.736 177.6597
72.291132 89.719 177.3386
72.814984 89.701 177.0304
73.342631 89.685 176.7358
73.874102 89.671 176.4539
74.409424 89.659 176.1832
74.948626 89.649 175.9208
75.491734 89.643 175.6622
76.038779 89.640 175.3994
76.589787 89.640 175.1215
77.144788 89.641 174.8195
77.703811 89.641 174.4905
78.266885 89.640 174.1382
78.834039 89.637 173.7686
79.405303 89.631 173.3843
79.980706 89.624 172.9839
80.560280 89.615 172.5658
81.144053 89.603 172.1307
81.732056 89.588 171.6818
82.324320 89.571 171.2231
82.920876 89.551 170.7592
83.521755 89.528 170.2952
84.126988 89.502 169.8360
84.736607 89.474 169.3858
