* Measurement data measured by REW V5.31
* Source: EXCL: Microphone (USB Sound Device        ), MICROPHONE (Master Volume), L, volume: 0.390
* Format: 256k Log Swept Sine, 1 sweep at -10.0 dBFS with no timing reference
* Dated: Oct 31, 2024 12:20:49 AM
* REW Settings:
*  C-weighting compensation: Off
*  Target level: 75.0 dB
* Note: KZ x AngelEars Libra X R
* Measurement: R KZ x AngelEars Libra-X
* Smoothing: 1/12 octave
* Frequency Step: 96 ppo
* Start Frequency: 0.36621094 Hz
*
* Freq(Hz)	SPL(dB)	Phase(degrees)
0.366211	88.186	-58.7667
0.368865	88.190	-58.8284
0.371538	88.196	-58.9206
0.374230	88.203	-59.0364
0.376942	88.210	-59.1695
0.379673	88.219	-59.3155
0.382424	88.228	-59.4715
0.385196	88.237	-59.6357
0.387987	88.246	-59.8069
0.390798	88.255	-59.9846
0.393630	88.264	-60.1686
0.396483	88.274	-60.3587
0.399356	88.283	-60.5549
0.402250	88.293	-60.7571
0.405165	88.302	-60.9653
0.408101	88.312	-61.1796
0.411058	88.322	-61.4000
0.414037	88.332	-61.6265
0.417037	88.342	-61.8591
0.420059	88.352	-62.0979
0.423103	88.362	-62.3429
0.426169	88.372	-62.5940
0.429257	88.382	-62.8514
0.432368	88.392	-63.1149
0.435501	88.403	-63.3847
0.438656	88.413	-63.6606
0.441835	88.424	-63.9428
0.445037	88.434	-64.2312
0.448262	88.445	-64.5257
0.451510	88.456	-64.8264
0.454782	88.467	-65.1333
0.458077	88.477	-65.4463
0.461397	88.488	-65.7654
0.464740	88.499	-66.0906
0.468108	88.511	-66.4218
0.471500	88.522	-66.7590
0.474917	88.533	-67.1022
0.478358	88.545	-67.4512
0.481825	88.556	-67.8061
0.485316	88.568	-68.1668
0.488833	88.579	-68.5332
0.492375	88.591	-68.9052
0.495943	88.603	-69.2828
0.499537	88.615	-69.6659
0.503157	88.627	-70.0543
0.506803	88.639	-70.4481
0.510475	88.651	-70.8471
0.514175	88.663	-71.2512
0.517900	88.675	-71.6603
0.521653	88.688	-72.0742
0.525434	88.700	-72.4929
0.529241	88.713	-72.9163
0.533076	88.725	-73.3441
0.536939	88.738	-73.7764
0.540830	88.751	-74.2128
0.544749	88.764	-74.6534
0.548696	88.777	-75.0978
0.552673	88.790	-75.5461
0.556677	88.804	-75.9980
0.560711	88.817	-76.4533
0.564774	88.830	-76.9119
0.568867	88.844	-77.3737
0.572989	88.857	-77.8384
0.577141	88.871	-78.3059
0.581324	88.885	-78.7760
0.585536	88.899	-79.2484
0.589779	88.913	-79.7231
0.594053	88.927	-80.1999
0.598358	88.941	-80.6784
0.602694	88.956	-81.1587
0.607061	88.970	-81.6404
0.611460	88.985	-82.1233
0.615891	88.999	-82.6073
0.620354	89.014	-83.0922
0.624849	89.029	-83.5778
0.629377	89.044	-84.0639
0.633938	89.059	-84.5502
0.638532	89.074	-85.0366
0.643159	89.090	-85.5229
0.647819	89.105	-86.0090
0.652514	89.120	-86.4945
0.657242	89.136	-86.9793
0.662005	89.152	-87.4633
0.666802	89.168	-87.9462
0.671634	89.184	-88.4279
0.676501	89.200	-88.9082
0.681403	89.216	-89.3869
0.686341	89.232	-89.8639
0.691314	89.249	-90.3389
0.696324	89.265	-90.8120
0.701370	89.282	-91.2829
0.706452	89.298	-91.7518
0.711571	89.314	-92.2187
0.716728	89.330	-92.6839
0.721921	89.345	-93.1482
0.727153	89.359	-93.6123
0.732422	89.372	-94.0778
0.737729	89.383	-94.5463
0.743075	89.393	-95.0194
0.748460	89.402	-95.4986
0.753883	89.409	-95.9847
0.759346	89.417	-96.4785
0.764849	89.424	-96.9801
0.770391	89.430	-97.4899
0.775974	89.437	-98.0077
0.781597	89.443	-98.5335
0.787261	89.449	-99.0672
0.792966	89.455	-99.6086
0.798712	89.460	-100.1576
0.804500	89.466	-100.7140
0.810329	89.471	-101.2775
0.816201	89.476	-101.8480
0.822116	89.481	-102.4252
0.828073	89.485	-103.0089
0.834074	89.489	-103.5988
0.840118	89.493	-104.1946
0.846206	89.497	-104.7961
0.852338	89.500	-105.4029
0.858514	89.502	-106.0147
0.864735	89.505	-106.6313
0.871001	89.507	-107.2523
0.877313	89.508	-107.8773
0.883670	89.509	-108.5061
0.890074	89.509	-109.1381
0.896524	89.509	-109.7731
0.903020	89.508	-110.4106
0.909564	89.507	-111.0503
0.916155	89.505	-111.6918
0.922794	89.502	-112.3346
0.929481	89.499	-112.9783
0.936216	89.495	-113.6224
0.943000	89.490	-114.2666
0.949834	89.484	-114.9104
0.956717	89.478	-115.5534
0.963649	89.470	-116.1950
0.970632	89.462	-116.8348
0.977666	89.452	-117.4723
0.984750	89.442	-118.1072
0.991886	89.430	-118.7387
0.999074	89.418	-119.3666
1.006314	89.404	-119.9903
1.013606	89.389	-120.6093
1.020951	89.372	-121.2231
1.028349	89.355	-121.8312
1.035801	89.336	-122.4331
1.043307	89.315	-123.0285
1.050867	89.293	-123.6168
1.058482	89.270	-124.1978
1.066152	89.245	-124.7713
1.073878	89.219	-125.3374
1.081660	89.191	-125.8968
1.089498	89.162	-126.4506
1.097393	89.132	-127.0006
1.105345	89.102	-127.5493
1.113355	89.071	-128.0993
1.121423	89.039	-128.6530
1.129549	89.008	-129.2124
1.137734	88.977	-129.7789
1.145979	88.946	-130.3535
1.154283	88.915	-130.9368
1.162647	88.883	-131.5295
1.171072	88.851	-132.1318
1.179558	88.819	-132.7440
1.188106	88.786	-133.3665
1.196715	88.752	-133.9993
1.205387	88.717	-134.6425
1.214122	88.680	-135.2964
1.222920	88.642	-135.9609
1.231782	88.602	-136.6359
1.240708	88.560	-137.3215
1.249699	88.515	-138.0176
1.258754	88.468	-138.7238
1.267876	88.418	-139.4400
1.277063	88.365	-140.1658
1.286318	88.309	-140.9006
1.295639	88.248	-141.6441
1.305027	88.184	-142.3954
1.314484	88.115	-143.1538
1.324009	88.042	-143.9183
1.333604	87.963	-144.6878
1.343268	87.879	-145.4611
1.353002	87.789	-146.2367
1.362806	87.693	-147.0130
1.372681	87.590	-147.7881
1.382628	87.480	-148.5600
1.392647	87.363	-149.3265
1.402739	87.238	-150.0853
1.412904	87.104	-150.8338
1.423142	86.960	-151.5700
1.433455	86.807	-152.2917
1.443843	86.643	-152.9978
1.454305	86.466	-153.6883
1.464844	86.274	-154.3648
1.475459	86.067	-155.0301
1.486150	85.842	-155.6881
1.496920	85.597	-156.3424
1.507767	85.333	-156.9959
1.518693	85.049	-157.6511
1.529698	84.745	-158.3095
1.540783	84.424	-158.9723
1.551948	84.085	-159.6403
1.563194	83.730	-160.3142
1.574521	83.360	-160.9942
1.585931	82.978	-161.6806
1.597423	82.584	-162.3737
1.608999	82.181	-163.0732
1.620658	81.770	-163.7791
1.632402	81.354	-164.4909
1.644232	80.935	-165.2081
1.656146	80.515	-165.9297
1.668147	80.096	-166.6544
1.680235	79.681	-167.3807
1.692411	79.273	-168.1062
1.704675	78.875	-168.8280
1.717028	78.489	-169.5426
1.729470	78.120	-170.2449
1.742003	77.770	-170.9291
1.754626	77.443	-171.5873
1.767341	77.143	-172.2099
1.780147	76.874	-172.7848
1.793047	76.638	-173.2969
1.806040	76.440	-173.7278
1.819128	76.281	-174.0550
1.832310	76.163	-174.2500
1.845587	76.086	-174.2754
1.858961	76.050	-174.0773
1.872432	76.051	-173.5724
1.886001	76.090	-172.6216
1.899667	76.164	-170.9774
1.913433	76.270	-168.1584
1.927299	76.408	-163.1195
1.941265	76.575	-153.2511
1.955332	76.769	-131.5423
1.969501	76.988	-90.4029
1.983773	77.230	-56.0461
1.998148	77.492	-40.1346
2.012627	77.772	-32.6036
2.027212	78.067	-28.5974
2.041902	78.376	-26.3058
2.056698	78.695	-24.9627
2.071602	79.022	-24.1983
2.086614	79.354	-23.8152
2.101734	79.689	-23.6992
2.116964	80.025	-23.7809
2.132304	80.360	-24.0156
2.147756	80.693	-24.3741
2.163320	81.024	-24.8360
2.178996	81.353	-25.3870
2.194786	81.683	-26.0156
2.210690	82.017	-26.7117
2.226710	82.359	-27.4655
2.242845	82.710	-28.2670
2.259098	83.072	-29.1065
2.275468	83.445	-29.9750
2.291957	83.827	-30.8644
2.308566	84.218	-31.7679
2.325295	84.616	-32.6800
2.342145	85.020	-33.5962
2.359117	85.426	-34.5128
2.376212	85.834	-35.4275
2.393431	86.240	-36.3381
2.410775	86.644	-37.2437
2.428244	87.042	-38.1434
2.445840	87.432	-39.0373
2.463564	87.812	-39.9260
2.481416	88.180	-40.8106
2.499397	88.534	-41.6931
2.517509	88.872	-42.5765
2.535752	89.194	-43.4647
2.554127	89.499	-44.3625
2.572635	89.787	-45.2751
2.591277	90.058	-46.2071
2.610055	90.314	-47.1607
2.628968	90.555	-48.1360
2.648019	90.783	-49.1309
2.667208	90.999	-50.1420
2.686535	91.203	-51.1650
2.706003	91.397	-52.1954
2.725612	91.581	-53.2289
2.745363	91.756	-54.2613
2.765257	91.924	-55.2886
2.785295	92.085	-56.3076
2.805478	92.241	-57.3154
2.825808	92.392	-58.3097
2.846285	92.539	-59.2893
2.866910	92.684	-60.2540
2.887685	92.826	-61.2052
2.908611	92.966	-62.1461
2.929688	93.103	-63.0814
2.950917	93.237	-64.0171
2.972301	93.366	-64.9584
2.993839	93.490	-65.9089
3.015534	93.609	-66.8696
3.037386	93.722	-67.8400
3.059396	93.829	-68.8176
3.081565	93.931	-69.7995
3.103896	94.028	-70.7820
3.126388	94.120	-71.7609
3.149043	94.208	-72.7323
3.171862	94.291	-73.6924
3.194847	94.371	-74.6377
3.217998	94.447	-75.5657
3.241317	94.520	-76.4747
3.264805	94.590	-77.3651
3.288463	94.656	-78.2390
3.312293	94.718	-79.1002
3.336295	94.776	-79.9534
3.360471	94.830	-80.8023
3.384822	94.879	-81.6490
3.409350	94.924	-82.4940
3.434056	94.964	-83.3360
3.458940	95.000	-84.1728
3.484005	95.032	-85.0011
3.509252	95.061	-85.8174
3.534681	95.087	-86.6175
3.560295	95.109	-87.3976
3.586094	95.129	-88.1540
3.612081	95.145	-88.8839
3.638255	95.159	-89.5856
3.664620	95.169	-90.2594
3.691175	95.175	-90.9067
3.717923	95.179	-91.5296
3.744864	95.180	-92.1301
3.772001	95.180	-92.7091
3.799335	95.178	-93.2673
3.826866	95.176	-93.8045
3.854597	95.173	-94.3202
3.882529	95.170	-94.8135
3.910664	95.167	-95.2831
3.939002	95.165	-95.7277
3.967546	95.163	-96.1456
3.996296	95.161	-96.5349
4.025255	95.159	-96.8937
4.054423	95.158	-97.2202
4.083804	95.157	-97.5140
4.113396	95.156	-97.7755
4.143204	95.155	-98.0069
4.173227	95.156	-98.2113
4.203468	95.158	-98.3926
4.233928	95.162	-98.5551
4.264609	95.168	-98.7030
4.295512	95.178	-98.8398
4.326639	95.191	-98.9679
4.357992	95.209	-99.0879
4.389572	95.232	-99.1989
4.421380	95.259	-99.2989
4.453419	95.290	-99.3862
4.485691	95.327	-99.4613
4.518196	95.368	-99.5265
4.550936	95.413	-99.5860
4.583914	95.461	-99.6452
4.617131	95.513	-99.7098
4.650589	95.569	-99.7858
4.684289	95.627	-99.8781
4.718233	95.689	-99.9905
4.752424	95.754	-100.1252
4.786862	95.822	-100.2823
4.821549	95.893	-100.4611
4.856488	95.968	-100.6608
4.891680	96.045	-100.8809
4.927127	96.125	-101.1220
4.962831	96.206	-101.3851
4.998794	96.287	-101.6720
5.035017	96.369	-101.9844
5.071503	96.449	-102.3242
5.108253	96.529	-102.6930
5.145270	96.607	-103.0914
5.182555	96.685	-103.5195
5.220110	96.761	-103.9759
5.257937	96.835	-104.4583
5.296038	96.908	-104.9637
5.334415	96.979	-105.4891
5.373071	97.047	-106.0318
5.412006	97.112	-106.5895
5.451224	97.173	-107.1612
5.490725	97.231	-107.7468
5.530514	97.285	-108.3467
5.570590	97.334	-108.9610
5.610957	97.380	-109.5884
5.651616	97.422	-110.2260
5.692570	97.461	-110.8701
5.733821	97.495	-111.5161
5.775370	97.526	-112.1600
5.817221	97.553	-112.7987
5.859375	97.576	-113.4306
5.901834	97.595	-114.0553
5.944602	97.610	-114.6729
5.987679	97.622	-115.2827
6.031068	97.630	-115.8833
6.074771	97.636	-116.4720
6.118792	97.639	-117.0457
6.163131	97.639	-117.6013
6.207792	97.639	-118.1363
6.252776	97.636	-118.6492
6.298086	97.632	-119.1397
6.343725	97.627	-119.6083
6.389694	97.621	-120.0557
6.435996	97.615	-120.4828
6.482634	97.609	-120.8901
6.529610	97.604	-121.2779
6.576926	97.601	-121.6459
6.624585	97.600	-121.9942
6.672590	97.601	-122.3233
6.720942	97.604	-122.6351
6.769645	97.609	-122.9323
6.818700	97.617	-123.2189
6.868111	97.628	-123.4985
6.917881	97.642	-123.7745
6.968010	97.659	-124.0491
7.018504	97.680	-124.3239
7.069362	97.704	-124.6005
7.120590	97.731	-124.8811
7.172189	97.761	-125.1688
7.224161	97.793	-125.4669
7.276511	97.827	-125.7787
7.329239	97.863	-126.1064
7.382350	97.900	-126.4511
7.435845	97.939	-126.8133
7.489729	97.978	-127.1927
7.544002	98.018	-127.5891
7.598669	98.057	-128.0025
7.653732	98.096	-128.4326
7.709194	98.133	-128.8796
7.765058	98.169	-129.3427
7.821327	98.203	-129.8204
7.878004	98.235	-130.3105
7.935091	98.265	-130.8099
7.992592	98.293	-131.3160
8.050510	98.318	-131.8265
8.108847	98.340	-132.3396
8.167607	98.359	-132.8536
8.226793	98.376	-133.3665
8.286408	98.390	-133.8753
8.346454	98.401	-134.3772
8.406936	98.411	-134.8696
8.467856	98.419	-135.3506
8.529218	98.425	-135.8192
8.591024	98.429	-136.2746
8.653278	98.433	-136.7161
8.715983	98.436	-137.1430
8.779143	98.439	-137.5546
8.842760	98.442	-137.9508
8.906839	98.446	-138.3322
8.971381	98.450	-138.6999
9.036392	98.455	-139.0557
9.101873	98.462	-139.4014
9.167829	98.470	-139.7387
9.234263	98.480	-140.0691
9.301178	98.492	-140.3943
9.368578	98.505	-140.7165
9.436467	98.519	-141.0382
9.504847	98.535	-141.3613
9.573723	98.552	-141.6876
9.643099	98.569	-142.0182
9.712976	98.586	-142.3540
9.783361	98.602	-142.6956
9.854255	98.617	-143.0437
9.925663	98.629	-143.3984
9.997588	98.638	-143.7595
10.070035	98.644	-144.1263
10.143007	98.648	-144.4976
10.216507	98.649	-144.8722
10.290540	98.647	-145.2489
10.365109	98.642	-145.6266
10.440219	98.636	-146.0038
10.515873	98.627	-146.3791
10.592076	98.617	-146.7510
10.668830	98.605	-147.1183
10.746141	98.593	-147.4803
10.824012	98.579	-147.8364
10.902447	98.565	-148.1862
10.981451	98.550	-148.5294
11.061027	98.535	-148.8663
11.141180	98.520	-149.1971
11.221913	98.504	-149.5226
11.303232	98.489	-149.8437
11.385140	98.474	-150.1612
11.467641	98.459	-150.4761
11.550741	98.445	-150.7891
11.634442	98.431	-151.1012
11.718750	98.417	-151.4132
11.803669	98.403	-151.7256
11.889203	98.390	-152.0387
11.975357	98.377	-152.3526
12.062136	98.364	-152.6673
12.149543	98.350	-152.9824
12.237583	98.336	-153.2976
12.326262	98.322	-153.6124
12.415583	98.307	-153.9261
12.505552	98.292	-154.2381
12.596172	98.276	-154.5482
12.687449	98.260	-154.8560
12.779387	98.243	-155.1613
12.871992	98.226	-155.4642
12.965268	98.210	-155.7651
13.059220	98.193	-156.0644
13.153852	98.177	-156.3630
13.249170	98.161	-156.6616
13.345179	98.146	-156.9610
13.441884	98.131	-157.2621
13.539289	98.116	-157.5658
13.637401	98.102	-157.8726
13.736223	98.088	-158.1829
13.835761	98.074	-158.4966
13.936021	98.059	-158.8137
14.037007	98.044	-159.1337
14.138725	98.028	-159.4557
14.241180	98.011	-159.7787
14.344377	97.993	-160.1018
14.448323	97.975	-160.4238
14.553021	97.956	-160.7436
14.658478	97.936	-161.0605
14.764700	97.917	-161.3738
14.871691	97.897	-161.6833
14.979457	97.878	-161.9891
15.088005	97.859	-162.2917
15.197339	97.841	-162.5917
15.307465	97.823	-162.8904
15.418389	97.807	-163.1888
15.530117	97.791	-163.4881
15.642655	97.776	-163.7894
15.756008	97.761	-164.0937
15.870182	97.747	-164.4014
15.985184	97.733	-164.7129
16.101019	97.718	-165.0278
16.217694	97.704	-165.3456
16.335214	97.689	-165.6655
16.453586	97.674	-165.9862
16.572815	97.658	-166.3065
16.692909	97.642	-166.6252
16.813872	97.626	-166.9413
16.935713	97.610	-167.2537
17.058436	97.595	-167.5620
17.182048	97.579	-167.8660
17.306556	97.565	-168.1658
17.431967	97.550	-168.4619
17.558286	97.536	-168.7547
17.685521	97.523	-169.0452
17.813677	97.510	-169.3339
17.942762	97.497	-169.6215
18.072783	97.484	-169.9083
18.203746	97.472	-170.1946
18.335658	97.459	-170.4803
18.468526	97.447	-170.7653
18.602356	97.434	-171.0492
18.737156	97.422	-171.3317
18.872934	97.409	-171.6125
19.009695	97.397	-171.8913
19.147447	97.384	-172.1682
19.286197	97.372	-172.4430
19.425953	97.359	-172.7158
19.566721	97.347	-172.9868
19.708510	97.334	-173.2557
19.851326	97.320	-173.5225
19.995177	97.307	-173.7870
20.140070	97.293	-174.0487
20.286013	97.278	-174.3071
20.433014	97.263	-174.5620
20.581080	97.248	-174.8131
20.730219	97.233	-175.0607
20.880439	97.218	-175.3053
21.031747	97.204	-175.5480
21.184152	97.191	-175.7902
21.337661	97.178	-176.0336
21.492282	97.166	-176.2798
21.648024	97.154	-176.5305
21.804895	97.142	-176.7866
21.962902	97.130	-177.0486
22.122054	97.117	-177.3160
22.282360	97.103	-177.5877
22.443827	97.089	-177.8619
22.606464	97.072	-178.1365
22.770280	97.055	-178.4091
22.935283	97.037	-178.6779
23.101481	97.018	-178.9413
23.268884	96.998	-179.1987
23.437500	96.979	-179.4504
23.607338	96.960	-179.6973
23.778406	96.941	-179.9410
23.950714	96.923	179.8165
24.124271	96.906	179.5735
24.299086	96.889	179.3283
24.475167	96.873	179.0802
24.652524	96.856	178.8287
24.831166	96.840	178.5745
25.011103	96.823	178.3184
25.192344	96.805	178.0618
25.374898	96.787	177.8062
25.558775	96.769	177.5530
25.743984	96.750	177.3033
25.930536	96.732	177.0578
26.118439	96.713	176.8169
26.307704	96.694	176.5806
26.498341	96.676	176.3486
26.690359	96.658	176.1201
26.883768	96.640	175.8945
27.078579	96.623	175.6710
27.274801	96.606	175.4489
27.472446	96.589	175.2276
27.671522	96.572	175.0068
27.872042	96.554	174.7865
28.074014	96.537	174.5668
28.277450	96.519	174.3481
28.482360	96.501	174.1307
28.688755	96.483	173.9149
28.896645	96.464	173.7008
29.106042	96.445	173.4883
29.316957	96.425	173.2772
29.529400	96.406	173.0669
29.743382	96.387	172.8569
29.958915	96.367	172.6470
30.176009	96.347	172.4371
30.394677	96.327	172.2272
30.614929	96.307	172.0174
30.836778	96.287	171.8079
31.060234	96.267	171.5986
31.285309	96.246	171.3892
31.512015	96.226	171.1792
31.740364	96.205	170.9681
31.970368	96.185	170.7555
32.202039	96.165	170.5413
32.435388	96.144	170.3257
32.670428	96.123	170.1092
32.907171	96.102	169.8923
33.145630	96.081	169.6757
33.385817	96.060	169.4597
33.627745	96.039	169.2447
33.871425	96.018	169.0306
34.116871	95.997	168.8175
34.364096	95.976	168.6055
34.613113	95.955	168.3946
34.863934	95.934	168.1849
35.116572	95.914	167.9764
35.371041	95.893	167.7691
35.627354	95.872	167.5629
35.885525	95.851	167.3580
36.145566	95.830	167.1546
36.407492	95.808	166.9531
36.671316	95.786	166.7541
36.937051	95.764	166.5583
37.204712	95.741	166.3659
37.474313	95.718	166.1769
37.745867	95.695	165.9911
38.019389	95.672	165.8076
38.294893	95.649	165.6262
38.572394	95.626	165.4462
38.851905	95.602	165.2678
39.133442	95.579	165.0909
39.417019	95.555	164.9156
39.702651	95.531	164.7416
39.990353	95.507	164.5687
40.280140	95.482	164.3961
40.572026	95.458	164.2236
40.866028	95.434	164.0509
41.162160	95.409	163.8782
41.460438	95.384	163.7062
41.760877	95.359	163.5353
42.063494	95.334	163.3659
42.368303	95.308	163.1982
42.675322	95.283	163.0319
42.984565	95.258	162.8663
43.296048	95.233	162.7010
43.609789	95.207	162.5358
43.925804	95.182	162.3706
44.244108	95.157	162.2056
44.564719	95.131	162.0411
44.887654	95.106	161.8769
45.212928	95.080	161.7131
45.540560	95.055	161.5493
45.870565	95.029	161.3862
46.202962	95.002	161.2245
46.537768	94.975	161.0659
46.875000	94.948	160.9120
47.214676	94.920	160.7638
47.556813	94.893	160.6209
47.901429	94.867	160.4820
48.248542	94.841	160.3451
48.598171	94.816	160.2084
48.950334	94.790	160.0710
49.305048	94.765	159.9329
49.662333	94.739	159.7953
50.022206	94.713	159.6596
50.384688	94.686	159.5269
50.749796	94.659	159.3981
51.117550	94.631	159.2733
51.487969	94.604	159.1522
51.861072	94.576	159.0344
52.236879	94.549	158.9193
52.615409	94.521	158.8068
52.996681	94.494	158.6967
53.380717	94.467	158.5893
53.767536	94.440	158.4849
54.157158	94.414	158.3835
54.549603	94.388	158.2849
54.944892	94.364	158.1880
55.343045	94.340	158.0915
55.744084	94.317	157.9930
56.148028	94.295	157.8908
56.554900	94.274	157.7832
56.964720	94.253	157.6697
57.377510	94.232	157.5508
57.793291	94.210	157.4274
58.212085	94.188	157.3005
58.633914	94.166	157.1713
59.058799	94.142	157.0405
59.486764	94.117	156.9095
59.917829	94.091	156.7795
60.352019	94.064	156.6522
60.789354	94.036	156.5284
61.229859	94.007	156.4085
61.673556	93.978	156.2920
62.120468	93.948	156.1784
62.570618	93.918	156.0674
63.024031	93.888	155.9589
63.480729	93.857	155.8531
63.940736	93.827	155.7500
64.404077	93.796	155.6495
64.870776	93.765	155.5511
65.340856	93.735	155.4551
65.814343	93.704	155.3613
66.291261	93.673	155.2702
66.771635	93.642	155.1816
67.255489	93.612	155.0952
67.742850	93.581	155.0106
68.233743	93.549	154.9275
68.728193	93.518	154.8449
69.226226	93.486	154.7619
69.727867	93.454	154.6781
70.233144	93.421	154.5946
70.742083	93.388	154.5143
71.254709	93.354	154.4399
71.771050	93.321	154.3721
72.291132	93.288	154.3095
72.814984	93.256	154.2504
73.342631	93.224	154.1946
73.874102	93.191	154.1449
74.409424	93.159	154.1060
74.948626	93.126	154.0829
75.491734	93.093	154.0777
76.038779	93.060	154.0892
76.589787	93.027	154.1144
77.144788	92.995	154.1498
77.703811	92.963	154.1911
78.266885	92.930	154.2328
78.834039	92.895	154.2723
79.405303	92.858	154.3158
79.980706	92.820	154.3769
80.560280	92.783	154.4630
81.144053	92.751	154.5637
81.732056	92.728	154.6538
82.324320	92.713	154.7079
82.920876	92.703	154.7123
83.521755	92.698	154.6646
