* Measurement data measured by REW V5.31
* Source: EXCL: Microphone (USB Sound Device        ), MICROPHONE (Master Volume), R, volume: 0.390
* Format: 256k Log Swept Sine, 1 sweep at -10.0 dBFS with no timing reference
* Dated: Dec 24, 2024 12:39:06 PM
* REW Settings:
*  C-weighting compensation: Off
*  Target level: 75.0 dB
* Note: KZ Zenith 1000 L
* Measurement: L KZ Zenith 1000
* Smoothing: 1/12 octave
* Frequency Step: 96 ppo
* Start Frequency: 0.36621094 Hz
*
* Freq(Hz) SPL(dB) Phase(degrees)
0.366211 95.977 157.0320
0.368865 95.971 157.0080
0.371538 95.962 156.9719
0.374230 95.952 156.9266
0.376942 95.940 156.8744
0.379673 95.927 156.8170
0.382424 95.913 156.7556
0.385196 95.899 156.6908
0.387987 95.885 156.6230
0.390798 95.871 156.5525
0.393630 95.856 156.4793
0.396483 95.842 156.4035
0.399356 95.827 156.3250
0.402250 95.812 156.2440
0.405165 95.797 156.1603
0.408101 95.782 156.0739
0.411058 95.767 155.9849
0.414037 95.752 155.8932
0.417037 95.736 155.7987
0.420059 95.721 155.7014
0.423103 95.705 155.6014
0.426169 95.690 155.4985
0.429257 95.674 155.3928
0.432368 95.658 155.2843
0.435501 95.642 155.1728
0.438656 95.626 155.0585
0.441835 95.610 154.9412
0.445037 95.593 154.8209
0.448262 95.577 154.6976
0.451510 95.560 154.5714
0.454782 95.543 154.4421
0.458077 95.526 154.3098
0.461397 95.509 154.1744
0.464740 95.492 154.0359
0.468108 95.475 153.8943
0.471500 95.458 153.7496
0.474917 95.440 153.6018
0.478358 95.423 153.4507
0.481825 95.405 153.2966
0.485316 95.387 153.1392
0.488833 95.369 152.9787
0.492375 95.351 152.8149
0.495943 95.333 152.6479
0.499537 95.314 152.4777
0.503157 95.296 152.3043
0.506803 95.277 152.1276
0.510475 95.258 151.9477
0.514175 95.239 151.7646
0.517900 95.220 151.5782
0.521653 95.201 151.3885
0.525434 95.182 151.1957
0.529241 95.162 150.9996
0.533076 95.143 150.8003
0.536939 95.123 150.5979
0.540830 95.103 150.3922
0.544749 95.083 150.1833
0.548696 95.063 149.9713
0.552673 95.042 149.7562
0.556677 95.022 149.5380
0.560711 95.001 149.3167
0.564774 94.980 149.0924
0.568867 94.959 148.8651
0.572989 94.938 148.6348
0.577141 94.917 148.4016
0.581324 94.896 148.1655
0.585536 94.874 147.9266
0.589779 94.852 147.6850
0.594053 94.830 147.4407
0.598358 94.808 147.1938
0.602694 94.786 146.9443
0.607061 94.764 146.6923
0.611460 94.741 146.4379
0.615891 94.719 146.1813
0.620354 94.696 145.9224
0.624849 94.673 145.6615
0.629377 94.650 145.3985
0.633938 94.626 145.1337
0.638532 94.603 144.8671
0.643159 94.579 144.5988
0.647819 94.555 144.3291
0.652514 94.531 144.0581
0.657242 94.507 143.7858
0.662005 94.483 143.5125
0.666802 94.458 143.2384
0.671634 94.433 142.9636
0.676501 94.408 142.6883
0.681403 94.383 142.4126
0.686341 94.358 142.1369
0.691314 94.333 141.8614
0.696324 94.307 141.5861
0.701370 94.281 141.3113
0.706452 94.254 141.0372
0.711571 94.227 140.7638
0.716728 94.200 140.4911
0.721921 94.171 140.2188
0.727153 94.141 139.9465
0.732422 94.108 139.6734
0.737729 94.074 139.3984
0.743075 94.038 139.1205
0.748460 94.000 138.8386
0.753883 93.960 138.5521
0.759346 93.920 138.2605
0.764849 93.879 137.9633
0.770391 93.837 137.6603
0.775974 93.795 137.3514
0.781597 93.752 137.0364
0.787261 93.708 136.7153
0.792966 93.664 136.3879
0.798712 93.620 136.0542
0.804500 93.575 135.7142
0.810329 93.529 135.3677
0.816201 93.482 135.0148
0.822116 93.435 134.6553
0.828073 93.387 134.2893
0.834074 93.339 133.9167
0.840118 93.289 133.5375
0.846206 93.239 133.1517
0.852338 93.188 132.7592
0.858514 93.137 132.3600
0.864735 93.084 131.9542
0.871001 93.031 131.5418
0.877313 92.976 131.1227
0.883670 92.921 130.6971
0.890074 92.864 130.2650
0.896524 92.807 129.8264
0.903020 92.748 129.3814
0.909564 92.689 128.9301
0.916155 92.628 128.4727
0.922794 92.566 128.0093
0.929481 92.502 127.5400
0.936216 92.438 127.0649
0.943000 92.372 126.5844
0.949834 92.304 126.0986
0.956717 92.235 125.6077
0.963649 92.165 125.1121
0.970632 92.093 124.6120
0.977666 92.020 124.1078
0.984750 91.944 123.5999
0.991886 91.868 123.0887
0.999074 91.789 122.5745
1.006314 91.708 122.0580
1.013606 91.626 121.5396
1.020951 91.542 121.0198
1.028349 91.455 120.4995
1.035801 91.367 119.9791
1.043307 91.276 119.4594
1.050867 91.183 118.9411
1.058482 91.088 118.4250
1.066152 90.991 117.9118
1.073878 90.891 117.4022
1.081660 90.789 116.8966
1.089498 90.685 116.3953
1.097393 90.579 115.8982
1.105345 90.471 115.4048
1.113355 90.361 114.9143
1.121423 90.250 114.4260
1.129549 90.138 113.9390
1.137734 90.025 113.4526
1.145979 89.910 112.9663
1.154283 89.794 112.4795
1.162647 89.677 111.9917
1.171072 89.558 111.5025
1.179558 89.437 111.0112
1.188106 89.315 110.5175
1.196715 89.191 110.0209
1.205387 89.064 109.5207
1.214122 88.935 109.0165
1.222920 88.804 108.5076
1.231782 88.669 107.9935
1.240708 88.532 107.4736
1.249699 88.392 106.9471
1.258754 88.249 106.4134
1.267876 88.101 105.8718
1.277063 87.951 105.3214
1.286318 87.796 104.7615
1.295639 87.636 104.1913
1.305027 87.473 103.6098
1.314484 87.304 103.0163
1.324009 87.131 102.4096
1.333604 86.952 101.7890
1.343268 86.768 101.1533
1.353002 86.577 100.5015
1.362806 86.381 99.8327
1.372681 86.178 99.1458
1.382628 85.968 98.4398
1.392647 85.750 97.7136
1.402739 85.525 96.9665
1.412904 85.292 96.1976
1.423142 85.050 95.4063
1.433455 84.799 94.5921
1.443843 84.536 93.7550
1.454305 84.262 92.8950
1.464844 83.972 92.0123
1.475459 83.666 91.1071
1.486150 83.340 90.1790
1.496920 82.993 89.2267
1.507767 82.624 88.2485
1.518693 82.232 87.2413
1.529698 81.819 86.2016
1.540783 81.384 85.1250
1.551948 80.930 84.0064
1.563194 80.458 82.8396
1.574521 79.970 81.6177
1.585931 79.467 80.3324
1.597423 78.952 78.9740
1.608999 78.427 77.5311
1.620658 77.895 75.9904
1.632402 77.358 74.3359
1.644232 76.819 72.5488
1.656146 76.280 70.6064
1.668147 75.746 68.4818
1.680235 75.218 66.1426
1.692411 74.701 63.5500
1.704675 74.199 60.6581
1.717028 73.716 57.4127
1.729470 73.255 53.7515
1.742003 72.821 49.6047
1.754626 72.420 44.8994
1.767341 72.057 39.5668
1.780147 71.736 33.5561
1.793047 71.464 26.8539
1.806040 71.245 19.5050
1.819128 71.085 11.6278
1.832310 70.988 3.4097
1.845587 70.955 -4.9195
1.858961 70.987 -13.1259
1.872432 71.084 -21.0076
1.886001 71.242 -28.4169
1.899667 71.459 -35.2665
1.913433 71.729 -41.5231
1.927299 72.049 -47.1936
1.941265 72.413 -52.3102
1.955332 72.815 -56.9188
1.969501 73.250 -61.0698
1.983773 73.713 -64.8130
1.998148 74.198 -68.1945
2.012627 74.699 -71.2557
2.027212 75.210 -74.0328
2.041902 75.726 -76.5570
2.056698 76.241 -78.8550
2.071602 76.748 -80.9497
2.086614 77.244 -82.8605
2.101734 77.721 -84.6043
2.116964 78.176 -86.1961
2.132304 78.603 -87.6499
2.147756 78.999 -88.9794
2.163320 79.361 -90.1993
2.178996 79.689 -91.3263
2.194786 79.984 -92.3789
2.210690 80.249 -93.3774
2.226710 80.488 -94.3404
2.242845 80.703 -95.2825
2.259098 80.899 -96.2133
2.275468 81.077 -97.1379
2.291957 81.239 -98.0582
2.308566 81.386 -98.9736
2.325295 81.520 -99.8820
2.342145 81.640 -100.7805
2.359117 81.748 -101.6653
2.376212 81.844 -102.5321
2.393431 81.930 -103.3764
2.410775 82.007 -104.1931
2.428244 82.075 -104.9771
2.445840 82.135 -105.7230
2.463564 82.188 -106.4255
2.481416 82.235 -107.0794
2.499397 82.276 -107.6803
2.517509 82.312 -108.2254
2.535752 82.342 -108.7135
2.554127 82.366 -109.1466
2.572635 82.383 -109.5293
2.591277 82.390 -109.8681
2.610055 82.387 -110.1694
2.628968 82.374 -110.4378
2.648019 82.348 -110.6759
2.667208 82.313 -110.8844
2.686535 82.267 -111.0624
2.706003 82.212 -111.2078
2.725612 82.149 -111.3174
2.745363 82.081 -111.3874
2.765257 82.007 -111.4133
2.785295 81.930 -111.3898
2.805478 81.852 -111.3114
2.825808 81.773 -111.1719
2.846285 81.697 -110.9650
2.866910 81.622 -110.6839
2.887685 81.551 -110.3220
2.908611 81.484 -109.8725
2.929688 81.419 -109.3293
2.950917 81.357 -108.6869
2.972301 81.294 -107.9409
2.993839 81.231 -107.0888
3.015534 81.167 -106.1300
3.037386 81.103 -105.0658
3.059396 81.041 -103.8997
3.081565 80.980 -102.6369
3.103896 80.924 -101.2851
3.126388 80.875 -99.8539
3.149043 80.835 -98.3550
3.171862 80.806 -96.8020
3.194847 80.790 -95.2097
3.217998 80.792 -93.5930
3.241317 80.812 -91.9655
3.264805 80.853 -90.3383
3.288463 80.917 -88.7187
3.312293 81.005 -87.1104
3.336295 81.117 -85.5158
3.360471 81.253 -83.9399
3.384822 81.411 -82.3910
3.409350 81.588 -80.8806
3.434056 81.781 -79.4221
3.458940 81.989 -78.0293
3.484005 82.207 -76.7150
3.509252 82.433 -75.4907
3.534681 82.663 -74.3658
3.560295 82.894 -73.3474
3.586094 83.125 -72.4400
3.612081 83.353 -71.6458
3.638255 83.578 -70.9637
3.664620 83.800 -70.3900
3.691175 84.020 -69.9184
3.717923 84.239 -69.5410
3.744864 84.457 -69.2495
3.772001 84.675 -69.0359
3.799335 84.892 -68.8923
3.826866 85.108 -68.8114
3.854597 85.320 -68.7869
3.882529 85.529 -68.8130
3.910664 85.731 -68.8848
3.939002 85.927 -68.9986
3.967546 86.115 -69.1521
3.996296 86.295 -69.3444
4.025255 86.465 -69.5760
4.054423 86.625 -69.8477
4.083804 86.777 -70.1599
4.113396 86.919 -70.5109
4.143204 87.053 -70.8968
4.173227 87.179 -71.3121
4.203468 87.296 -71.7502
4.233928 87.407 -72.2041
4.264609 87.509 -72.6671
4.295512 87.605 -73.1335
4.326639 87.693 -73.5992
4.357992 87.775 -74.0620
4.389572 87.848 -74.5224
4.421380 87.914 -74.9825
4.453419 87.972 -75.4449
4.485691 88.022 -75.9108
4.518196 88.064 -76.3790
4.550936 88.099 -76.8463
4.583914 88.127 -77.3075
4.617131 88.149 -77.7567
4.650589 88.165 -78.1874
4.684289 88.176 -78.5938
4.718233 88.183 -78.9711
4.752424 88.185 -79.3165
4.786862 88.182 -79.6290
4.821549 88.173 -79.9095
4.856488 88.160 -80.1591
4.891680 88.142 -80.3787
4.927127 88.121 -80.5685
4.962831 88.097 -80.7277
4.998794 88.072 -80.8551
5.035017 88.047 -80.9488
5.071503 88.022 -81.0066
5.108253 87.999 -81.0259
5.145270 87.977 -81.0048
5.182555 87.957 -80.9424
5.220110 87.939 -80.8399
5.257937 87.923 -80.7006
5.296038 87.909 -80.5298
5.334415 87.900 -80.3339
5.373071 87.894 -80.1197
5.412006 87.895 -79.8937
5.451224 87.901 -79.6606
5.490725 87.914 -79.4237
5.530514 87.935 -79.1844
5.570590 87.963 -78.9446
5.610957 87.998 -78.7076
5.651616 88.039 -78.4788
5.692570 88.086 -78.2656
5.733821 88.138 -78.0759
5.775370 88.194 -77.9176
5.817221 88.255 -77.7969
5.859375 88.319 -77.7178
5.901834 88.388 -77.6820
5.944602 88.460 -77.6897
5.987679 88.534 -77.7403
6.031068 88.611 -77.8339
6.074771 88.690 -77.9706
6.118792 88.767 -78.1513
6.163131 88.844 -78.3769
6.207792 88.919 -78.6486
6.252776 88.991 -78.9665
6.298086 89.061 -79.3298
6.343725 89.128 -79.7358
6.389694 89.191 -80.1802
6.435996 89.252 -80.6576
6.482634 89.308 -81.1631
6.529610 89.359 -81.6923
6.576926 89.406 -82.2425
6.624585 89.448 -82.8121
6.672590 89.484 -83.3998
6.720942 89.515 -84.0033
6.769645 89.542 -84.6184
6.818700 89.564 -85.2395
6.868111 89.581 -85.8611
6.917881 89.594 -86.4782
6.968010 89.603 -87.0875
7.018504 89.609 -87.6875
7.069362 89.612 -88.2771
7.120590 89.613 -88.8549
7.172189 89.613 -89.4184
7.224161 89.612 -89.9646
7.276511 89.612 -90.4906
7.329239 89.612 -90.9942
7.382350 89.613 -91.4743
7.435845 89.614 -91.9316
7.489729 89.618 -92.3676
7.544002 89.622 -92.7850
7.598669 89.630 -93.1862
7.653732 89.640 -93.5733
7.709194 89.654 -93.9478
7.765058 89.674 -94.3112
7.821327 89.698 -94.6661
7.878004 89.729 -95.0162
7.935091 89.764 -95.3661
7.992592 89.805 -95.7207
8.050510 89.851 -96.0836
8.108847 89.903 -96.4575
8.167607 89.959 -96.8442
8.226793 90.020 -97.2453
8.286408 90.084 -97.6629
8.346454 90.152 -98.0991
8.406936 90.222 -98.5553
8.467856 90.294 -99.0323
8.529218 90.367 -99.5296
8.591024 90.442 -100.0459
8.653278 90.518 -100.5793
8.715983 90.593 -101.1277
8.779143 90.669 -101.6894
8.842760 90.743 -102.2626
8.906839 90.817 -102.8451
8.971381 90.889 -103.4342
9.036392 90.960 -104.0266
9.101873 91.031 -104.6190
9.167829 91.099 -105.2088
9.234263 91.167 -105.7939
9.301178 91.233 -106.3727
9.368578 91.298 -106.9434
9.436467 91.363 -107.5044
9.504847 91.427 -108.0540
9.573723 91.490 -108.5916
9.643099 91.552 -109.1167
9.712976 91.614 -109.6297
9.783361 91.674 -110.1311
9.854255 91.732 -110.6214
9.925663 91.788 -111.1013
9.997588 91.842 -111.5715
10.070035 91.895 -112.0329
10.143007 91.945 -112.4865
10.216507 91.993 -112.9331
10.290540 92.039 -113.3734
10.365109 92.083 -113.8075
10.440219 92.125 -114.2351
10.515873 92.165 -114.6554
10.592076 92.203 -115.0674
10.668830 92.238 -115.4701
10.746141 92.272 -115.8619
10.824012 92.303 -116.2407
10.902447 92.331 -116.6040
10.981451 92.357 -116.9494
11.061027 92.381 -117.2747
11.141180 92.403 -117.5779
11.221913 92.423 -117.8574
11.303232 92.442 -118.1115
11.385140 92.461 -118.3393
11.467641 92.479 -118.5406
11.550741 92.498 -118.7165
11.634442 92.518 -118.8687
11.718750 92.541 -118.9998
11.803669 92.566 -119.1127
11.889203 92.594 -119.2118
11.975357 92.625 -119.3020
12.062136 92.660 -119.3888
12.149543 92.699 -119.4776
12.237583 92.740 -119.5736
12.326262 92.784 -119.6819
12.415583 92.831 -119.8074
12.505552 92.878 -119.9539
12.596172 92.926 -120.1241
12.687449 92.974 -120.3197
12.779387 93.021 -120.5413
12.871992 93.066 -120.7887
12.965268 93.108 -121.0605
13.059220 93.147 -121.3541
13.153852 93.183 -121.6662
13.249170 93.214 -121.9933
13.345179 93.242 -122.3314
13.441884 93.267 -122.6764
13.539289 93.287 -123.0244
13.637401 93.304 -123.3719
13.736223 93.318 -123.7161
13.835761 93.330 -124.0552
13.936021 93.340 -124.3878
14.037007 93.348 -124.7139
14.138725 93.356 -125.0343
14.241180 93.364 -125.3510
14.344377 93.372 -125.6664
14.448323 93.381 -125.9834
14.553021 93.391 -126.3055
14.658478 93.401 -126.6360
14.764700 93.413 -126.9780
14.871691 93.425 -127.3337
14.979457 93.437 -127.7049
15.088005 93.449 -128.0921
15.197339 93.460 -128.4950
15.307465 93.470 -128.9120
15.418389 93.478 -129.3407
15.530117 93.485 -129.7779
15.642655 93.489 -130.2197
15.756008 93.492 -130.6620
15.870182 93.493 -131.1006
15.985184 93.492 -131.5317
16.101019 93.491 -131.9521
16.217694 93.489 -132.3595
16.335214 93.488 -132.7528
16.453586 93.489 -133.1320
16.572815 93.492 -133.4984
16.692909 93.499 -133.8545
16.813872 93.509 -134.2038
16.935713 93.522 -134.5502
17.058436 93.540 -134.8981
17.182048 93.561 -135.2517
17.306556 93.584 -135.6149
17.431967 93.610 -135.9901
17.558286 93.638 -136.3790
17.685521 93.665 -136.7817
17.813677 93.692 -137.1967
17.942762 93.718 -137.6210
18.072783 93.741 -138.0507
18.203746 93.762 -138.4804
18.335658 93.780 -138.9044
18.468526 93.796 -139.3168
18.602356 93.808 -139.7120
18.737156 93.819 -140.0849
18.872934 93.829 -140.4322
19.009695 93.839 -140.7519
19.147447 93.850 -141.0438
19.286197 93.862 -141.3101
19.425953 93.876 -141.5546
19.566721 93.894 -141.7829
19.708510 93.914 -142.0018
19.851326 93.938 -142.2188
19.995177 93.965 -142.4411
20.140070 93.993 -142.6755
20.286013 94.023 -142.9270
20.433014 94.052 -143.1991
20.581080 94.081 -143.4929
20.730219 94.107 -143.8075
20.880439 94.130 -144.1400
21.031747 94.149 -144.4858
21.184152 94.163 -144.8394
21.337661 94.174 -145.1947
21.492282 94.180 -145.5460
21.648024 94.182 -145.8883
21.804895 94.182 -146.2181
21.962902 94.179 -146.5334
22.122054 94.175 -146.8342
22.282360 94.171 -147.1219
22.443827 94.167 -147.3995
22.606464 94.164 -147.6704
22.770280 94.162 -147.9386
22.935283 94.161 -148.2075
23.101481 94.161 -148.4798
23.268884 94.162 -148.7572
23.437500 94.163 -149.0401
23.607338 94.164 -149.3281
23.778406 94.166 -149.6203
23.950714 94.168 -149.9159
24.124271 94.171 -150.2141
24.299086 94.175 -150.5151
24.475167 94.180 -150.8198
24.652524 94.187 -151.1298
24.831166 94.195 -151.4469
25.011103 94.205 -151.7726
25.192344 94.215 -152.1077
25.374898 94.225 -152.4515
25.558775 94.235 -152.8018
25.743984 94.245 -153.1550
25.930536 94.253 -153.5066
26.118439 94.260 -153.8521
26.307704 94.266 -154.1875
26.498341 94.273 -154.5108
26.690359 94.280 -154.8221
26.883768 94.288 -155.1242
27.078579 94.298 -155.4217
27.274801 94.309 -155.7203
27.472446 94.321 -156.0251
27.671522 94.332 -156.3396
27.872042 94.342 -156.6640
28.074014 94.348 -156.9953
28.277450 94.351 -157.3274
28.482360 94.350 -157.6521
28.688755 94.344 -157.9614
28.896645 94.335 -158.2491
29.106042 94.325 -158.5128
29.316957 94.316 -158.7550
29.529400 94.307 -158.9822
29.743382 94.300 -159.2041
29.958915 94.295 -159.4302
30.176009 94.291 -159.6677
30.394677 94.286 -159.9190
30.614929 94.278 -160.1802
30.836778 94.267 -160.4426
31.060234 94.252 -160.6948
31.285309 94.236 -160.9257
31.512015 94.219 -161.1289
31.740364 94.205 -161.3049
31.970368 94.196 -161.4624
32.202039 94.194 -161.6159
32.435388 94.198 -161.7832
32.670428 94.207 -161.9793
32.907171 94.219 -162.2131
33.145630 94.230 -162.4840
33.385817 94.238 -162.7824
33.627745 94.242 -163.0921
33.871425 94.241 -163.3950
34.116871 94.237 -163.6761
34.364096 94.232 -163.9275
34.613113 94.229 -164.1508
34.863934 94.230 -164.3558
35.116572 94.235 -164.5577
35.371041 94.243 -164.7718
35.627354 94.252 -165.0085
35.885525 94.259 -165.2701
36.145566 94.262 -165.5501
36.407492 94.258 -165.8350
36.671316 94.249 -166.1088
36.937051 94.234 -166.3572
37.204712 94.217 -166.5721
37.474313 94.201 -166.7545
37.745867 94.187 -166.9142
38.019389 94.177 -167.0681
38.294893 94.172 -167.2360
38.572394 94.171 -167.4358
38.851905 94.171 -167.6795
39.133442 94.169 -167.9709
39.417019 94.164 -168.3052
39.702651 94.153 -168.6698
39.990353 94.135 -169.0474
40.280140 94.112 -169.4187
40.572026 94.084 -169.7665
40.866028 94.055 -170.0789
41.162160 94.027 -170.3524
41.460438 94.005 -170.5925
41.760877 93.990 -170.8127
42.063494 93.983 -171.0308
42.368303 93.983 -171.2638
42.675322 93.988 -171.5224
42.984565 93.995 -171.8080
43.296048 94.001 -172.1136
43.609789 94.004 -172.4263
43.925804 94.005 -172.7323
44.244108 94.003 -173.0212
44.564719 94.000 -173.2879
44.887654 93.996 -173.5315
45.212928 93.991 -173.7534
45.540560 93.986 -173.9554
45.870565 93.979 -174.1383
46.202962 93.972 -174.3041
46.537768 93.965 -174.4574
46.875000 93.958 -174.6060
47.214676 93.952 -174.7598
47.556813 93.946 -174.9278
47.901429 93.937 -175.1154
48.248542 93.926 -175.3238
48.598171 93.911 -175.5499
48.950334 93.892 -175.7893
49.305048 93.868 -176.0365
49.662333 93.840 -176.2853
50.022206 93.808 -176.5276
50.384688 93.772 -176.7526
50.749796 93.733 -176.9481
51.117550 93.694 -177.1039
51.487969 93.658 -177.2159
51.861072 93.629 -177.2891
52.236879 93.607 -177.3368
52.615409 93.595 -177.3768
52.996681 93.591 -177.4257
53.380717 93.594 -177.4944
53.767536 93.602 -177.5871
54.157158 93.614 -177.7045
54.549603 93.629 -177.8472
54.944892 93.646 -178.0179
55.343045 93.662 -178.2203
55.744084 93.677 -178.4553
56.148028 93.687 -178.7178
56.554900 93.692 -178.9974
56.964720 93.691 -179.2818
57.377510 93.683 -179.5616
57.793291 93.671 -179.8324
58.212085 93.653 179.9067
58.633914 93.631 179.6579
59.058799 93.603 179.4267
59.486764 93.571 179.2220
59.917829 93.536 179.0522
60.352019 93.499 178.9212
60.789354 93.463 178.8264
61.229859 93.429 178.7598
61.673556 93.399 178.7117
62.120468 93.371 178.6739
62.570618 93.346 178.6429
63.024031 93.323 178.6194
63.480729 93.303 178.6061
63.940736 93.286 178.6036
64.404077 93.274 178.6066
64.870776 93.267 178.6031
65.340856 93.264 178.5792
65.814343 93.264 178.5242
66.291261 93.264 178.4365
66.771635 93.262 178.3241
67.255489 93.258 178.2001
67.742850 93.251 178.0758
68.233743 93.245 177.9543
68.728193 93.239 177.8300
69.226226 93.234 177.6929
69.727867 93.229 177.5361
70.233144 93.223 177.3588
70.742083 93.214 177.1663
71.254709 93.202 176.9662
71.771050 93.188 176.7652
72.291132 93.172 176.5674
72.814984 93.156 176.3719
73.342631 93.140 176.1721
73.874102 93.125 175.9584
74.409424 93.109 175.7249
74.948626 93.091 175.4732
75.491734 93.069 175.2120
76.038779 93.045 174.9512
76.589787 93.020 174.6982
77.144788 92.994 174.4563
77.703811 92.968 174.2271
78.266885 92.945 174.0104
78.834039 92.923 173.8043
79.405303 92.905 173.6052
79.980706 92.890 173.4096
80.560280 92.877 173.2151
81.144053 92.866 173.0210
81.732056 92.856 172.8288
82.324320 92.845 172.6425
82.920876 92.833 172.4675
83.521755 92.821 172.3077
84.126988 92.808 172.1633
84.736607 92.794 172.0306
85.350643 92.780 171.9047
85.969129 92.765 171.7812
