* Measurement data measured by REW V5.19
* Source: Mic in at front panel (Pink) (Realtek(R) Audio), no input selected, L, volume: no control
* Format: 256k Log Swept Sine, 1 sweep at -12.0 dBFS  With no timing reference
* Dated: Aug 26, 2021 1:50:17 PM
* REW Settings:
*  C-weighting compensation: Off
*  Target level: 75.0 dB
* Note: 
* Measurement: Aug 26 13:50:17
* Smoothing: 1/12 octave
* Frequency Step: 1/48 octave
* Start Frequency: 20.0 Hz
*
* Freq(Hz)	SPL(dB)	Phase(degrees)
20.000	78.954	10.707
20.291	78.911	10.099
20.586	78.872	9.587
20.885	78.842	9.128
21.189	78.824	8.666
21.497	78.810	8.165
21.810	78.797	7.620
22.127	78.779	7.053
22.449	78.757	6.492
22.776	78.732	5.956
23.107	78.709	5.447
23.443	78.690	4.945
23.784	78.674	4.429
24.130	78.658	3.891
24.481	78.641	3.343
24.837	78.621	2.803
25.198	78.600	2.287
25.565	78.582	1.796
25.937	78.568	1.320
26.314	78.558	0.841
26.697	78.552	0.349
27.085	78.546	-0.168
27.479	78.540	-0.711
27.879	78.530	-1.283
28.284	78.514	-1.877
28.696	78.490	-2.481
29.113	78.458	-3.078
29.537	78.420	-3.651
29.966	78.377	-4.198
30.402	78.333	-4.722
30.844	78.288	-5.234
31.293	78.244	-5.741
31.748	78.201	-6.247
32.210	78.158	-6.755
32.678	78.115	-7.266
33.154	78.072	-7.771
33.636	78.031	-8.259
34.125	77.994	-8.733
34.621	77.961	-9.205
35.125	77.930	-9.693
35.636	77.895	-10.193
36.154	77.854	-10.669
36.680	77.809	-11.082
37.214	77.764	-11.415
37.755	77.727	-11.692
38.304	77.700	-11.952
38.861	77.682	-12.240
39.427	77.671	-12.591
40.000	77.659	-13.033
40.582	77.638	-13.557
41.172	77.604	-14.114
41.771	77.558	-14.644
42.379	77.508	-15.121
42.995	77.460	-15.568
43.620	77.414	-16.018
44.255	77.366	-16.479
44.898	77.314	-16.930
45.552	77.258	-17.352
46.214	77.202	-17.744
46.886	77.148	-18.128
47.568	77.095	-18.521
48.260	77.041	-18.925
48.962	76.985	-19.337
49.674	76.927	-19.749
50.397	76.866	-20.153
51.130	76.804	-20.535
51.874	76.741	-20.881
52.628	76.680	-21.185
53.394	76.624	-21.452
54.170	76.577	-21.721
54.958	76.535	-22.046
55.758	76.492	-22.446
56.569	76.443	-22.891
57.391	76.390	-23.344
58.226	76.338	-23.797
59.073	76.287	-24.245
59.932	76.236	-24.673
60.804	76.181	-25.052
61.688	76.120	-25.356
62.586	76.055	-25.588
63.496	75.984	-25.784
64.420	75.909	-25.998
65.357	75.831	-26.278
66.307	75.755	-26.654
67.272	75.689	-27.127
68.250	75.643	-27.675
69.243	75.626	-28.279
70.250	75.632	-28.945
71.272	75.638	-29.644
72.309	75.610	-30.241
73.360	75.538	-30.551
74.427	75.433	-30.517
75.510	75.317	-30.272
76.608	75.200	-30.018
77.723	75.086	-29.912
78.853	74.978	-30.017
80.000	74.879	-30.308
81.164	74.791	-30.711
82.344	74.714	-31.142
83.542	74.642	-31.538
84.757	74.569	-31.859
85.990	74.491	-32.099
87.241	74.406	-32.286
88.510	74.315	-32.456
89.797	74.219	-32.626
91.103	74.122	-32.788
92.428	74.031	-32.927
93.773	73.946	-33.043
95.137	73.865	-33.153
96.520	73.782	-33.281
97.924	73.693	-33.445
99.349	73.601	-33.649
100.794	73.512	-33.875
102.260	73.432	-34.080
103.747	73.355	-34.229
105.256	73.270	-34.328
106.787	73.169	-34.423
108.340	73.061	-34.552
109.916	72.965	-34.658
111.515	72.893	-34.515
113.137	72.827	-33.777
114.783	72.730	-32.146
116.452	72.584	-29.665
118.146	72.430	-27.043
119.865	72.325	-25.575
121.608	72.267	-26.163
123.377	72.216	-28.289
125.171	72.169	-30.584
126.992	72.147	-32.168
128.839	72.183	-33.072
130.713	72.325	-33.702
132.615	72.597	-34.275
134.543	72.921	-34.773
136.500	73.125	-35.080
138.486	73.072	-34.968
140.500	72.797	-34.358
142.544	72.470	-33.620
144.617	72.246	-33.233
146.721	72.137	-33.348
148.855	72.037	-33.761
151.020	71.850	-34.109
153.217	71.583	-34.126
155.445	71.314	-33.839
157.706	71.099	-33.442
160.000	70.939	-33.095
162.327	70.811	-32.889
164.688	70.697	-32.854
167.084	70.587	-32.942
169.514	70.475	-33.071
171.980	70.363	-33.145
174.481	70.258	-33.085
177.019	70.167	-32.878
179.594	70.089	-32.591
182.206	70.018	-32.321
184.856	69.949	-32.135
187.545	69.873	-32.042
190.273	69.785	-32.022
193.041	69.687	-32.058
195.849	69.586	-32.103
198.697	69.487	-32.078
201.587	69.397	-31.918
204.520	69.316	-31.640
207.494	69.236	-31.310
210.512	69.151	-30.969
213.574	69.056	-30.624
216.681	68.961	-30.281
219.833	68.875	-29.957
223.030	68.799	-29.657
226.274	68.725	-29.366
229.565	68.646	-29.081
232.905	68.563	-28.809
236.292	68.480	-28.559
239.729	68.402	-28.328
243.216	68.324	-28.099
246.754	68.239	-27.843
250.343	68.148	-27.533
253.984	68.059	-27.159
257.678	67.976	-26.739
261.426	67.897	-26.301
265.229	67.822	-25.858
269.087	67.747	-25.401
273.001	67.676	-24.920
276.972	67.612	-24.428
281.000	67.554	-23.957
285.088	67.502	-23.539
289.234	67.454	-23.187
293.441	67.404	-22.891
297.710	67.347	-22.615
302.040	67.282	-22.324
306.433	67.212	-21.997
310.890	67.137	-21.631
315.412	67.062	-21.233
320.000	66.986	-20.799
324.655	66.911	-20.330
329.377	66.839	-19.834
334.168	66.769	-19.326
339.028	66.701	-18.819
343.959	66.632	-18.316
348.962	66.562	-17.810
354.038	66.493	-17.293
359.188	66.424	-16.761
364.412	66.356	-16.212
369.713	66.290	-15.648
375.090	66.226	-15.074
380.546	66.163	-14.492
386.081	66.103	-13.901
391.697	66.045	-13.299
397.395	65.988	-12.683
403.175	65.933	-12.060
409.039	65.879	-11.432
414.989	65.825	-10.797
421.025	65.773	-10.146
427.149	65.723	-9.476
433.362	65.679	-8.793
439.665	65.640	-8.110
446.060	65.605	-7.442
452.548	65.572	-6.805
459.131	65.537	-6.200
465.809	65.495	-5.607
472.584	65.449	-4.999
479.458	65.399	-4.364
486.432	65.350	-3.699
493.507	65.302	-3.001
500.686	65.256	-2.269
507.968	65.213	-1.517
515.357	65.173	-0.755
522.853	65.137	0.017
530.458	65.103	0.802
538.174	65.072	1.600
546.002	65.042	2.407
553.943	65.015	3.217
562.001	64.990	4.029
570.175	64.967	4.844
578.469	64.945	5.672
586.883	64.924	6.520
595.419	64.904	7.392
604.080	64.887	8.285
612.866	64.872	9.197
621.780	64.861	10.131
630.824	64.853	11.091
640.000	64.851	12.072
649.309	64.856	13.063
658.753	64.868	14.042
668.335	64.884	14.990
678.056	64.900	15.902
687.919	64.912	16.794
697.925	64.919	17.695
708.076	64.923	18.623
718.376	64.925	19.594
728.825	64.926	20.628
739.426	64.928	21.751
750.181	64.937	22.988
761.093	64.962	24.334
772.163	65.013	25.739
783.394	65.090	27.121
794.789	65.188	28.405
806.349	65.295	29.572
818.078	65.405	30.641
829.977	65.515	31.637
842.050	65.623	32.574
854.297	65.727	33.473
866.724	65.828	34.355
879.330	65.928	35.241
892.120	66.030	36.136
905.097	66.135	37.037
918.262	66.247	37.938
931.618	66.366	38.828
945.169	66.491	39.700
958.917	66.622	40.551
972.864	66.758	41.384
987.015	66.898	42.207
1001.371	67.043	43.022
1015.937	67.196	43.822
1030.714	67.360	44.587
1045.706	67.532	45.285
1060.916	67.708	45.899
1076.347	67.882	46.434
1092.003	68.053	46.916
1107.887	68.220	47.370
1124.001	68.384	47.812
1140.350	68.547	48.254
1156.937	68.710	48.706
1173.765	68.877	49.178
1190.838	69.051	49.666
1208.159	69.236	50.158
1225.732	69.432	50.644
1243.561	69.641	51.118
1261.649	69.866	51.562
1280.000	70.108	51.931
1298.618	70.364	52.171
1317.507	70.625	52.248
1336.670	70.882	52.172
1356.113	71.132	51.996
1375.838	71.377	51.781
1395.850	71.624	51.565
1416.153	71.877	51.346
1436.751	72.137	51.090
1457.649	72.401	50.766
1478.851	72.663	50.367
1500.362	72.919	49.897
1522.185	73.168	49.362
1544.326	73.411	48.758
1566.789	73.650	48.060
1589.578	73.889	47.229
1612.699	74.125	46.225
1636.156	74.354	45.034
1659.955	74.571	43.662
1684.099	74.772	42.124
1708.595	74.954	40.432
1733.447	75.113	38.602
1758.661	75.246	36.660
1784.241	75.351	34.629
1810.193	75.429	32.524
1836.523	75.480	30.359
1863.236	75.504	28.164
1890.338	75.506	25.975
1917.833	75.495	23.809
1945.729	75.475	21.643
1974.030	75.445	19.431
2002.743	75.393	17.148
2031.873	75.304	14.827
2061.428	75.168	12.549
2091.412	74.979	10.422
2121.832	74.738	8.567
2152.695	74.453	7.107
2184.007	74.141	6.127
2215.774	73.829	5.639
2248.003	73.547	5.555
2280.701	73.319	5.706
2313.874	73.152	5.877
2347.530	73.032	5.876
2381.676	72.931	5.604
2416.318	72.817	5.097
2451.464	72.668	4.497
2487.122	72.480	3.974
2523.298	72.261	3.663
2560.000	72.029	3.627
2597.236	71.802	3.844
2635.014	71.594	4.238
2673.341	71.407	4.736
2712.226	71.238	5.291
2751.676	71.087	5.880
2791.700	70.949	6.485
2832.306	70.822	7.091
2873.503	70.701	7.695
2915.299	70.582	8.314
2957.703	70.463	8.977
3000.724	70.344	9.712
3044.370	70.229	10.541
3088.652	70.122	11.482
3133.577	70.032	12.541
3179.156	69.963	13.689
3225.398	69.920	14.879
3272.312	69.901	16.075
3319.909	69.903	17.261
3368.198	69.926	18.435
3417.190	69.972	19.598
3466.894	70.043	20.745
3517.321	70.142	21.865
3568.482	70.275	22.918
3620.387	70.441	23.840
3673.046	70.634	24.565
3726.472	70.845	25.051
3780.675	71.066	25.272
3835.666	71.288	25.213
3891.457	71.506	24.859
3948.060	71.713	24.184
4005.486	71.901	23.149
4063.747	72.053	21.727
4122.855	72.150	19.949
4182.824	72.174	17.914
4243.664	72.110	15.786
4305.390	71.953	13.773
4368.013	71.706	12.086
4431.547	71.386	10.900
4496.005	71.012	10.342
4561.401	70.612	10.488
4627.749	70.222	11.347
4695.061	69.881	12.845
4763.352	69.628	14.798
4832.637	69.485	16.921
4902.929	69.447	18.913
4974.244	69.474	20.579
5046.596	69.522	21.951
5120.000	69.571	23.299
5194.472	69.657	24.932
5270.027	69.862	26.868
5346.682	70.241	28.609
5424.451	70.747	29.309
5503.352	71.242	28.325
5583.399	71.588	25.693
5664.612	71.717	22.107
5747.006	71.632	18.415
5830.598	71.373	15.207
5915.406	70.977	12.821
6001.447	70.478	11.485
6088.740	69.928	11.293
6177.303	69.382	12.156
6267.154	68.892	13.879
6358.312	68.488	16.252
6450.796	68.190	19.091
6544.625	68.009	22.239
6639.818	67.949	25.561
6736.397	68.012	28.944
6834.380	68.199	32.283
6933.789	68.509	35.462
7034.643	68.940	38.357
7136.964	69.493	40.842
7240.773	70.163	42.786
7346.093	70.949	44.026
7452.944	71.835	44.350
7561.350	72.794	43.477
7671.332	73.774	41.054
7782.915	74.697	36.698
7896.120	75.470	30.145
8010.971	75.999	21.481
8127.493	76.209	11.321
8245.711	76.056	0.766
8365.647	75.540	-8.907
8487.328	74.704	-16.673
8610.779	73.625	-22.037
8736.026	72.405	-25.033
8863.095	71.147	-26.009
8992.011	69.946	-25.423
9122.803	68.873	-23.711
9255.497	67.971	-21.234
9390.121	67.258	-18.269
9526.704	66.739	-15.034
9665.273	66.412	-11.697
9805.857	66.275	-8.383
9948.487	66.337	-5.188
10093.191	66.625	-2.214
10240.000	67.180	0.328
10388.944	68.015	1.967
10540.055	69.064	1.886
10693.363	70.168	-0.949
10848.902	71.129	-7.401
11006.703	71.762	-17.586
11166.799	71.929	-30.403
11329.224	71.563	-43.670
11494.012	70.672	-55.036
11661.195	69.336	-63.017
11830.812	67.683	-67.353
12002.895	65.871	-68.638
12177.480	64.059	-67.757
12354.606	62.387	-65.513
12534.309	60.948	-62.521
12716.624	59.785	-59.241
12901.592	58.901	-56.072
13089.250	58.276	-53.421
13279.637	57.868	-51.732
13472.794	57.608	-51.461
13668.760	57.398	-52.976
13867.577	57.130	-56.429
14069.285	56.699	-61.648
14273.928	56.023	-68.148
14481.547	55.044	-75.280
14692.186	53.724	-82.542
14905.889	52.040	-90.322
15122.700	50.032	-101.182
15342.664	47.965	-120.167
15565.829	46.639	-151.376
15792.239	47.039	167.451
16021.942	48.810	124.843
16254.986	50.884	88.606
16491.422	52.696	60.576
16731.295	54.039	38.067
16974.656	54.821	18.051
17221.559	55.015	-0.536
17472.053	54.659	-17.145
17726.189	53.846	-31.082
17984.021	52.697	-42.384
18245.605	51.321	-51.656
18510.994	49.784	-59.503
18780.242	48.098	-66.149
19053.408	46.242	-71.451
19330.547	44.205	-75.239
19611.715	42.081	-77.629
19896.975	40.259	-78.911
