* Measurement data measured by REW V5.31
* Source: EXCL: Microphone (USB Sound Device        ), MICROPHONE (Master Volume), R, volume: 0.390
* Format: 256k Log Swept Sine, 1 sweep at -15.0 dBFS with no timing reference
* Dated: Dec 16, 2024 6:05:57 PM
* REW Settings:
*  C-weighting compensation: Off
*  Target level: 75.0 dB
* Note: zen
* Measurement: L Dec 16
* Smoothing: 1/12 octave
* Frequency Step: 96 ppo
* Start Frequency: 0.36621094 Hz
*
* Freq(Hz) SPL(dB) Phase(degrees)
0.366211 95.934 157.1620
0.368865 95.928 157.1381
0.371538 95.919 157.1024
0.374230 95.909 157.0575
0.376942 95.896 157.0057
0.379673 95.883 156.9489
0.382424 95.869 156.8879
0.385196 95.855 156.8237
0.387987 95.841 156.7565
0.390798 95.826 156.6866
0.393630 95.812 156.6140
0.396483 95.797 156.5388
0.399356 95.782 156.4610
0.402250 95.767 156.3806
0.405165 95.752 156.2976
0.408101 95.736 156.2119
0.411058 95.721 156.1236
0.414037 95.705 156.0325
0.417037 95.690 155.9388
0.420059 95.674 155.8422
0.423103 95.658 155.7430
0.426169 95.642 155.6409
0.429257 95.626 155.5360
0.432368 95.610 155.4282
0.435501 95.594 155.3176
0.438656 95.577 155.2040
0.441835 95.561 155.0876
0.445037 95.544 154.9682
0.448262 95.527 154.8458
0.451510 95.510 154.7204
0.454782 95.493 154.5921
0.458077 95.476 154.4607
0.461397 95.459 154.3262
0.464740 95.441 154.1887
0.468108 95.424 154.0481
0.471500 95.406 153.9043
0.474917 95.388 153.7575
0.478358 95.370 153.6075
0.481825 95.352 153.4543
0.485316 95.334 153.2980
0.488833 95.316 153.1385
0.492375 95.297 152.9758
0.495943 95.279 152.8100
0.499537 95.260 152.6409
0.503157 95.241 152.4686
0.506803 95.222 152.2930
0.510475 95.203 152.1143
0.514175 95.184 151.9323
0.517900 95.164 151.7471
0.521653 95.145 151.5587
0.525434 95.125 151.3670
0.529241 95.105 151.1722
0.533076 95.085 150.9741
0.536939 95.065 150.7729
0.540830 95.045 150.5685
0.544749 95.025 150.3609
0.548696 95.004 150.1502
0.552673 94.983 149.9364
0.556677 94.963 149.7195
0.560711 94.942 149.4995
0.564774 94.920 149.2765
0.568867 94.899 149.0506
0.572989 94.878 148.8216
0.577141 94.856 148.5898
0.581324 94.834 148.3551
0.585536 94.812 148.1176
0.589779 94.790 147.8774
0.594053 94.768 147.6345
0.598358 94.745 147.3890
0.602694 94.723 147.1410
0.607061 94.700 146.8904
0.611460 94.677 146.6375
0.615891 94.654 146.3824
0.620354 94.631 146.1250
0.624849 94.608 145.8655
0.629377 94.584 145.6040
0.633938 94.560 145.3407
0.638532 94.536 145.0756
0.643159 94.512 144.8089
0.647819 94.488 144.5408
0.652514 94.463 144.2713
0.657242 94.439 144.0006
0.662005 94.414 143.7289
0.666802 94.389 143.4563
0.671634 94.364 143.1831
0.676501 94.339 142.9094
0.681403 94.313 142.6355
0.686341 94.287 142.3614
0.691314 94.261 142.0875
0.696324 94.235 141.8139
0.701370 94.209 141.5408
0.706452 94.182 141.2684
0.711571 94.154 140.9968
0.716728 94.126 140.7259
0.721921 94.097 140.4554
0.727153 94.066 140.1850
0.732422 94.033 139.9137
0.737729 93.998 139.6406
0.743075 93.961 139.3646
0.748460 93.922 139.0847
0.753883 93.882 138.8002
0.759346 93.841 138.5106
0.764849 93.799 138.2154
0.770391 93.757 137.9145
0.775974 93.714 137.6076
0.781597 93.670 137.2947
0.787261 93.626 136.9757
0.792966 93.581 136.6505
0.798712 93.536 136.3189
0.804500 93.490 135.9810
0.810329 93.443 135.6367
0.816201 93.396 135.2859
0.822116 93.348 134.9286
0.828073 93.299 134.5648
0.834074 93.250 134.1943
0.840118 93.200 133.8172
0.846206 93.149 133.4335
0.852338 93.097 133.0431
0.858514 93.044 132.6460
0.864735 92.991 132.2423
0.871001 92.936 131.8319
0.877313 92.881 131.4149
0.883670 92.824 130.9912
0.890074 92.767 130.5611
0.896524 92.708 130.1244
0.903020 92.649 129.6813
0.909564 92.588 129.2318
0.916155 92.526 128.7762
0.922794 92.463 128.3144
0.929481 92.398 127.8467
0.936216 92.332 127.3733
0.943000 92.265 126.8943
0.949834 92.196 126.4099
0.956717 92.125 125.9204
0.963649 92.054 125.4260
0.970632 91.980 124.9272
0.977666 91.905 124.4241
0.984750 91.828 123.9172
0.991886 91.749 123.4069
0.999074 91.669 122.8936
1.006314 91.586 122.3779
1.013606 91.501 121.8601
1.020951 91.415 121.3411
1.028349 91.326 120.8212
1.035801 91.235 120.3013
1.043307 91.142 119.7820
1.050867 91.046 119.2641
1.058482 90.948 118.7484
1.066152 90.848 118.2355
1.073878 90.745 117.7261
1.081660 90.640 117.2208
1.089498 90.532 116.7198
1.097393 90.422 116.2230
1.105345 90.310 115.7300
1.113355 90.196 115.2400
1.121423 90.080 114.7521
1.129549 89.962 114.2657
1.137734 89.843 113.7800
1.145979 89.723 113.2943
1.154283 89.600 112.8083
1.162647 89.476 112.3212
1.171072 89.349 111.8328
1.179558 89.221 111.3424
1.188106 89.091 110.8495
1.196715 88.958 110.3536
1.205387 88.823 109.8543
1.214122 88.685 109.3508
1.222920 88.544 108.8427
1.231782 88.401 108.3292
1.240708 88.255 107.8098
1.249699 88.105 107.2836
1.258754 87.952 106.7501
1.267876 87.796 106.2084
1.277063 87.635 105.6577
1.286318 87.471 105.0972
1.295639 87.303 104.5259
1.305027 87.130 103.9430
1.314484 86.953 103.3474
1.324009 86.771 102.7382
1.333604 86.584 102.1142
1.343268 86.392 101.4743
1.353002 86.194 100.8175
1.362806 85.991 100.1425
1.372681 85.782 99.4482
1.382628 85.566 98.7335
1.392647 85.344 97.9970
1.402739 85.115 97.2378
1.412904 84.879 96.4549
1.423142 84.635 95.6474
1.433455 84.382 94.8147
1.443843 84.120 93.9565
1.454305 83.846 93.0725
1.464844 83.559 92.1629
1.475459 83.256 91.2276
1.486150 82.934 90.2658
1.496920 82.592 89.2761
1.507767 82.230 88.2559
1.518693 81.846 87.2017
1.529698 81.441 86.1091
1.540783 81.016 84.9726
1.551948 80.573 83.7859
1.563194 80.113 82.5413
1.574521 79.637 81.2299
1.585931 79.148 79.8411
1.597423 78.648 78.3624
1.608999 78.139 76.7787
1.620658 77.623 75.0723
1.632402 77.103 73.2216
1.644232 76.581 71.2006
1.656146 76.062 68.9780
1.668147 75.547 66.5155
1.680235 75.039 63.7671
1.692411 74.543 60.6771
1.704675 74.062 57.1793
1.717028 73.600 53.1965
1.729470 73.162 48.6424
1.742003 72.751 43.4279
1.754626 72.372 37.4736
1.767341 72.032 30.7328
1.780147 71.734 23.2229
1.793047 71.485 15.0575
1.806040 71.289 6.4572
1.819128 71.153 -2.2786
1.832310 71.078 -10.8387
1.845587 71.069 -18.9709
1.858961 71.126 -26.5179
1.872432 71.247 -33.4122
1.886001 71.431 -39.6511
1.899667 71.673 -45.2705
1.913433 71.970 -50.3246
1.927299 72.316 -54.8735
1.941265 72.706 -58.9756
1.955332 73.135 -62.6847
1.969501 73.597 -66.0485
1.983773 74.085 -69.1081
1.998148 74.595 -71.8989
2.012627 75.121 -74.4508
2.027212 75.656 -76.7891
2.041902 76.194 -78.9352
2.056698 76.731 -80.9071
2.071602 77.259 -82.7201
2.086614 77.773 -84.3872
2.101734 78.268 -85.9199
2.116964 78.739 -87.3283
2.132304 79.180 -88.6224
2.147756 79.589 -89.8123
2.163320 79.962 -90.9095
2.178996 80.299 -91.9275
2.194786 80.601 -92.8823
2.210690 80.870 -93.7914
2.226710 81.111 -94.6713
2.242845 81.327 -95.5351
2.259098 81.521 -96.3910
2.275468 81.695 -97.2435
2.291957 81.851 -98.0939
2.308566 81.991 -98.9415
2.325295 82.115 -99.7839
2.342145 82.225 -100.6181
2.359117 82.321 -101.4404
2.376212 82.405 -102.2465
2.393431 82.479 -103.0319
2.410775 82.542 -103.7917
2.428244 82.596 -104.5207
2.445840 82.643 -105.2136
2.463564 82.683 -105.8652
2.481416 82.718 -106.4704
2.499397 82.748 -107.0248
2.517509 82.774 -107.5252
2.535752 82.796 -107.9705
2.554127 82.813 -108.3621
2.572635 82.824 -108.7041
2.591277 82.827 -109.0024
2.610055 82.821 -109.2626
2.628968 82.804 -109.4890
2.648019 82.777 -109.6839
2.667208 82.740 -109.8478
2.686535 82.694 -109.9798
2.706003 82.639 -110.0778
2.725612 82.577 -110.1388
2.745363 82.509 -110.1592
2.765257 82.437 -110.1348
2.785295 82.363 -110.0607
2.805478 82.288 -109.9318
2.825808 82.213 -109.7425
2.846285 82.140 -109.4870
2.866910 82.071 -109.1593
2.887685 82.005 -108.7531
2.908611 81.944 -108.2625
2.929688 81.887 -107.6815
2.950917 81.832 -107.0050
2.972301 81.779 -106.2289
2.993839 81.727 -105.3512
3.015534 81.674 -104.3716
3.037386 81.623 -103.2923
3.059396 81.574 -102.1173
3.081565 81.527 -100.8529
3.103896 81.486 -99.5073
3.126388 81.451 -98.0908
3.149043 81.425 -96.6157
3.171862 81.411 -95.0958
3.194847 81.409 -93.5457
3.217998 81.423 -91.9801
3.241317 81.454 -90.4121
3.264805 81.505 -88.8521
3.288463 81.578 -87.3065
3.312293 81.673 -85.7785
3.336295 81.790 -84.2696
3.360471 81.930 -82.7837
3.384822 82.090 -81.3279
3.409350 82.269 -79.9124
3.434056 82.463 -78.5488
3.458940 82.670 -77.2494
3.484005 82.887 -76.0258
3.509252 83.111 -74.8881
3.534681 83.339 -73.8448
3.560295 83.569 -72.9025
3.586094 83.797 -72.0652
3.612081 84.022 -71.3347
3.638255 84.245 -70.7103
3.664620 84.464 -70.1884
3.691175 84.680 -69.7630
3.717923 84.896 -69.4270
3.744864 85.111 -69.1724
3.772001 85.325 -68.9918
3.799335 85.538 -68.8777
3.826866 85.749 -68.8236
3.854597 85.958 -68.8234
3.882529 86.162 -68.8716
3.910664 86.361 -68.9638
3.939002 86.554 -69.0967
3.967546 86.739 -69.2681
3.996296 86.916 -69.4772
4.025255 87.083 -69.7244
4.054423 87.242 -70.0109
4.083804 87.393 -70.3368
4.113396 87.534 -70.7004
4.143204 87.668 -71.0983
4.173227 87.794 -71.5249
4.203468 87.912 -71.9741
4.233928 88.023 -72.4391
4.264609 88.127 -72.9137
4.295512 88.224 -73.3924
4.326639 88.314 -73.8712
4.357992 88.397 -74.3484
4.389572 88.473 -74.8242
4.421380 88.541 -75.3009
4.453419 88.602 -75.7810
4.485691 88.655 -76.2656
4.518196 88.701 -76.7536
4.550936 88.739 -77.2418
4.583914 88.771 -77.7253
4.617131 88.797 -78.1984
4.650589 88.818 -78.6549
4.684289 88.834 -79.0893
4.718233 88.845 -79.4971
4.752424 88.851 -79.8757
4.786862 88.853 -80.2245
4.821549 88.850 -80.5444
4.856488 88.842 -80.8365
4.891680 88.829 -81.1018
4.927127 88.813 -81.3402
4.962831 88.794 -81.5511
4.998794 88.774 -81.7329
5.035017 88.753 -81.8836
5.071503 88.732 -82.0010
5.108253 88.713 -82.0825
5.145270 88.695 -82.1264
5.182555 88.678 -82.1317
5.220110 88.662 -82.0996
5.257937 88.648 -82.0331
5.296038 88.636 -81.9369
5.334415 88.628 -81.8167
5.373071 88.623 -81.6785
5.412006 88.623 -81.5280
5.451224 88.629 -81.3691
5.490725 88.641 -81.2045
5.530514 88.660 -81.0355
5.570590 88.686 -80.8635
5.610957 88.718 -80.6915
5.651616 88.755 -80.5248
5.692570 88.799 -80.3704
5.733821 88.847 -80.2359
5.775370 88.899 -80.1288
5.817221 88.956 -80.0549
5.859375 89.017 -80.0183
5.901834 89.082 -80.0205
5.944602 89.151 -80.0618
5.987679 89.223 -80.1422
6.031068 89.297 -80.2619
6.074771 89.373 -80.4219
6.118792 89.450 -80.6234
6.163131 89.525 -80.8680
6.207792 89.600 -81.1568
6.252776 89.672 -81.4906
6.298086 89.743 -81.8684
6.343725 89.811 -82.2878
6.389694 89.877 -82.7448
6.435996 89.940 -83.2350
6.482634 90.000 -83.7538
6.529610 90.056 -84.2976
6.576926 90.107 -84.8639
6.624585 90.154 -85.4515
6.672590 90.196 -86.0592
6.720942 90.234 -86.6847
6.769645 90.267 -87.3238
6.818700 90.297 -87.9713
6.868111 90.322 -88.6219
6.917881 90.343 -89.2708
6.968010 90.361 -89.9149
7.018504 90.376 -90.5526
7.069362 90.387 -91.1827
7.120590 90.395 -91.8036
7.172189 90.402 -92.4128
7.224161 90.407 -93.0074
7.276511 90.411 -93.5842
7.329239 90.415 -94.1409
7.382350 90.420 -94.6763
7.435845 90.425 -95.1906
7.489729 90.432 -95.6849
7.544002 90.440 -96.1609
7.598669 90.451 -96.6201
7.653732 90.466 -97.0637
7.709194 90.485 -97.4929
7.765058 90.507 -97.9089
7.821327 90.534 -98.3139
7.878004 90.566 -98.7113
7.935091 90.602 -99.1054
7.992592 90.643 -99.5003
8.050510 90.689 -99.8993
8.108847 90.740 -100.3050
8.167607 90.795 -100.7189
8.226793 90.854 -101.1431
8.286408 90.917 -101.5797
8.346454 90.983 -102.0311
8.406936 91.052 -102.4991
8.467856 91.123 -102.9847
8.529218 91.195 -103.4877
8.591024 91.269 -104.0071
8.653278 91.344 -104.5416
8.715983 91.418 -105.0895
8.779143 91.493 -105.6495
8.842760 91.566 -106.2200
8.906839 91.638 -106.7991
8.971381 91.710 -107.3838
9.036392 91.779 -107.9709
9.101873 91.847 -108.5570
9.167829 91.914 -109.1394
9.234263 91.979 -109.7157
9.301178 92.042 -110.2839
9.368578 92.103 -110.8415
9.436467 92.164 -111.3862
9.504847 92.223 -111.9157
9.573723 92.281 -112.4287
9.643099 92.338 -112.9243
9.712976 92.394 -113.4023
9.783361 92.448 -113.8625
9.854255 92.501 -114.3052
9.925663 92.552 -114.7308
9.997588 92.601 -115.1399
10.070035 92.649 -115.5340
10.143007 92.696 -115.9147
10.216507 92.743 -116.2838
10.290540 92.789 -116.6429
10.365109 92.834 -116.9934
10.440219 92.879 -117.3370
10.515873 92.924 -117.6750
10.592076 92.970 -118.0089
10.668830 93.014 -118.3398
10.746141 93.059 -118.6684
10.824012 93.103 -118.9951
10.902447 93.147 -119.3200
10.981451 93.189 -119.6433
11.061027 93.230 -119.9647
11.141180 93.270 -120.2839
11.221913 93.308 -120.6004
11.303232 93.345 -120.9136
11.385140 93.380 -121.2230
11.467641 93.414 -121.5282
11.550741 93.447 -121.8289
11.634442 93.478 -122.1249
11.718750 93.508 -122.4162
11.803669 93.537 -122.7030
11.889203 93.565 -122.9856
11.975357 93.592 -123.2646
12.062136 93.618 -123.5408
12.149543 93.644 -123.8150
12.237583 93.669 -124.0878
12.326262 93.692 -124.3603
12.415583 93.715 -124.6331
12.505552 93.737 -124.9071
12.596172 93.757 -125.1828
12.687449 93.775 -125.4605
12.779387 93.793 -125.7406
12.871992 93.808 -126.0232
12.965268 93.822 -126.3081
13.059220 93.835 -126.5953
13.153852 93.846 -126.8846
13.249170 93.856 -127.1757
13.345179 93.866 -127.4687
13.441884 93.874 -127.7635
13.539289 93.881 -128.0603
13.637401 93.888 -128.3595
13.736223 93.895 -128.6616
13.835761 93.901 -128.9676
13.936021 93.907 -129.2783
14.037007 93.913 -129.5949
14.138725 93.918 -129.9184
14.241180 93.924 -130.2500
14.344377 93.929 -130.5908
14.448323 93.934 -130.9415
14.553021 93.938 -131.3026
14.658478 93.943 -131.6743
14.764700 93.947 -132.0564
14.871691 93.950 -132.4486
14.979457 93.954 -132.8499
15.088005 93.956 -133.2593
15.197339 93.959 -133.6755
15.307465 93.961 -134.0972
15.418389 93.963 -134.5230
15.530117 93.965 -134.9518
15.642655 93.967 -135.3826
15.756008 93.969 -135.8146
15.870182 93.973 -136.2474
15.985184 93.977 -136.6809
16.101019 93.982 -137.1154
16.217694 93.988 -137.5511
16.335214 93.996 -137.9884
16.453586 94.005 -138.4279
16.572815 94.016 -138.8700
16.692909 94.028 -139.3146
16.813872 94.042 -139.7617
16.935713 94.057 -140.2107
17.058436 94.072 -140.6608
17.182048 94.089 -141.1109
17.306556 94.106 -141.5596
17.431967 94.123 -142.0054
17.558286 94.141 -142.4468
17.685521 94.159 -142.8825
17.813677 94.177 -143.3112
17.942762 94.196 -143.7322
18.072783 94.215 -144.1447
18.203746 94.234 -144.5486
18.335658 94.253 -144.9437
18.468526 94.273 -145.3304
18.602356 94.293 -145.7089
18.737156 94.314 -146.0798
18.872934 94.335 -146.4433
19.009695 94.355 -146.7997
19.147447 94.376 -147.1494
19.286197 94.396 -147.4923
19.425953 94.416 -147.8286
19.566721 94.435 -148.1584
19.708510 94.453 -148.4817
19.851326 94.470 -148.7988
19.995177 94.486 -149.1102
20.140070 94.501 -149.4163
20.286013 94.515 -149.7179
20.433014 94.528 -150.0158
20.581080 94.540 -150.3106
20.730219 94.550 -150.6031
20.880439 94.559 -150.8940
21.031747 94.567 -151.1838
21.184152 94.574 -151.4730
21.337661 94.580 -151.7620
21.492282 94.584 -152.0512
21.648024 94.588 -152.3412
21.804895 94.590 -152.6327
21.962902 94.592 -152.9265
22.122054 94.593 -153.2234
22.282360 94.593 -153.5247
22.443827 94.592 -153.8313
22.606464 94.591 -154.1441
22.770280 94.589 -154.4637
22.935283 94.586 -154.7904
23.101481 94.583 -155.1241
23.268884 94.579 -155.4644
23.437500 94.575 -155.8106
23.607338 94.570 -156.1621
23.778406 94.564 -156.5180
23.950714 94.559 -156.8776
24.124271 94.553 -157.2406
24.299086 94.548 -157.6068
24.475167 94.544 -157.9760
24.652524 94.540 -158.3481
24.831166 94.537 -158.7231
25.011103 94.534 -159.1006
25.192344 94.532 -159.4799
25.374898 94.531 -159.8600
25.558775 94.530 -160.2399
25.743984 94.530 -160.6180
25.930536 94.530 -160.9931
26.118439 94.531 -161.3640
26.307704 94.532 -161.7296
26.498341 94.534 -162.0893
26.690359 94.536 -162.4425
26.883768 94.538 -162.7892
27.078579 94.541 -163.1293
27.274801 94.543 -163.4629
27.472446 94.546 -163.7901
27.671522 94.549 -164.1111
27.872042 94.551 -164.4261
28.074014 94.553 -164.7352
28.277450 94.554 -165.0388
28.482360 94.554 -165.3370
28.688755 94.553 -165.6302
28.896645 94.551 -165.9186
29.106042 94.549 -166.2027
29.316957 94.545 -166.4830
29.529400 94.540 -166.7601
29.743382 94.534 -167.0349
29.958915 94.528 -167.3086
30.176009 94.520 -167.5823
30.394677 94.513 -167.8574
30.614929 94.504 -168.1352
30.836778 94.495 -168.4166
31.060234 94.485 -168.7021
31.285309 94.474 -168.9921
31.512015 94.462 -169.2865
31.740364 94.450 -169.5848
31.970368 94.437 -169.8868
32.202039 94.424 -170.1921
32.435388 94.410 -170.5007
32.670428 94.397 -170.8125
32.907171 94.384 -171.1272
33.145630 94.371 -171.4448
33.385817 94.358 -171.7646
33.627745 94.346 -172.0858
33.871425 94.334 -172.4074
34.116871 94.322 -172.7283
34.364096 94.310 -173.0474
34.613113 94.298 -173.3637
34.863934 94.287 -173.6765
35.116572 94.276 -173.9850
35.371041 94.265 -174.2885
35.627354 94.254 -174.5864
35.885525 94.243 -174.8782
36.145566 94.232 -175.1636
36.407492 94.220 -175.4427
36.671316 94.209 -175.7159
36.937051 94.197 -175.9836
37.204712 94.184 -176.2465
37.474313 94.172 -176.5048
37.745867 94.158 -176.7588
38.019389 94.144 -177.0084
38.294893 94.130 -177.2536
38.572394 94.115 -177.4948
38.851905 94.099 -177.7331
39.133442 94.084 -177.9701
39.417019 94.069 -178.2078
39.702651 94.053 -178.4482
39.990353 94.038 -178.6925
40.280140 94.022 -178.9416
40.572026 94.006 -179.1950
40.866028 93.989 -179.4520
41.162160 93.972 -179.7117
41.460438 93.954 -179.9730
41.760877 93.936 179.7646
42.063494 93.918 179.5020
42.368303 93.899 179.2398
42.675322 93.880 178.9788
42.984565 93.861 178.7195
43.296048 93.842 178.4615
43.609789 93.824 178.2038
43.925804 93.805 177.9440
44.244108 93.786 177.6805
44.564719 93.766 177.4127
44.887654 93.745 177.1424
45.212928 93.722 176.8735
45.540560 93.697 176.6106
45.870565 93.671 176.3569
46.202962 93.644 176.1132
46.537768 93.618 175.8766
46.875000 93.592 175.6429
47.214676 93.566 175.4079
47.556813 93.540 175.1699
47.901429 93.513 174.9302
48.248542 93.485 174.6927
48.598171 93.456 174.4608
48.950334 93.427 174.2361
49.305048 93.398 174.0181
49.662333 93.369 173.8043
50.022206 93.341 173.5923
50.384688 93.313 173.3816
50.749796 93.284 173.1732
51.117550 93.255 172.9691
51.487969 93.224 172.7704
51.861072 93.194 172.5772
52.236879 93.163 172.3880
52.615409 93.130 172.2020
52.996681 93.096 172.0204
53.380717 93.060 171.8474
53.767536 93.021 171.6889
54.157158 92.981 171.5507
54.549603 92.941 171.4357
54.944892 92.900 171.3428
55.343045 92.862 171.2665
55.744084 92.826 171.1987
56.148028 92.791 171.1319
56.554900 92.758 171.0620
56.964720 92.725 170.9896
57.377510 92.691 170.9184
57.793291 92.658 170.8515
58.212085 92.625 170.7885
58.633914 92.593 170.7247
59.058799 92.561 170.6558
59.486764 92.527 170.5825
59.917829 92.491 170.5147
60.352019 92.450 170.4684
60.789354 92.408 170.4586
61.229859 92.366 170.4923
61.673556 92.327 170.5660
62.120468 92.293 170.6708
62.570618 92.262 170.7996
63.024031 92.236 170.9522
63.480729 92.215 171.1335
63.940736 92.201 171.3464
64.404077 92.196 171.5858
64.870776 92.204 171.8347
65.340856 92.225 172.0676
65.814343 92.259 172.2559
66.291261 92.303 172.3737
66.771635 92.353 172.4030
67.255489 92.406 172.3366
67.742850 92.457 172.1786
68.233743 92.503 171.9416
68.728193 92.540 171.6427
69.226226 92.570 171.2986
69.727867 92.590 170.9239
70.233144 92.601 170.5310
70.742083 92.605 170.1313
71.254709 92.601 169.7347
71.771050 92.590 169.3484
72.291132 92.575 168.9759
72.814984 92.556 168.6184
73.342631 92.534 168.2759
73.874102 92.510 167.9488
74.409424 92.483 167.6376
74.948626 92.455 167.3427
75.491734 92.426 167.0637
76.038779 92.396 166.7987
76.589787 92.365 166.5449
77.144788 92.334 166.2990
77.703811 92.303 166.0587
78.266885 92.271 165.8227
78.834039 92.239 165.5899
79.405303 92.206 165.3585
79.980706 92.172 165.1263
80.560280 92.139 164.8917
81.144053 92.104 164.6541
81.732056 92.069 164.4149
82.324320 92.032 164.1780
82.920876 91.993 163.9503
83.521755 91.954 163.7391
84.126988 91.914 163.5483
84.736607 91.875 163.3760
85.350643 91.837 163.2174
85.969129 91.800 163.0688
86.592097 91.763 162.9289
87.219579 91.726 162.7974
