* Measurement data measured by REW V5.31
* Source: EXCL: Microphone (USB Sound Device        ), MICROPHONE (Master Volume), L, volume: 0.560
* Format: 256k Log Swept Sine, 1 sweep at -9.0 dBFS with no timing reference
* Dated: Apr 16, 2024 5:19:35 PM
* REW Settings:
*  C-weighting compensation: Off
*  Target level: 75.0 dB
* Note: L KZ ZS10 PRO 2 1000
* Measurement: L KZ ZS10 PRO 2 1000 18
* Smoothing: 1/12 octave
* Frequency Step: 96 ppo
* Start Frequency: 0.36621094 Hz
*
* Freq(Hz) SPL(dB) Phase(degrees)
0.366211 82.872 156.1173
0.368865 82.866 156.0923
0.371538 82.857 156.0549
0.374230 82.846 156.0078
0.376942 82.833 155.9536
0.379673 82.820 155.8939
0.382424 82.805 155.8300
0.385196 82.791 155.7627
0.387987 82.776 155.6922
0.390798 82.761 155.6188
0.393630 82.746 155.5426
0.396483 82.731 155.4637
0.399356 82.715 155.3820
0.402250 82.700 155.2976
0.405165 82.684 155.2104
0.408101 82.668 155.1204
0.411058 82.652 155.0276
0.414037 82.636 154.9319
0.417037 82.620 154.8334
0.420059 82.604 154.7319
0.423103 82.588 154.6276
0.426169 82.571 154.5202
0.429257 82.555 154.4099
0.432368 82.538 154.2966
0.435501 82.521 154.1802
0.438656 82.504 154.0608
0.441835 82.487 153.9382
0.445037 82.470 153.8126
0.448262 82.453 153.6838
0.451510 82.435 153.5519
0.454782 82.418 153.4167
0.458077 82.400 153.2784
0.461397 82.382 153.1368
0.464740 82.364 152.9920
0.468108 82.346 152.8438
0.471500 82.328 152.6924
0.474917 82.310 152.5377
0.478358 82.291 152.3797
0.481825 82.272 152.2183
0.485316 82.254 152.0535
0.488833 82.235 151.8854
0.492375 82.216 151.7139
0.495943 82.197 151.5390
0.499537 82.177 151.3606
0.503157 82.158 151.1789
0.506803 82.138 150.9938
0.510475 82.119 150.8052
0.514175 82.099 150.6132
0.517900 82.079 150.4177
0.521653 82.059 150.2189
0.525434 82.038 150.0166
0.529241 82.018 149.8109
0.533076 81.997 149.6018
0.536939 81.977 149.3893
0.540830 81.956 149.1734
0.544749 81.935 148.9541
0.548696 81.914 148.7315
0.552673 81.892 148.5056
0.556677 81.871 148.2764
0.560711 81.849 148.0440
0.564774 81.827 147.8083
0.568867 81.805 147.5694
0.572989 81.783 147.3274
0.577141 81.761 147.0822
0.581324 81.738 146.8340
0.585536 81.716 146.5829
0.589779 81.693 146.3287
0.594053 81.670 146.0717
0.598358 81.647 145.8120
0.602694 81.624 145.5494
0.607061 81.600 145.2843
0.611460 81.577 145.0166
0.615891 81.553 144.7464
0.620354 81.529 144.4738
0.624849 81.505 144.1990
0.629377 81.481 143.9221
0.633938 81.456 143.6431
0.638532 81.431 143.3622
0.643159 81.407 143.0796
0.647819 81.382 142.7953
0.652514 81.356 142.5097
0.657242 81.331 142.2226
0.662005 81.305 141.9345
0.666802 81.280 141.6454
0.671634 81.254 141.3556
0.676501 81.228 141.0652
0.681403 81.201 140.7744
0.686341 81.175 140.4835
0.691314 81.148 140.1926
0.696324 81.121 139.9021
0.701370 81.094 139.6120
0.706452 81.066 139.3226
0.711571 81.038 139.0338
0.716728 81.009 138.7458
0.721921 80.978 138.4581
0.727153 80.947 138.1704
0.732422 80.913 137.8816
0.737729 80.876 137.5908
0.743075 80.838 137.2968
0.748460 80.798 136.9984
0.753883 80.757 136.6950
0.759346 80.714 136.3860
0.764849 80.671 136.0708
0.770391 80.627 135.7494
0.775974 80.582 135.4215
0.781597 80.537 135.0869
0.787261 80.491 134.7456
0.792966 80.445 134.3974
0.798712 80.398 134.0423
0.804500 80.350 133.6801
0.810329 80.302 133.3109
0.816201 80.253 132.9345
0.822116 80.203 132.5509
0.828073 80.153 132.1600
0.834074 80.102 131.7617
0.840118 80.050 131.3561
0.846206 79.997 130.9431
0.852338 79.944 130.5226
0.858514 79.889 130.0947
0.864735 79.834 129.6593
0.871001 79.777 129.2164
0.877313 79.720 128.7661
0.883670 79.661 128.3083
0.890074 79.602 127.8431
0.896524 79.541 127.3706
0.903020 79.479 126.8908
0.909564 79.416 126.4038
0.916155 79.352 125.9097
0.922794 79.286 125.4086
0.929481 79.219 124.9007
0.936216 79.151 124.3862
0.943000 79.081 123.8652
0.949834 79.009 123.3379
0.956717 78.936 122.8047
0.963649 78.862 122.2658
0.970632 78.785 121.7215
0.977666 78.707 121.1721
0.984750 78.627 120.6181
0.991886 78.545 120.0598
0.999074 78.462 119.4978
1.006314 78.376 118.9325
1.013606 78.288 118.3646
1.020951 78.198 117.7945
1.028349 78.105 117.2230
1.035801 78.011 116.6507
1.043307 77.913 116.0785
1.050867 77.814 115.5070
1.058482 77.712 114.9372
1.066152 77.607 114.3696
1.073878 77.499 113.8051
1.081660 77.389 113.2440
1.089498 77.275 112.6866
1.097393 77.158 112.1326
1.105345 77.038 111.5813
1.113355 76.915 111.0318
1.121423 76.788 110.4829
1.129549 76.657 109.9336
1.137734 76.523 109.3831
1.145979 76.385 108.8305
1.154283 76.243 108.2751
1.162647 76.098 107.7161
1.171072 75.949 107.1528
1.179558 75.797 106.5846
1.188106 75.641 106.0107
1.196715 75.482 105.4304
1.205387 75.319 104.8429
1.214122 75.153 104.2473
1.222920 74.984 103.6427
1.231782 74.812 103.0282
1.240708 74.636 102.4029
1.249699 74.458 101.7657
1.258754 74.276 101.1155
1.267876 74.092 100.4512
1.277063 73.905 99.7714
1.286318 73.716 99.0750
1.295639 73.524 98.3606
1.305027 73.329 97.6266
1.314484 73.133 96.8717
1.324009 72.934 96.0942
1.333604 72.733 95.2926
1.343268 72.530 94.4650
1.353002 72.326 93.6097
1.362806 72.120 92.7250
1.372681 71.912 91.8090
1.382628 71.703 90.8599
1.392647 71.493 89.8759
1.402739 71.282 88.8553
1.412904 71.071 87.7964
1.423142 70.858 86.6978
1.433455 70.644 85.5582
1.443843 70.428 84.3761
1.454305 70.210 83.1503
1.464844 69.988 81.8790
1.475459 69.761 80.5595
1.486150 69.527 79.1881
1.496920 69.285 77.7595
1.507767 69.034 76.2671
1.518693 68.774 74.7029
1.529698 68.505 73.0574
1.540783 68.227 71.3198
1.551948 67.942 69.4775
1.563194 67.651 67.5161
1.574521 67.354 65.4191
1.585931 67.053 63.1678
1.597423 66.748 60.7407
1.608999 66.442 58.1140
1.620658 66.135 55.2607
1.632402 65.829 52.1520
1.644232 65.526 48.7566
1.656146 65.226 45.0435
1.668147 64.933 40.9832
1.680235 64.648 36.5518
1.692411 64.372 31.7358
1.704675 64.108 26.5387
1.717028 63.857 20.9864
1.729470 63.623 15.1335
1.742003 63.407 9.0636
1.754626 63.212 2.8844
1.767341 63.041 -3.2829
1.780147 62.896 -9.3199
1.793047 62.780 -15.1258
1.806040 62.697 -20.6296
1.819128 62.648 -25.7939
1.832310 62.636 -30.6130
1.845587 62.663 -35.1044
1.858961 62.730 -39.2971
1.872432 62.837 -43.2223
1.886001 62.982 -46.9076
1.899667 63.164 -50.3759
1.913433 63.381 -53.6459
1.927299 63.629 -56.7327
1.941265 63.906 -59.6489
1.955332 64.208 -62.4052
1.969501 64.532 -65.0108
1.983773 64.874 -67.4738
1.998148 65.231 -69.8014
2.012627 65.598 -71.9999
2.027212 65.973 -74.0753
2.041902 66.351 -76.0324
2.056698 66.729 -77.8761
2.071602 67.102 -79.6106
2.086614 67.467 -81.2397
2.101734 67.819 -82.7672
2.116964 68.155 -84.1972
2.132304 68.473 -85.5339
2.147756 68.768 -86.7831
2.163320 69.040 -87.9518
2.178996 69.287 -89.0498
2.194786 69.510 -90.0895
2.210690 69.710 -91.0851
2.226710 69.891 -92.0506
2.242845 70.055 -92.9971
2.259098 70.204 -93.9325
2.275468 70.339 -94.8608
2.291957 70.462 -95.7838
2.308566 70.573 -96.7011
2.325295 70.674 -97.6113
2.342145 70.764 -98.5120
2.359117 70.845 -99.4001
2.376212 70.917 -100.2720
2.393431 70.981 -101.1240
2.410775 71.038 -101.9517
2.428244 71.088 -102.7507
2.445840 71.132 -103.5162
2.463564 71.171 -104.2435
2.481416 71.205 -104.9281
2.499397 71.234 -105.5659
2.517509 71.260 -106.1539
2.535752 71.281 -106.6910
2.554127 71.298 -107.1782
2.572635 71.308 -107.6189
2.591277 71.312 -108.0183
2.610055 71.308 -108.3815
2.628968 71.296 -108.7126
2.648019 71.274 -109.0142
2.667208 71.245 -109.2870
2.686535 71.208 -109.5311
2.706003 71.164 -109.7451
2.725612 71.114 -109.9270
2.745363 71.060 -110.0745
2.765257 71.002 -110.1843
2.785295 70.941 -110.2531
2.805478 70.880 -110.2768
2.825808 70.819 -110.2512
2.846285 70.759 -110.1718
2.866910 70.701 -110.0337
2.887685 70.646 -109.8320
2.908611 70.593 -109.5615
2.929688 70.543 -109.2173
2.950917 70.495 -108.7950
2.972301 70.447 -108.2915
2.993839 70.399 -107.7050
3.015534 70.350 -107.0360
3.037386 70.302 -106.2862
3.059396 70.254 -105.4593
3.081565 70.209 -104.5602
3.103896 70.167 -103.5954
3.126388 70.130 -102.5726
3.149043 70.100 -101.5007
3.171862 70.079 -100.3894
3.194847 70.068 -99.2491
3.217998 70.070 -98.0898
3.241317 70.085 -96.9202
3.264805 70.117 -95.7464
3.288463 70.165 -94.5718
3.312293 70.231 -93.3965
3.336295 70.315 -92.2201
3.360471 70.417 -91.0444
3.384822 70.534 -89.8748
3.409350 70.667 -88.7197
3.434056 70.812 -87.5902
3.458940 70.969 -86.4980
3.484005 71.134 -85.4553
3.509252 71.306 -84.4734
3.534681 71.483 -83.5625
3.560295 71.663 -82.7311
3.586094 71.843 -81.9856
3.612081 72.024 -81.3303
3.638255 72.205 -80.7663
3.664620 72.385 -80.2919
3.691175 72.566 -79.9029
3.717923 72.749 -79.5935
3.744864 72.933 -79.3574
3.772001 73.119 -79.1888
3.799335 73.306 -79.0822
3.826866 73.493 -79.0327
3.854597 73.679 -79.0358
3.882529 73.861 -79.0877
3.910664 74.040 -79.1854
3.939002 74.214 -79.3267
3.967546 74.381 -79.5102
3.996296 74.540 -79.7358
4.025255 74.692 -80.0042
4.054423 74.836 -80.3164
4.083804 74.973 -80.6725
4.113396 75.102 -81.0706
4.143204 75.224 -81.5069
4.173227 75.340 -81.9761
4.203468 75.448 -82.4720
4.233928 75.551 -82.9881
4.264609 75.646 -83.5183
4.295512 75.735 -84.0574
4.326639 75.817 -84.6017
4.357992 75.893 -85.1498
4.389572 75.961 -85.7023
4.421380 76.021 -86.2619
4.453419 76.074 -86.8312
4.485691 76.120 -87.4113
4.518196 76.158 -88.0009
4.550936 76.189 -88.5966
4.583914 76.213 -89.1930
4.617131 76.231 -89.7838
4.650589 76.243 -90.3628
4.684289 76.250 -90.9238
4.718233 76.252 -91.4626
4.752424 76.248 -91.9766
4.786862 76.239 -92.4656
4.821549 76.223 -92.9309
4.856488 76.203 -93.3739
4.891680 76.177 -93.7951
4.927127 76.147 -94.1940
4.962831 76.113 -94.5688
4.998794 76.076 -94.9169
5.035017 76.038 -95.2348
5.071503 75.999 -95.5192
5.108253 75.960 -95.7666
5.145270 75.921 -95.9744
5.182555 75.881 -96.1416
5.220110 75.842 -96.2688
5.257937 75.803 -96.3586
5.296038 75.765 -96.4148
5.334415 75.729 -96.4421
5.373071 75.697 -96.4454
5.412006 75.669 -96.4287
5.451224 75.646 -96.3951
5.490725 75.630 -96.3462
5.530514 75.620 -96.2825
5.570590 75.616 -96.2052
5.610957 75.619 -96.1176
5.651616 75.629 -96.0255
5.692570 75.644 -95.9368
5.733821 75.665 -95.8602
5.775370 75.691 -95.8044
5.817221 75.724 -95.7764
5.859375 75.761 -95.7807
5.901834 75.805 -95.8195
5.944602 75.854 -95.8936
5.987679 75.908 -96.0039
6.031068 75.966 -96.1520
6.074771 76.028 -96.3405
6.118792 76.090 -96.5723
6.163131 76.154 -96.8504
6.207792 76.217 -97.1774
6.252776 76.280 -97.5544
6.298086 76.343 -97.9808
6.343725 76.404 -98.4542
6.389694 76.464 -98.9708
6.435996 76.521 -99.5261
6.482634 76.576 -100.1161
6.529610 76.627 -100.7375
6.576926 76.675 -101.3883
6.624585 76.717 -102.0676
6.672590 76.756 -102.7739
6.720942 76.789 -103.5046
6.769645 76.818 -104.2548
6.818700 76.843 -105.0184
6.868111 76.864 -105.7890
6.917881 76.880 -106.5613
6.968010 76.891 -107.3320
7.018504 76.899 -108.0990
7.069362 76.902 -108.8608
7.120590 76.902 -109.6149
7.172189 76.899 -110.3577
7.224161 76.894 -111.0846
7.276511 76.888 -111.7912
7.329239 76.880 -112.4739
7.382350 76.872 -113.1309
7.435845 76.863 -113.7618
7.489729 76.855 -114.3670
7.544002 76.849 -114.9472
7.598669 76.844 -115.5029
7.653732 76.843 -116.0344
7.709194 76.845 -116.5419
7.765058 76.852 -117.0262
7.821327 76.863 -117.4896
7.878004 76.879 -117.9357
7.935091 76.900 -118.3694
7.992592 76.926 -118.7953
8.050510 76.958 -119.2173
8.108847 76.995 -119.6383
8.167607 77.038 -120.0607
8.226793 77.087 -120.4874
8.286408 77.139 -120.9220
8.346454 77.196 -121.3682
8.406936 77.256 -121.8290
8.467856 77.319 -122.3064
8.529218 77.384 -122.8008
8.591024 77.452 -123.3118
8.653278 77.520 -123.8385
8.715983 77.588 -124.3801
8.779143 77.657 -124.9355
8.842760 77.724 -125.5036
8.906839 77.790 -126.0822
8.971381 77.854 -126.6682
9.036392 77.916 -127.2579
9.101873 77.976 -127.8472
9.167829 78.033 -128.4331
9.234263 78.087 -129.0128
9.301178 78.139 -129.5835
9.368578 78.189 -130.1421
9.436467 78.236 -130.6853
9.504847 78.281 -131.2101
9.573723 78.325 -131.7144
9.643099 78.366 -132.1969
9.712976 78.407 -132.6570
9.783361 78.447 -133.0942
9.854255 78.487 -133.5086
9.925663 78.527 -133.9002
9.997588 78.568 -134.2701
10.070035 78.609 -134.6198
10.143007 78.651 -134.9517
10.216507 78.693 -135.2682
10.290540 78.737 -135.5716
10.365109 78.782 -135.8639
10.440219 78.828 -136.1475
10.515873 78.874 -136.4248
10.592076 78.921 -136.6981
10.668830 78.968 -136.9692
10.746141 79.014 -137.2393
10.824012 79.060 -137.5091
10.902447 79.105 -137.7791
10.981451 79.149 -138.0495
11.061027 79.192 -138.3203
11.141180 79.232 -138.5909
11.221913 79.271 -138.8605
11.303232 79.308 -139.1282
11.385140 79.342 -139.3929
11.467641 79.375 -139.6540
11.550741 79.405 -139.9108
11.634442 79.433 -140.1629
11.718750 79.460 -140.4100
11.803669 79.485 -140.6522
11.889203 79.509 -140.8900
11.975357 79.531 -141.1242
12.062136 79.552 -141.3561
12.149543 79.572 -141.5869
12.237583 79.591 -141.8178
12.326262 79.608 -142.0505
12.415583 79.625 -142.2865
12.505552 79.640 -142.5269
12.596172 79.654 -142.7729
12.687449 79.666 -143.0249
12.779387 79.676 -143.2833
12.871992 79.684 -143.5481
12.965268 79.690 -143.8188
13.059220 79.694 -144.0945
13.153852 79.695 -144.3741
13.249170 79.695 -144.6563
13.345179 79.692 -144.9400
13.441884 79.687 -145.2239
13.539289 79.681 -145.5070
13.637401 79.673 -145.7888
13.736223 79.664 -146.0691
13.835761 79.655 -146.3483
13.936021 79.647 -146.6272
14.037007 79.638 -146.9073
14.138725 79.630 -147.1904
14.241180 79.623 -147.4788
14.344377 79.618 -147.7748
14.448323 79.613 -148.0807
14.553021 79.610 -148.3988
14.658478 79.608 -148.7309
14.764700 79.606 -149.0782
14.871691 79.605 -149.4414
14.979457 79.605 -149.8204
15.088005 79.604 -150.2145
15.197339 79.603 -150.6223
15.307465 79.602 -151.0417
15.418389 79.600 -151.4703
15.530117 79.598 -151.9055
15.642655 79.595 -152.3448
15.756008 79.592 -152.7855
15.870182 79.590 -153.2256
15.985184 79.588 -153.6634
16.101019 79.586 -154.0977
16.217694 79.586 -154.5278
16.335214 79.588 -154.9538
16.453586 79.590 -155.3760
16.572815 79.595 -155.7948
16.692909 79.601 -156.2109
16.813872 79.609 -156.6249
16.935713 79.619 -157.0371
17.058436 79.629 -157.4472
17.182048 79.640 -157.8546
17.306556 79.652 -158.2581
17.431967 79.664 -158.6563
17.558286 79.676 -159.0471
17.685521 79.688 -159.4285
17.813677 79.700 -159.7984
17.942762 79.711 -160.1548
18.072783 79.723 -160.4964
18.203746 79.735 -160.8220
18.335658 79.746 -161.1313
18.468526 79.759 -161.4248
18.602356 79.772 -161.7033
18.737156 79.785 -161.9683
18.872934 79.799 -162.2218
19.009695 79.814 -162.4659
19.147447 79.828 -162.7030
19.286197 79.843 -162.9351
19.425953 79.858 -163.1642
19.566721 79.872 -163.3918
19.708510 79.884 -163.6189
19.851326 79.895 -163.8460
19.995177 79.905 -164.0732
20.140070 79.912 -164.2999
20.286013 79.916 -164.5252
20.433014 79.918 -164.7479
20.581080 79.917 -164.9667
20.730219 79.913 -165.1801
20.880439 79.907 -165.3871
21.031747 79.899 -165.5867
21.184152 79.888 -165.7790
21.337661 79.877 -165.9645
21.492282 79.864 -166.1445
21.648024 79.851 -166.3215
21.804895 79.839 -166.4982
21.962902 79.826 -166.6783
22.122054 79.814 -166.8654
22.282360 79.802 -167.0630
22.443827 79.790 -167.2740
22.606464 79.778 -167.5004
22.770280 79.765 -167.7430
22.935283 79.752 -168.0015
23.101481 79.737 -168.2744
23.268884 79.721 -168.5594
23.437500 79.705 -168.8535
23.607338 79.687 -169.1537
23.778406 79.668 -169.4571
23.950714 79.649 -169.7618
24.124271 79.631 -170.0662
24.299086 79.613 -170.3698
24.475167 79.597 -170.6726
24.652524 79.581 -170.9748
24.831166 79.568 -171.2770
25.011103 79.555 -171.5793
25.192344 79.545 -171.8814
25.374898 79.535 -172.1826
25.558775 79.526 -172.4818
25.743984 79.519 -172.7775
25.930536 79.512 -173.0685
26.118439 79.507 -173.3534
26.307704 79.502 -173.6313
26.498341 79.497 -173.9015
26.690359 79.494 -174.1635
26.883768 79.490 -174.4169
27.078579 79.487 -174.6614
27.274801 79.483 -174.8967
27.472446 79.480 -175.1222
27.671522 79.476 -175.3380
27.872042 79.471 -175.5441
28.074014 79.466 -175.7408
28.277450 79.461 -175.9292
28.482360 79.454 -176.1102
28.688755 79.447 -176.2850
28.896645 79.439 -176.4549
29.106042 79.429 -176.6207
29.316957 79.418 -176.7833
29.529400 79.406 -176.9434
29.743382 79.393 -177.1018
29.958915 79.379 -177.2597
30.176009 79.363 -177.4183
30.394677 79.347 -177.5793
30.614929 79.329 -177.7443
30.836778 79.311 -177.9145
31.060234 79.292 -178.0902
31.285309 79.271 -178.2713
31.512015 79.250 -178.4567
31.740364 79.228 -178.6454
31.970368 79.206 -178.8363
32.202039 79.184 -179.0291
32.435388 79.163 -179.2243
32.670428 79.143 -179.4228
32.907171 79.123 -179.6262
33.145630 79.105 -179.8353
33.385817 79.087 179.9497
33.627745 79.070 179.7297
33.871425 79.053 179.5066
34.116871 79.037 179.2828
34.364096 79.021 179.0609
34.613113 79.005 178.8425
34.863934 78.989 178.6288
35.116572 78.974 178.4203
35.371041 78.959 178.2168
35.627354 78.945 178.0185
35.885525 78.930 177.8260
36.145566 78.914 177.6405
36.407492 78.898 177.4633
36.671316 78.882 177.2961
36.937051 78.864 177.1397
37.204712 78.847 176.9940
37.474313 78.829 176.8575
37.745867 78.812 176.7280
38.019389 78.795 176.6021
38.294893 78.779 176.4761
38.572394 78.762 176.3470
38.851905 78.745 176.2123
39.133442 78.727 176.0714
39.417019 78.708 175.9246
39.702651 78.687 175.7740
39.990353 78.665 175.6223
40.280140 78.642 175.4727
40.572026 78.618 175.3276
40.866028 78.593 175.1887
41.162160 78.568 175.0562
41.460438 78.544 174.9288
41.760877 78.521 174.8047
42.063494 78.499 174.6813
42.368303 78.478 174.5565
42.675322 78.458 174.4290
42.984565 78.438 174.2989
43.296048 78.417 174.1675
43.609789 78.397 174.0370
43.925804 78.375 173.9099
44.244108 78.353 173.7881
44.564719 78.331 173.6728
44.887654 78.309 173.5638
45.212928 78.287 173.4597
45.540560 78.266 173.3585
45.870565 78.245 173.2582
46.202962 78.223 173.1573
46.537768 78.202 173.0555
46.875000 78.179 172.9539
47.214676 78.157 172.8540
47.556813 78.133 172.7578
47.901429 78.110 172.6662
48.248542 78.087 172.5787
48.598171 78.065 172.4936
48.950334 78.044 172.4088
49.305048 78.023 172.3227
49.662333 78.002 172.2345
50.022206 77.982 172.1447
50.384688 77.961 172.0546
50.749796 77.939 171.9657
51.117550 77.917 171.8792
51.487969 77.895 171.7961
51.861072 77.871 171.7176
52.236879 77.848 171.6445
52.615409 77.824 171.5775
52.996681 77.799 171.5168
53.380717 77.775 171.4615
53.767536 77.752 171.4102
54.157158 77.729 171.3608
54.549603 77.707 171.3114
54.944892 77.686 171.2602
55.343045 77.665 171.2058
55.744084 77.646 171.1469
56.148028 77.627 171.0826
56.554900 77.609 171.0128
56.964720 77.591 170.9378
57.377510 77.573 170.8588
57.793291 77.554 170.7770
58.212085 77.536 170.6941
58.633914 77.516 170.6116
59.058799 77.495 170.5322
59.486764 77.473 170.4601
59.917829 77.449 170.3990
60.352019 77.425 170.3508
60.789354 77.401 170.3136
61.229859 77.377 170.2826
61.673556 77.353 170.2516
62.120468 77.330 170.2169
62.570618 77.306 170.1784
63.024031 77.281 170.1385
63.480729 77.255 170.0999
63.940736 77.229 170.0632
64.404077 77.204 170.0269
64.870776 77.180 169.9883
65.340856 77.156 169.9466
65.814343 77.132 169.9033
66.291261 77.109 169.8614
66.771635 77.085 169.8240
67.255489 77.062 169.7923
67.742850 77.040 169.7657
68.233743 77.018 169.7428
68.728193 76.997 169.7225
69.226226 76.976 169.7046
69.727867 76.955 169.6892
70.233144 76.933 169.6762
70.742083 76.912 169.6645
71.254709 76.891 169.6521
71.771050 76.869 169.6368
72.291132 76.847 169.6180
72.814984 76.825 169.5981
73.342631 76.801 169.5814
73.874102 76.778 169.5720
74.409424 76.755 169.5706
74.948626 76.734 169.5746
75.491734 76.714 169.5798
76.038779 76.695 169.5833
76.589787 76.676 169.5850
77.144788 76.658 169.5861
77.703811 76.640 169.5881
78.266885 76.622 169.5914
78.834039 76.605 169.5951
79.405303 76.588 169.5964
79.980706 76.572 169.5920
80.560280 76.557 169.5777
81.144053 76.542 169.5508
81.732056 76.525 169.5111
82.324320 76.506 169.4611
82.920876 76.486 169.4056
83.521755 76.463 169.3504
84.126988 76.437 169.3003
84.736607 76.410 169.2591
85.350643 76.380 169.2293
85.969129 76.350 169.2119
86.592097 76.320 169.2073
