* Measurement data measured by REW V5.31
* Source: EXCL: Microphone (USB Sound Device        ), MICROPHONE (Master Volume), L, volume: 0.560
* Format: 256k Log Swept Sine, 1 sweep at -9.0 dBFS with no timing reference
* Dated: Apr 16, 2024 5:21:02 PM
* REW Settings:
*  C-weighting compensation: Off
*  Target level: 75.0 dB
* Note: L KZ ZS10 PRO 2 1100 18
* Measurement: L KZ ZS10 PRO 2 1100 18
* Smoothing: 1/12 octave
* Frequency Step: 96 ppo
* Start Frequency: 0.36621094 Hz
*
* Freq(Hz) SPL(dB) Phase(degrees)
0.366211 83.211 156.3782
0.368865 83.205 156.3535
0.371538 83.196 156.3164
0.374230 83.185 156.2698
0.376942 83.172 156.2161
0.379673 83.158 156.1571
0.382424 83.144 156.0938
0.385196 83.129 156.0271
0.387987 83.114 155.9573
0.390798 83.099 155.8846
0.393630 83.084 155.8092
0.396483 83.069 155.7310
0.399356 83.053 155.6502
0.402250 83.037 155.5666
0.405165 83.022 155.4802
0.408101 83.006 155.3911
0.411058 82.990 155.2993
0.414037 82.974 155.2045
0.417037 82.957 155.1070
0.420059 82.941 155.0065
0.423103 82.925 154.9032
0.426169 82.908 154.7969
0.429257 82.891 154.6877
0.432368 82.874 154.5755
0.435501 82.858 154.4602
0.438656 82.840 154.3420
0.441835 82.823 154.2207
0.445037 82.806 154.0962
0.448262 82.788 153.9687
0.451510 82.771 153.8381
0.454782 82.753 153.7043
0.458077 82.735 153.5672
0.461397 82.717 153.4270
0.464740 82.699 153.2836
0.468108 82.681 153.1369
0.471500 82.663 152.9870
0.474917 82.644 152.8338
0.478358 82.626 152.6773
0.481825 82.607 152.5175
0.485316 82.588 152.3543
0.488833 82.569 152.1878
0.492375 82.550 152.0179
0.495943 82.530 151.8447
0.499537 82.511 151.6681
0.503157 82.491 151.4881
0.506803 82.472 151.3047
0.510475 82.452 151.1180
0.514175 82.432 150.9278
0.517900 82.412 150.7342
0.521653 82.391 150.5372
0.525434 82.371 150.3369
0.529241 82.350 150.1331
0.533076 82.330 149.9260
0.536939 82.309 149.7155
0.540830 82.288 149.5016
0.544749 82.266 149.2844
0.548696 82.245 149.0639
0.552673 82.224 148.8401
0.556677 82.202 148.6130
0.560711 82.180 148.3827
0.564774 82.158 148.1492
0.568867 82.136 147.9125
0.572989 82.114 147.6726
0.577141 82.091 147.4297
0.581324 82.068 147.1838
0.585536 82.046 146.9349
0.589779 82.023 146.6830
0.594053 82.000 146.4283
0.598358 81.976 146.1709
0.602694 81.953 145.9106
0.607061 81.929 145.6478
0.611460 81.905 145.3824
0.615891 81.881 145.1146
0.620354 81.857 144.8444
0.624849 81.833 144.5719
0.629377 81.809 144.2973
0.633938 81.784 144.0207
0.638532 81.759 143.7422
0.643159 81.734 143.4619
0.647819 81.709 143.1800
0.652514 81.683 142.8967
0.657242 81.658 142.6120
0.662005 81.632 142.3261
0.666802 81.606 142.0393
0.671634 81.580 141.7518
0.676501 81.554 141.4636
0.681403 81.527 141.1751
0.686341 81.500 140.8864
0.691314 81.473 140.5977
0.696324 81.446 140.3093
0.701370 81.419 140.0213
0.706452 81.391 139.7340
0.711571 81.362 139.4473
0.716728 81.333 139.1613
0.721921 81.302 138.8756
0.727153 81.270 138.5898
0.732422 81.236 138.3030
0.737729 81.199 138.0141
0.743075 81.161 137.7219
0.748460 81.120 137.4254
0.753883 81.078 137.1239
0.759346 81.035 136.8167
0.764849 80.992 136.5034
0.770391 80.947 136.1839
0.775974 80.902 135.8578
0.781597 80.856 135.5251
0.787261 80.810 135.1857
0.792966 80.763 134.8393
0.798712 80.716 134.4860
0.804500 80.668 134.1257
0.810329 80.619 133.7583
0.816201 80.570 133.3837
0.822116 80.520 133.0018
0.828073 80.469 132.6127
0.834074 80.417 132.2162
0.840118 80.365 131.8122
0.846206 80.311 131.4009
0.852338 80.257 130.9820
0.858514 80.202 130.5557
0.864735 80.146 130.1218
0.871001 80.089 129.6804
0.877313 80.031 129.2315
0.883670 79.972 128.7751
0.890074 79.912 128.3112
0.896524 79.851 127.8399
0.903020 79.788 127.3612
0.909564 79.725 126.8752
0.916155 79.660 126.3820
0.922794 79.593 125.8818
0.929481 79.526 125.3746
0.936216 79.456 124.8606
0.943000 79.386 124.3401
0.949834 79.313 123.8132
0.956717 79.240 123.2801
0.963649 79.164 122.7412
0.970632 79.087 122.1967
0.977666 79.008 121.6470
0.984750 78.927 121.0924
0.991886 78.844 120.5334
0.999074 78.759 119.9704
1.006314 78.672 119.4039
1.013606 78.583 118.8345
1.020951 78.492 118.2628
1.028349 78.399 117.6893
1.035801 78.303 117.1148
1.043307 78.205 116.5400
1.050867 78.104 115.9657
1.058482 78.000 115.3926
1.066152 77.894 114.8216
1.073878 77.785 114.2532
1.081660 77.673 113.6879
1.089498 77.558 113.1258
1.097393 77.439 112.5668
1.105345 77.316 112.0100
1.113355 77.190 111.4546
1.121423 77.060 110.8993
1.129549 76.926 110.3431
1.137734 76.788 109.7851
1.145979 76.645 109.2245
1.154283 76.499 108.6604
1.162647 76.348 108.0921
1.171072 76.193 107.5189
1.179558 76.035 106.9399
1.188106 75.872 106.3546
1.196715 75.706 105.7619
1.205387 75.537 105.1612
1.214122 75.363 104.5514
1.222920 75.187 103.9317
1.231782 75.007 103.3010
1.240708 74.824 102.6582
1.249699 74.638 102.0023
1.258754 74.449 101.3321
1.267876 74.258 100.6462
1.277063 74.064 99.9433
1.286318 73.868 99.2221
1.295639 73.669 98.4809
1.305027 73.469 97.7183
1.314484 73.267 96.9324
1.324009 73.063 96.1217
1.333604 72.858 95.2841
1.343268 72.652 94.4178
1.353002 72.445 93.5208
1.362806 72.238 92.5910
1.372681 72.030 91.6264
1.382628 71.822 90.6247
1.392647 71.614 89.5840
1.402739 71.407 88.5021
1.412904 71.200 87.3770
1.423142 70.994 86.2069
1.433455 70.789 84.9900
1.443843 70.584 83.7246
1.454305 70.378 82.4085
1.464844 70.171 81.0395
1.475459 69.962 79.6139
1.486150 69.748 78.1270
1.496920 69.529 76.5724
1.507767 69.304 74.9421
1.518693 69.072 73.2270
1.529698 68.835 71.4160
1.540783 68.592 69.4967
1.551948 68.344 67.4549
1.563194 68.091 65.2748
1.574521 67.836 62.9382
1.585931 67.578 60.4251
1.597423 67.318 57.7133
1.608999 67.059 54.7788
1.620658 66.800 51.5960
1.632402 66.543 48.1391
1.644232 66.290 44.3834
1.656146 66.041 40.3075
1.668147 65.799 35.8971
1.680235 65.564 31.1489
1.692411 65.339 26.0757
1.704675 65.125 20.7102
1.717028 64.923 15.1081
1.729470 64.736 9.3472
1.742003 64.565 3.5219
1.754626 64.412 -2.2659
1.767341 64.280 -7.9181
1.780147 64.172 -13.3517
1.793047 64.088 -18.5062
1.806040 64.032 -23.3476
1.819128 64.006 -27.8673
1.832310 64.012 -32.0779
1.845587 64.052 -36.0058
1.858961 64.128 -39.6827
1.872432 64.238 -43.1388
1.886001 64.382 -46.3990
1.899667 64.559 -49.4831
1.913433 64.766 -52.4065
1.927299 65.002 -55.1813
1.941265 65.263 -57.8171
1.955332 65.546 -60.3218
1.969501 65.849 -62.7019
1.983773 66.168 -64.9632
1.998148 66.500 -67.1107
2.012627 66.842 -69.1486
2.027212 67.191 -71.0809
2.041902 67.543 -72.9107
2.056698 67.894 -74.6413
2.071602 68.241 -76.2754
2.086614 68.581 -77.8155
2.101734 68.909 -79.2641
2.116964 69.224 -80.6242
2.132304 69.521 -81.8988
2.147756 69.798 -83.0924
2.163320 70.053 -84.2110
2.178996 70.287 -85.2630
2.194786 70.498 -86.2591
2.210690 70.689 -87.2121
2.226710 70.862 -88.1346
2.242845 71.019 -89.0366
2.259098 71.162 -89.9253
2.275468 71.292 -90.8046
2.291957 71.412 -91.6760
2.308566 71.520 -92.5394
2.325295 71.619 -93.3935
2.342145 71.708 -94.2361
2.359117 71.789 -95.0647
2.376212 71.862 -95.8761
2.393431 71.927 -96.6666
2.410775 71.986 -97.4327
2.428244 72.039 -98.1701
2.445840 72.087 -98.8746
2.463564 72.130 -99.5419
2.481416 72.169 -100.1679
2.499397 72.205 -100.7488
2.517509 72.238 -101.2819
2.535752 72.267 -101.7658
2.554127 72.292 -102.2013
2.572635 72.312 -102.5910
2.591277 72.326 -102.9393
2.610055 72.334 -103.2505
2.628968 72.333 -103.5281
2.648019 72.326 -103.7744
2.667208 72.311 -103.9904
2.686535 72.290 -104.1761
2.706003 72.262 -104.3307
2.725612 72.230 -104.4529
2.745363 72.194 -104.5411
2.765257 72.156 -104.5929
2.785295 72.116 -104.6061
2.805478 72.075 -104.5779
2.825808 72.036 -104.5053
2.846285 71.998 -104.3853
2.866910 71.963 -104.2144
2.887685 71.932 -103.9891
2.908611 71.904 -103.7057
2.929688 71.880 -103.3602
2.950917 71.859 -102.9493
2.972301 71.839 -102.4704
2.993839 71.821 -101.9228
3.015534 71.804 -101.3075
3.037386 71.788 -100.6272
3.059396 71.773 -99.8861
3.081565 71.762 -99.0897
3.103896 71.754 -98.2446
3.126388 71.751 -97.3585
3.149043 71.754 -96.4396
3.171862 71.764 -95.4970
3.194847 71.783 -94.5394
3.217998 71.811 -93.5752
3.241317 71.851 -92.6113
3.264805 71.903 -91.6524
3.288463 71.968 -90.7000
3.312293 72.047 -89.7536
3.336295 72.140 -88.8114
3.360471 72.247 -87.8739
3.384822 72.367 -86.9444
3.409350 72.498 -86.0289
3.434056 72.640 -85.1356
3.458940 72.790 -84.2735
3.484005 72.948 -83.4520
3.509252 73.111 -82.6802
3.534681 73.278 -81.9662
3.560295 73.446 -81.3171
3.586094 73.616 -80.7384
3.612081 73.786 -80.2337
3.638255 73.955 -79.8043
3.664620 74.125 -79.4488
3.691175 74.294 -79.1639
3.717923 74.465 -78.9449
3.744864 74.637 -78.7869
3.772001 74.811 -78.6851
3.799335 74.985 -78.6353
3.826866 75.159 -78.6339
3.854597 75.332 -78.6775
3.882529 75.502 -78.7635
3.910664 75.669 -78.8896
3.939002 75.832 -79.0543
3.967546 75.989 -79.2570
3.996296 76.140 -79.4976
4.025255 76.284 -79.7769
4.054423 76.422 -80.0958
4.083804 76.554 -80.4542
4.113396 76.680 -80.8504
4.143204 76.800 -81.2813
4.173227 76.914 -81.7423
4.203468 77.022 -82.2280
4.233928 77.124 -82.7330
4.264609 77.221 -83.2520
4.295512 77.312 -83.7808
4.326639 77.398 -84.3163
4.357992 77.477 -84.8574
4.389572 77.549 -85.4049
4.421380 77.615 -85.9610
4.453419 77.675 -86.5279
4.485691 77.727 -87.1065
4.518196 77.774 -87.6956
4.550936 77.813 -88.2919
4.583914 77.847 -88.8907
4.617131 77.876 -89.4866
4.650589 77.899 -90.0740
4.684289 77.917 -90.6478
4.718233 77.930 -91.2043
4.752424 77.939 -91.7418
4.786862 77.942 -92.2603
4.821549 77.941 -92.7613
4.856488 77.934 -93.2459
4.891680 77.923 -93.7147
4.927127 77.907 -94.1669
4.962831 77.888 -94.6008
4.998794 77.866 -95.0137
5.035017 77.842 -95.4026
5.071503 77.817 -95.7642
5.108253 77.791 -96.0957
5.145270 77.765 -96.3952
5.182555 77.737 -96.6618
5.220110 77.709 -96.8964
5.257937 77.680 -97.1009
5.296038 77.652 -97.2781
5.334415 77.625 -97.4312
5.373071 77.600 -97.5635
5.412006 77.578 -97.6775
5.451224 77.559 -97.7749
5.490725 77.545 -97.8563
5.530514 77.536 -97.9218
5.570590 77.531 -97.9719
5.610957 77.531 -98.0092
5.651616 77.535 -98.0382
5.692570 77.544 -98.0651
5.733821 77.557 -98.0967
5.775370 77.575 -98.1398
5.817221 77.598 -98.1999
5.859375 77.626 -98.2803
5.901834 77.659 -98.3829
5.944602 77.697 -98.5085
5.987679 77.739 -98.6582
6.031068 77.785 -98.8342
6.074771 77.834 -99.0393
6.118792 77.885 -99.2771
6.163131 77.938 -99.5509
6.207792 77.991 -99.8632
6.252776 78.045 -100.2154
6.298086 78.099 -100.6074
6.343725 78.154 -101.0374
6.389694 78.208 -101.5032
6.435996 78.261 -102.0017
6.482634 78.312 -102.5305
6.529610 78.361 -103.0875
6.576926 78.408 -103.6718
6.624585 78.451 -104.2825
6.672590 78.491 -104.9188
6.720942 78.527 -105.5781
6.769645 78.561 -106.2566
6.818700 78.591 -106.9492
6.868111 78.617 -107.6510
6.917881 78.640 -108.3578
6.968010 78.660 -109.0667
7.018504 78.676 -109.7764
7.069362 78.689 -110.4852
7.120590 78.698 -111.1909
7.172189 78.705 -111.8900
7.224161 78.710 -112.5784
7.276511 78.714 -113.2522
7.329239 78.716 -113.9084
7.382350 78.717 -114.5454
7.435845 78.718 -115.1626
7.489729 78.719 -115.7599
7.544002 78.720 -116.3374
7.598669 78.722 -116.8946
7.653732 78.727 -117.4312
7.709194 78.734 -117.9468
7.765058 78.744 -118.4419
7.821327 78.757 -118.9179
7.878004 78.774 -119.3775
7.935091 78.794 -119.8240
7.992592 78.818 -120.2607
8.050510 78.847 -120.6903
8.108847 78.881 -121.1149
8.167607 78.918 -121.5365
8.226793 78.961 -121.9575
8.286408 79.007 -122.3813
8.346454 79.056 -122.8109
8.406936 79.109 -123.2493
8.467856 79.165 -123.6982
8.529218 79.223 -124.1584
8.591024 79.283 -124.6303
8.653278 79.345 -125.1138
8.715983 79.408 -125.6091
8.779143 79.471 -126.1160
8.842760 79.533 -126.6341
8.906839 79.596 -127.1621
8.971381 79.657 -127.6978
9.036392 79.717 -128.2388
9.101873 79.776 -128.7825
9.167829 79.832 -129.3265
9.234263 79.887 -129.8689
9.301178 79.940 -130.4075
9.368578 79.991 -130.9398
9.436467 80.039 -131.4629
9.504847 80.086 -131.9743
9.573723 80.131 -132.4723
9.643099 80.175 -132.9554
9.712976 80.217 -133.4227
9.783361 80.258 -133.8734
9.854255 80.298 -134.3066
9.925663 80.338 -134.7221
9.997588 80.377 -135.1200
10.070035 80.416 -135.5013
10.143007 80.455 -135.8669
10.216507 80.495 -136.2182
10.290540 80.535 -136.5567
10.365109 80.575 -136.8836
10.440219 80.615 -137.2006
10.515873 80.656 -137.5095
10.592076 80.697 -137.8121
10.668830 80.738 -138.1099
10.746141 80.779 -138.4041
10.824012 80.819 -138.6958
10.902447 80.859 -138.9859
10.981451 80.899 -139.2750
11.061027 80.937 -139.5637
11.141180 80.974 -139.8521
11.221913 81.010 -140.1402
11.303232 81.044 -140.4278
11.385140 81.076 -140.7147
11.467641 81.107 -141.0006
11.550741 81.136 -141.2852
11.634442 81.164 -141.5682
11.718750 81.189 -141.8494
11.803669 81.213 -142.1286
11.889203 81.235 -142.4058
11.975357 81.255 -142.6813
12.062136 81.274 -142.9551
12.149543 81.291 -143.2276
12.237583 81.307 -143.4991
12.326262 81.321 -143.7701
12.415583 81.333 -144.0409
12.505552 81.345 -144.3120
12.596172 81.354 -144.5836
12.687449 81.362 -144.8560
12.779387 81.369 -145.1295
12.871992 81.375 -145.4041
12.965268 81.379 -145.6798
13.059220 81.382 -145.9568
13.153852 81.383 -146.2352
13.249170 81.384 -146.5151
13.345179 81.384 -146.7969
13.441884 81.383 -147.0809
13.539289 81.382 -147.3681
13.637401 81.381 -147.6591
13.736223 81.380 -147.9551
13.835761 81.378 -148.2574
13.936021 81.377 -148.5674
14.037007 81.376 -148.8866
14.138725 81.376 -149.2162
14.241180 81.375 -149.5574
14.344377 81.375 -149.9111
14.448323 81.374 -150.2779
14.553021 81.373 -150.6577
14.658478 81.371 -151.0499
14.764700 81.369 -151.4536
14.871691 81.366 -151.8672
14.979457 81.362 -152.2887
15.088005 81.357 -152.7158
15.197339 81.352 -153.1460
15.307465 81.345 -153.5768
15.418389 81.339 -154.0060
15.530117 81.332 -154.4317
15.642655 81.326 -154.8526
15.756008 81.321 -155.2677
15.870182 81.317 -155.6772
15.985184 81.315 -156.0817
16.101019 81.315 -156.4824
16.217694 81.318 -156.8811
16.335214 81.323 -157.2796
16.453586 81.330 -157.6800
16.572815 81.340 -158.0840
16.692909 81.351 -158.4928
16.813872 81.363 -158.9068
16.935713 81.376 -159.3258
17.058436 81.390 -159.7486
17.182048 81.403 -160.1731
17.306556 81.416 -160.5967
17.431967 81.428 -161.0161
17.558286 81.439 -161.4280
17.685521 81.449 -161.8290
17.813677 81.458 -162.2163
17.942762 81.467 -162.5876
18.072783 81.476 -162.9415
18.203746 81.485 -163.2777
18.335658 81.494 -163.5967
18.468526 81.505 -163.9003
18.602356 81.516 -164.1907
18.737156 81.529 -164.4708
18.872934 81.542 -164.7439
19.009695 81.556 -165.0128
19.147447 81.570 -165.2802
19.286197 81.585 -165.5483
19.425953 81.598 -165.8184
19.566721 81.610 -166.0910
19.708510 81.621 -166.3658
19.851326 81.629 -166.6422
19.995177 81.635 -166.9187
20.140070 81.638 -167.1938
20.286013 81.638 -167.4657
20.433014 81.636 -167.7330
20.581080 81.631 -167.9943
20.730219 81.623 -168.2487
20.880439 81.614 -168.4957
21.031747 81.602 -168.7356
21.184152 81.590 -168.9688
21.337661 81.576 -169.1967
21.492282 81.562 -169.4208
21.648024 81.547 -169.6433
21.804895 81.532 -169.8663
21.962902 81.517 -170.0926
22.122054 81.502 -170.3245
22.282360 81.487 -170.5642
22.443827 81.472 -170.8137
22.606464 81.457 -171.0742
22.770280 81.442 -171.3463
22.935283 81.426 -171.6299
23.101481 81.410 -171.9240
23.268884 81.393 -172.2273
23.437500 81.376 -172.5378
23.607338 81.358 -172.8536
23.778406 81.339 -173.1726
23.950714 81.321 -173.4931
24.124271 81.304 -173.8140
24.299086 81.287 -174.1342
24.475167 81.271 -174.4533
24.652524 81.256 -174.7712
24.831166 81.243 -175.0879
25.011103 81.231 -175.4034
25.192344 81.220 -175.7177
25.374898 81.211 -176.0306
25.558775 81.203 -176.3418
25.743984 81.196 -176.6508
25.930536 81.190 -176.9574
26.118439 81.185 -177.2612
26.307704 81.180 -177.5619
26.498341 81.176 -177.8589
26.690359 81.171 -178.1518
26.883768 81.167 -178.4395
27.078579 81.161 -178.7210
27.274801 81.154 -178.9946
27.472446 81.147 -179.2587
27.671522 81.138 -179.5117
27.872042 81.128 -179.7526
28.074014 81.117 -179.9810
28.277450 81.105 179.8028
28.482360 81.093 179.5974
28.688755 81.080 179.4006
28.896645 81.066 179.2101
29.106042 81.053 179.0231
29.316957 81.038 178.8374
29.529400 81.023 178.6510
29.743382 81.007 178.4625
29.958915 80.990 178.2711
30.176009 80.971 178.0763
30.394677 80.952 177.8776
30.614929 80.932 177.6747
30.836778 80.911 177.4672
31.060234 80.889 177.2542
31.285309 80.866 177.0354
31.512015 80.844 176.8104
31.740364 80.820 176.5791
31.970368 80.797 176.3421
32.202039 80.773 176.1003
32.435388 80.749 175.8550
32.670428 80.724 175.6078
32.907171 80.700 175.3600
33.145630 80.677 175.1132
33.385817 80.654 174.8682
33.627745 80.631 174.6254
33.871425 80.610 174.3850
34.116871 80.590 174.1467
34.364096 80.570 173.9105
34.613113 80.551 173.6766
34.863934 80.533 173.4456
35.116572 80.514 173.2188
35.371041 80.496 172.9977
35.627354 80.477 172.7835
35.885525 80.458 172.5772
36.145566 80.439 172.3791
36.407492 80.419 172.1887
36.671316 80.400 172.0054
36.937051 80.380 171.8284
37.204712 80.359 171.6568
37.474313 80.338 171.4902
37.745867 80.316 171.3279
38.019389 80.294 171.1689
38.294893 80.271 171.0115
38.572394 80.248 170.8535
38.851905 80.224 170.6927
39.133442 80.200 170.5278
39.417019 80.174 170.3588
39.702651 80.148 170.1870
39.990353 80.120 170.0151
40.280140 80.091 169.8455
40.572026 80.062 169.6800
40.866028 80.034 169.5184
41.162160 80.006 169.3589
41.460438 79.979 169.1989
41.760877 79.952 169.0356
42.063494 79.927 168.8670
42.368303 79.902 168.6930
42.675322 79.876 168.5150
42.984565 79.851 168.3354
43.296048 79.824 168.1573
43.609789 79.797 167.9832
43.925804 79.769 167.8148
44.244108 79.741 167.6528
44.564719 79.714 167.4966
44.887654 79.686 167.3447
45.212928 79.659 167.1956
45.540560 79.631 167.0481
45.870565 79.602 166.9021
46.202962 79.573 166.7593
46.537768 79.543 166.6226
46.875000 79.513 166.4947
47.214676 79.482 166.3770
47.556813 79.452 166.2681
47.901429 79.424 166.1645
48.248542 79.396 166.0615
48.598171 79.370 165.9547
48.950334 79.345 165.8425
49.305048 79.319 165.7257
49.662333 79.292 165.6072
50.022206 79.265 165.4908
50.384688 79.237 165.3792
50.749796 79.208 165.2737
51.117550 79.180 165.1744
51.487969 79.151 165.0803
51.861072 79.123 164.9898
52.236879 79.094 164.9020
52.615409 79.065 164.8157
52.996681 79.037 164.7306
53.380717 79.008 164.6462
53.767536 78.978 164.5621
54.157158 78.949 164.4777
54.549603 78.920 164.3923
54.944892 78.890 164.3061
55.343045 78.861 164.2197
55.744084 78.831 164.1340
56.148028 78.802 164.0494
56.554900 78.774 163.9648
56.964720 78.746 163.8781
57.377510 78.719 163.7865
57.793291 78.693 163.6885
58.212085 78.666 163.5841
58.633914 78.638 163.4747
59.058799 78.609 163.3631
59.486764 78.579 163.2522
59.917829 78.547 163.1452
60.352019 78.513 163.0453
60.789354 78.478 162.9558
61.229859 78.442 162.8792
61.673556 78.407 162.8163
62.120468 78.372 162.7645
62.570618 78.340 162.7170
63.024031 78.310 162.6655
63.480729 78.281 162.6034
63.940736 78.253 162.5294
64.404077 78.224 162.4485
64.870776 78.195 162.3683
65.340856 78.165 162.2953
65.814343 78.135 162.2323
66.291261 78.105 162.1791
66.771635 78.077 162.1337
67.255489 78.049 162.0939
67.742850 78.021 162.0575
68.233743 77.992 162.0233
68.728193 77.963 161.9924
69.226226 77.932 161.9673
69.727867 77.900 161.9506
70.233144 77.868 161.9419
70.742083 77.836 161.9376
71.254709 77.805 161.9324
71.771050 77.773 161.9221
72.291132 77.742 161.9048
72.814984 77.711 161.8813
73.342631 77.680 161.8531
73.874102 77.649 161.8230
74.409424 77.618 161.7943
74.948626 77.587 161.7708
75.491734 77.556 161.7546
76.038779 77.526 161.7455
76.589787 77.498 161.7413
77.144788 77.469 161.7391
77.703811 77.441 161.7369
78.266885 77.413 161.7343
78.834039 77.384 161.7320
79.405303 77.354 161.7310
79.980706 77.323 161.7312
80.560280 77.292 161.7318
81.144053 77.261 161.7314
81.732056 77.230 161.7278
82.324320 77.200 161.7164
82.920876 77.170 161.6910
83.521755 77.140 161.6479
84.126988 77.108 161.5892
84.736607 77.074 161.5237
85.350643 77.037 161.4619
85.969129 76.999 161.4117
86.592097 76.961 161.3784
87.219579 76.922 161.3643
