* Measurement data measured by REW V5.31
* Source: EXCL: Microphone (USB Sound Device        ), MICROPHONE (Master Volume), L, volume: 0.560
* Format: 256k Log Swept Sine, 1 sweep at 0.0 dBFS with no timing reference
* Dated: Apr 18, 2024 12:08:46 PM
* REW Settings:
*  C-weighting compensation: Off
*  Target level: 75.0 dB
* Note: KZ ZS10 Pro 2 1100 L
* Measurement: L KZ ZS10 Pro 2 1100
* Smoothing: 1/12 octave
* Frequency Step: 96 ppo
* Start Frequency: 0.36621094 Hz
*
* Freq(Hz) SPL(dB) Phase(degrees)
0.366211 81.723 163.8154
0.368865 81.717 163.7977
0.371538 81.708 163.7711
0.374230 81.696 163.7378
0.376942 81.683 163.6993
0.379673 81.669 163.6571
0.382424 81.654 163.6118
0.385196 81.639 163.5642
0.387987 81.624 163.5143
0.390798 81.608 163.4625
0.393630 81.593 163.4087
0.396483 81.577 163.3530
0.399356 81.561 163.2955
0.402250 81.545 163.2360
0.405165 81.529 163.1746
0.408101 81.513 163.1112
0.411058 81.496 163.0459
0.414037 81.480 162.9787
0.417037 81.463 162.9094
0.420059 81.447 162.8381
0.423103 81.430 162.7648
0.426169 81.413 162.6895
0.429257 81.396 162.6121
0.432368 81.378 162.5326
0.435501 81.361 162.4510
0.438656 81.344 162.3673
0.441835 81.326 162.2815
0.445037 81.308 162.1935
0.448262 81.290 162.1033
0.451510 81.272 162.0110
0.454782 81.254 161.9164
0.458077 81.236 161.8197
0.461397 81.218 161.7207
0.464740 81.199 161.6194
0.468108 81.180 161.5159
0.471500 81.162 161.4101
0.474917 81.143 161.3020
0.478358 81.124 161.1916
0.481825 81.105 161.0789
0.485316 81.085 160.9639
0.488833 81.066 160.8466
0.492375 81.046 160.7269
0.495943 81.026 160.6048
0.499537 81.006 160.4804
0.503157 80.986 160.3536
0.506803 80.966 160.2244
0.510475 80.946 160.0929
0.514175 80.925 159.9590
0.517900 80.905 159.8227
0.521653 80.884 159.6840
0.525434 80.863 159.5429
0.529241 80.842 159.3994
0.533076 80.821 159.2536
0.536939 80.799 159.1053
0.540830 80.778 158.9547
0.544749 80.756 158.8018
0.548696 80.734 158.6464
0.552673 80.712 158.4888
0.556677 80.690 158.3288
0.560711 80.668 158.1664
0.564774 80.645 158.0018
0.568867 80.623 157.8349
0.572989 80.600 157.6658
0.577141 80.577 157.4944
0.581324 80.554 157.3208
0.585536 80.530 157.1450
0.589779 80.507 156.9671
0.594053 80.483 156.7871
0.598358 80.459 156.6050
0.602694 80.435 156.4209
0.607061 80.411 156.2348
0.611460 80.387 156.0468
0.615891 80.362 155.8570
0.620354 80.338 155.6653
0.624849 80.313 155.4718
0.629377 80.288 155.2767
0.633938 80.262 155.0799
0.638532 80.237 154.8816
0.643159 80.211 154.6818
0.647819 80.185 154.4807
0.652514 80.160 154.2782
0.657242 80.133 154.0746
0.662005 80.107 153.8699
0.666802 80.080 153.6642
0.671634 80.054 153.4577
0.676501 80.027 153.2504
0.681403 80.000 153.0426
0.686341 79.972 152.8342
0.691314 79.945 152.6255
0.696324 79.917 152.4165
0.701370 79.888 152.2075
0.706452 79.860 151.9985
0.711571 79.830 151.7895
0.716728 79.800 151.5805
0.721921 79.769 151.3712
0.727153 79.735 151.1613
0.732422 79.699 150.9502
0.737729 79.661 150.7370
0.743075 79.620 150.5209
0.748460 79.577 150.3011
0.753883 79.532 150.0771
0.759346 79.486 149.8483
0.764849 79.440 149.6146
0.770391 79.393 149.3758
0.775974 79.345 149.1315
0.781597 79.297 148.8819
0.787261 79.248 148.6266
0.792966 79.198 148.3658
0.798712 79.148 148.0992
0.804500 79.098 147.8267
0.810329 79.047 147.5484
0.816201 78.995 147.2642
0.822116 78.942 146.9738
0.828073 78.889 146.6774
0.834074 78.835 146.3748
0.840118 78.779 146.0659
0.846206 78.723 145.7507
0.852338 78.666 145.4291
0.858514 78.608 145.1010
0.864735 78.549 144.7665
0.871001 78.489 144.4253
0.877313 78.427 144.0776
0.883670 78.365 143.7231
0.890074 78.301 143.3620
0.896524 78.235 142.9941
0.903020 78.168 142.6195
0.909564 78.100 142.2380
0.916155 78.030 141.8497
0.922794 77.958 141.4547
0.929481 77.884 141.0528
0.936216 77.809 140.6441
0.943000 77.732 140.2286
0.949834 77.652 139.8064
0.956717 77.571 139.3776
0.963649 77.487 138.9421
0.970632 77.401 138.5001
0.977666 77.313 138.0516
0.984750 77.222 137.5969
0.991886 77.128 137.1360
0.999074 77.032 136.6691
1.006314 76.933 136.1964
1.013606 76.831 135.7181
1.020951 76.727 135.2345
1.028349 76.618 134.7457
1.035801 76.507 134.2522
1.043307 76.392 133.7542
1.050867 76.274 133.2521
1.058482 76.151 132.7462
1.066152 76.025 132.2367
1.073878 75.894 131.7238
1.081660 75.758 131.2076
1.089498 75.617 130.6876
1.097393 75.469 130.1633
1.105345 75.314 129.6335
1.113355 75.150 129.0968
1.121423 74.976 128.5518
1.129549 74.793 127.9971
1.137734 74.600 127.4314
1.145979 74.396 126.8535
1.154283 74.183 126.2619
1.162647 73.960 125.6556
1.171072 73.728 125.0332
1.179558 73.487 124.3932
1.188106 73.238 123.7342
1.196715 72.982 123.0544
1.205387 72.718 122.3522
1.214122 72.449 121.6254
1.222920 72.173 120.8719
1.231782 71.893 120.0894
1.240708 71.608 119.2752
1.249699 71.320 118.4264
1.258754 71.029 117.5398
1.267876 70.737 116.6118
1.277063 70.444 115.6385
1.286318 70.151 114.6155
1.295639 69.859 113.5380
1.305027 69.569 112.4006
1.314484 69.283 111.1972
1.324009 69.001 109.9212
1.333604 68.725 108.5651
1.343268 68.456 107.1207
1.353002 68.195 105.5788
1.362806 67.944 103.9292
1.372681 67.705 102.1608
1.382628 67.478 100.2613
1.392647 67.266 98.2174
1.402739 67.070 96.0148
1.412904 66.891 93.6382
1.423142 66.732 91.0714
1.433455 66.595 88.2979
1.443843 66.480 85.3007
1.454305 66.388 82.0626
1.464844 66.321 78.5673
1.475459 66.279 74.8001
1.486150 66.262 70.7504
1.496920 66.269 66.4151
1.507767 66.300 61.8024
1.518693 66.353 56.9348
1.529698 66.428 51.8511
1.540783 66.525 46.6062
1.551948 66.642 41.2686
1.563194 66.778 35.9156
1.574521 66.932 30.6255
1.585931 67.103 25.4716
1.597423 67.291 20.5153
1.608999 67.493 15.8028
1.620658 67.709 11.3644
1.632402 67.937 7.2151
1.644232 68.176 3.3574
1.656146 68.425 -0.2156
1.668147 68.682 -3.5175
1.680235 68.945 -6.5657
1.692411 69.214 -9.3796
1.704675 69.486 -11.9793
1.717028 69.760 -14.3844
1.729470 70.034 -16.6137
1.742003 70.307 -18.6847
1.754626 70.577 -20.6134
1.767341 70.842 -22.4146
1.780147 71.102 -24.1018
1.793047 71.356 -25.6874
1.806040 71.603 -27.1832
1.819128 71.845 -28.5998
1.832310 72.082 -29.9476
1.845587 72.317 -31.2357
1.858961 72.553 -32.4718
1.872432 72.790 -33.6620
1.886001 73.029 -34.8108
1.899667 73.272 -35.9216
1.913433 73.519 -36.9971
1.927299 73.768 -38.0390
1.941265 74.020 -39.0492
1.955332 74.275 -40.0288
1.969501 74.531 -40.9792
1.983773 74.789 -41.9014
1.998148 75.048 -42.7964
2.012627 75.306 -43.6650
2.027212 75.564 -44.5080
2.041902 75.821 -45.3263
2.056698 76.076 -46.1204
2.071602 76.328 -46.8912
2.086614 76.577 -47.6391
2.101734 76.821 -48.3650
2.116964 77.061 -49.0695
2.132304 77.295 -49.7535
2.147756 77.523 -50.4181
2.163320 77.745 -51.0648
2.178996 77.959 -51.6953
2.194786 78.166 -52.3120
2.210690 78.365 -52.9176
2.226710 78.558 -53.5145
2.242845 78.744 -54.1047
2.259098 78.923 -54.6894
2.275468 79.096 -55.2692
2.291957 79.264 -55.8444
2.308566 79.426 -56.4146
2.325295 79.583 -56.9797
2.342145 79.736 -57.5391
2.359117 79.884 -58.0924
2.376212 80.028 -58.6390
2.393431 80.169 -59.1784
2.410775 80.306 -59.7101
2.428244 80.441 -60.2335
2.445840 80.574 -60.7482
2.463564 80.706 -61.2536
2.481416 80.835 -61.7496
2.499397 80.964 -62.2359
2.517509 81.092 -62.7126
2.535752 81.220 -63.1801
2.554127 81.346 -63.6393
2.572635 81.472 -64.0914
2.591277 81.595 -64.5378
2.610055 81.717 -64.9798
2.628968 81.835 -65.4182
2.648019 81.952 -65.8535
2.667208 82.065 -66.2861
2.686535 82.176 -66.7158
2.706003 82.284 -67.1424
2.725612 82.390 -67.5656
2.745363 82.494 -67.9852
2.765257 82.596 -68.4006
2.785295 82.696 -68.8114
2.805478 82.795 -69.2173
2.825808 82.893 -69.6178
2.846285 82.989 -70.0126
2.866910 83.085 -70.4015
2.887685 83.180 -70.7843
2.908611 83.275 -71.1612
2.929688 83.368 -71.5327
2.950917 83.460 -71.8993
2.972301 83.551 -72.2617
2.993839 83.641 -72.6206
3.015534 83.729 -72.9762
3.037386 83.815 -73.3289
3.059396 83.900 -73.6786
3.081565 83.984 -74.0253
3.103896 84.066 -74.3689
3.126388 84.147 -74.7091
3.149043 84.227 -75.0459
3.171862 84.306 -75.3790
3.194847 84.384 -75.7080
3.217998 84.462 -76.0329
3.241317 84.539 -76.3534
3.264805 84.616 -76.6693
3.288463 84.693 -76.9807
3.312293 84.769 -77.2876
3.336295 84.845 -77.5901
3.360471 84.919 -77.8888
3.384822 84.993 -78.1837
3.409350 85.066 -78.4755
3.434056 85.139 -78.7645
3.458940 85.210 -79.0511
3.484005 85.281 -79.3357
3.509252 85.351 -79.6188
3.534681 85.421 -79.9007
3.560295 85.491 -80.1817
3.586094 85.560 -80.4620
3.612081 85.629 -80.7420
3.638255 85.698 -81.0216
3.664620 85.767 -81.3008
3.691175 85.835 -81.5796
3.717923 85.904 -81.8578
3.744864 85.972 -82.1356
3.772001 86.039 -82.4131
3.799335 86.106 -82.6905
3.826866 86.173 -82.9681
3.854597 86.239 -83.2463
3.882529 86.305 -83.5253
3.910664 86.371 -83.8057
3.939002 86.436 -84.0878
3.967546 86.501 -84.3717
3.996296 86.566 -84.6577
4.025255 86.631 -84.9459
4.054423 86.695 -85.2363
4.083804 86.760 -85.5289
4.113396 86.823 -85.8237
4.143204 86.887 -86.1207
4.173227 86.950 -86.4200
4.203468 87.012 -86.7218
4.233928 87.075 -87.0264
4.264609 87.136 -87.3339
4.295512 87.198 -87.6447
4.326639 87.258 -87.9590
4.357992 87.319 -88.2771
4.389572 87.379 -88.5991
4.421380 87.438 -88.9253
4.453419 87.496 -89.2556
4.485691 87.554 -89.5901
4.518196 87.612 -89.9286
4.550936 87.669 -90.2708
4.583914 87.725 -90.6166
4.617131 87.781 -90.9657
4.650589 87.836 -91.3181
4.684289 87.890 -91.6734
4.718233 87.943 -92.0319
4.752424 87.996 -92.3935
4.786862 88.048 -92.7584
4.821549 88.099 -93.1269
4.856488 88.149 -93.4989
4.891680 88.199 -93.8742
4.927127 88.248 -94.2526
4.962831 88.296 -94.6337
4.998794 88.343 -95.0170
5.035017 88.389 -95.4023
5.071503 88.435 -95.7891
5.108253 88.480 -96.1775
5.145270 88.525 -96.5675
5.182555 88.568 -96.9592
5.220110 88.611 -97.3527
5.257937 88.653 -97.7480
5.296038 88.694 -98.1449
5.334415 88.734 -98.5431
5.373071 88.774 -98.9422
5.412006 88.814 -99.3420
5.451224 88.853 -99.7422
5.490725 88.891 -100.1426
5.530514 88.929 -100.5433
5.570590 88.967 -100.9444
5.610957 89.004 -101.3460
5.651616 89.040 -101.7482
5.692570 89.077 -102.1509
5.733821 89.112 -102.5541
5.775370 89.148 -102.9577
5.817221 89.184 -103.3617
5.859375 89.219 -103.7660
5.901834 89.255 -104.1706
5.944602 89.290 -104.5756
5.987679 89.325 -104.9812
6.031068 89.360 -105.3877
6.074771 89.395 -105.7953
6.118792 89.430 -106.2041
6.163131 89.465 -106.6144
6.207792 89.501 -107.0263
6.252776 89.536 -107.4399
6.298086 89.571 -107.8553
6.343725 89.607 -108.2726
6.389694 89.643 -108.6920
6.435996 89.679 -109.1136
6.482634 89.715 -109.5376
6.529610 89.751 -109.9644
6.576926 89.787 -110.3940
6.624585 89.823 -110.8265
6.672590 89.860 -111.2621
6.720942 89.896 -111.7006
6.769645 89.933 -112.1421
6.818700 89.969 -112.5865
6.868111 90.006 -113.0337
6.917881 90.042 -113.4839
6.968010 90.078 -113.9369
7.018504 90.114 -114.3928
7.069362 90.150 -114.8514
7.120590 90.186 -115.3126
7.172189 90.222 -115.7758
7.224161 90.258 -116.2410
7.276511 90.293 -116.7076
7.329239 90.328 -117.1755
7.382350 90.363 -117.6445
7.435845 90.398 -118.1145
7.489729 90.432 -118.5851
7.544002 90.466 -119.0558
7.598669 90.500 -119.5264
7.653732 90.534 -119.9962
7.709194 90.568 -120.4651
7.765058 90.601 -120.9329
7.821327 90.634 -121.3993
7.878004 90.667 -121.8641
7.935091 90.700 -122.3271
7.992592 90.733 -122.7880
8.050510 90.766 -123.2464
8.108847 90.799 -123.7024
8.167607 90.832 -124.1558
8.226793 90.865 -124.6065
8.286408 90.898 -125.0547
8.346454 90.931 -125.5003
8.406936 90.964 -125.9433
8.467856 90.998 -126.3838
8.529218 91.031 -126.8217
8.591024 91.065 -127.2573
8.653278 91.099 -127.6907
8.715983 91.133 -128.1221
8.779143 91.168 -128.5516
8.842760 91.202 -128.9793
8.906839 91.237 -129.4055
8.971381 91.271 -129.8301
9.036392 91.306 -130.2532
9.101873 91.341 -130.6751
9.167829 91.375 -131.0957
9.234263 91.410 -131.5151
9.301178 91.444 -131.9332
9.368578 91.479 -132.3501
9.436467 91.512 -132.7655
9.504847 91.546 -133.1794
9.573723 91.579 -133.5916
9.643099 91.610 -134.0020
9.712976 91.641 -134.4104
9.783361 91.669 -134.8166
9.854255 91.696 -135.2203
9.925663 91.719 -135.6213
9.997588 91.740 -136.0195
10.070035 91.758 -136.4145
10.143007 91.774 -136.8064
10.216507 91.787 -137.1948
10.290540 91.798 -137.5796
10.365109 91.808 -137.9609
10.440219 91.816 -138.3385
10.515873 91.824 -138.7126
10.592076 91.830 -139.0831
10.668830 91.836 -139.4501
10.746141 91.841 -139.8138
10.824012 91.845 -140.1744
10.902447 91.850 -140.5320
10.981451 91.853 -140.8869
11.061027 91.856 -141.2394
11.141180 91.859 -141.5897
11.221913 91.861 -141.9380
11.303232 91.863 -142.2846
11.385140 91.864 -142.6297
11.467641 91.865 -142.9734
11.550741 91.865 -143.3161
11.634442 91.865 -143.6578
11.718750 91.865 -143.9986
11.803669 91.864 -144.3386
11.889203 91.863 -144.6779
11.975357 91.862 -145.0165
12.062136 91.860 -145.3544
12.149543 91.859 -145.6917
12.237583 91.856 -146.0283
12.326262 91.854 -146.3643
12.415583 91.851 -146.6998
12.505552 91.847 -147.0348
12.596172 91.843 -147.3694
12.687449 91.838 -147.7037
12.779387 91.833 -148.0379
12.871992 91.827 -148.3721
12.965268 91.821 -148.7066
13.059220 91.815 -149.0417
13.153852 91.808 -149.3775
13.249170 91.801 -149.7143
13.345179 91.795 -150.0524
13.441884 91.788 -150.3920
13.539289 91.782 -150.7333
13.637401 91.775 -151.0765
13.736223 91.768 -151.4218
13.835761 91.761 -151.7693
13.936021 91.754 -152.1190
14.037007 91.747 -152.4711
14.138725 91.740 -152.8254
14.241180 91.732 -153.1820
14.344377 91.724 -153.5408
14.448323 91.715 -153.9017
14.553021 91.707 -154.2646
14.658478 91.698 -154.6295
14.764700 91.689 -154.9962
14.871691 91.680 -155.3646
14.979457 91.671 -155.7345
15.088005 91.663 -156.1058
15.197339 91.654 -156.4784
15.307465 91.646 -156.8520
15.418389 91.637 -157.2264
15.530117 91.629 -157.6015
15.642655 91.620 -157.9769
15.756008 91.612 -158.3523
15.870182 91.604 -158.7276
15.985184 91.595 -159.1022
16.101019 91.587 -159.4759
16.217694 91.578 -159.8484
16.335214 91.570 -160.2194
16.453586 91.562 -160.5886
16.572815 91.555 -160.9558
16.692909 91.548 -161.3208
16.813872 91.541 -161.6835
16.935713 91.535 -162.0439
17.058436 91.529 -162.4018
17.182048 91.524 -162.7575
17.306556 91.520 -163.1107
17.431967 91.515 -163.4617
17.558286 91.510 -163.8102
17.685521 91.506 -164.1563
17.813677 91.501 -164.4999
17.942762 91.497 -164.8405
18.072783 91.492 -165.1781
18.203746 91.486 -165.5123
18.335658 91.481 -165.8427
18.468526 91.475 -166.1688
18.602356 91.469 -166.4905
18.737156 91.462 -166.8074
18.872934 91.456 -167.1195
19.009695 91.449 -167.4265
19.147447 91.442 -167.7288
19.286197 91.436 -168.0264
19.425953 91.429 -168.3199
19.566721 91.422 -168.6097
19.708510 91.414 -168.8964
19.851326 91.406 -169.1805
19.995177 91.398 -169.4627
20.140070 91.390 -169.7435
20.286013 91.381 -170.0232
20.433014 91.371 -170.3022
20.581080 91.361 -170.5807
20.730219 91.350 -170.8588
20.880439 91.339 -171.1366
21.031747 91.327 -171.4140
21.184152 91.315 -171.6912
21.337661 91.302 -171.9681
21.492282 91.289 -172.2449
21.648024 91.275 -172.5219
21.804895 91.261 -172.7993
21.962902 91.247 -173.0775
22.122054 91.233 -173.3568
22.282360 91.218 -173.6375
22.443827 91.203 -173.9199
22.606464 91.187 -174.2038
22.770280 91.171 -174.4894
22.935283 91.154 -174.7763
23.101481 91.137 -175.0641
23.268884 91.120 -175.3523
23.437500 91.102 -175.6405
23.607338 91.084 -175.9281
23.778406 91.065 -176.2147
23.950714 91.047 -176.5002
24.124271 91.028 -176.7843
24.299086 91.010 -177.0673
24.475167 90.992 -177.3493
24.652524 90.975 -177.6306
24.831166 90.957 -177.9115
25.011103 90.940 -178.1923
25.192344 90.924 -178.4729
25.374898 90.908 -178.7533
25.558775 90.891 -179.0332
25.743984 90.875 -179.3122
25.930536 90.859 -179.5899
26.118439 90.843 -179.8657
26.307704 90.827 179.8608
26.498341 90.811 179.5899
26.690359 90.794 179.3219
26.883768 90.778 179.0568
27.078579 90.761 178.7947
27.274801 90.744 178.5358
27.472446 90.726 178.2800
27.671522 90.708 178.0276
27.872042 90.689 177.7791
28.074014 90.670 177.5348
28.277450 90.650 177.2952
28.482360 90.629 177.0604
28.688755 90.608 176.8306
28.896645 90.586 176.6055
29.106042 90.564 176.3846
29.316957 90.542 176.1670
29.529400 90.520 175.9516
29.743382 90.497 175.7374
29.958915 90.475 175.5233
30.176009 90.452 175.3087
30.394677 90.430 175.0931
30.614929 90.407 174.8766
30.836778 90.383 174.6594
31.060234 90.359 174.4419
31.285309 90.335 174.2247
31.512015 90.310 174.0081
31.740364 90.286 173.7922
31.970368 90.261 173.5766
32.202039 90.237 173.3611
32.435388 90.213 173.1448
32.670428 90.189 172.9272
32.907171 90.166 172.7078
33.145630 90.142 172.4866
33.385817 90.119 172.2636
33.627745 90.095 172.0396
33.871425 90.071 171.8152
34.116871 90.047 171.5914
34.364096 90.023 171.3691
34.613113 89.999 171.1491
34.863934 89.974 170.9322
35.116572 89.949 170.7186
35.371041 89.924 170.5089
35.627354 89.899 170.3030
35.885525 89.873 170.1009
36.145566 89.848 169.9024
36.407492 89.822 169.7070
36.671316 89.796 169.5142
36.937051 89.770 169.3236
37.204712 89.743 169.1349
37.474313 89.716 168.9483
37.745867 89.688 168.7646
38.019389 89.660 168.5844
38.294893 89.631 168.4086
38.572394 89.603 168.2372
38.851905 89.574 168.0695
39.133442 89.546 167.9041
39.417019 89.518 167.7388
39.702651 89.490 167.5717
39.990353 89.463 167.4016
40.280140 89.435 167.2285
40.572026 89.406 167.0534
40.866028 89.377 166.8784
41.162160 89.347 166.7056
41.460438 89.317 166.5366
41.760877 89.286 166.3724
42.063494 89.255 166.2132
42.368303 89.224 166.0583
42.675322 89.193 165.9072
42.984565 89.162 165.7591
43.296048 89.131 165.6132
43.609789 89.099 165.4692
43.925804 89.068 165.3268
44.244108 89.036 165.1864
44.564719 89.003 165.0489
44.887654 88.969 164.9156
45.212928 88.935 164.7877
45.540560 88.900 164.6658
45.870565 88.865 164.5494
46.202962 88.830 164.4372
46.537768 88.796 164.3282
46.875000 88.761 164.2220
47.214676 88.726 164.1191
47.556813 88.691 164.0201
47.901429 88.657 163.9244
48.248542 88.623 163.8295
48.598171 88.591 163.7314
48.950334 88.559 163.6266
49.305048 88.527 163.5145
49.662333 88.494 163.3985
50.022206 88.459 163.2850
50.384688 88.423 163.1806
50.749796 88.387 163.0896
51.117550 88.352 163.0118
51.487969 88.318 162.9432
51.861072 88.287 162.8782
52.236879 88.257 162.8115
52.615409 88.229 162.7396
52.996681 88.202 162.6611
53.380717 88.176 162.5765
53.767536 88.149 162.4878
54.157158 88.121 162.3984
54.549603 88.094 162.3122
54.944892 88.065 162.2319
55.343045 88.038 162.1584
55.744084 88.011 162.0905
56.148028 87.984 162.0262
56.554900 87.958 161.9641
56.964720 87.932 161.9033
57.377510 87.907 161.8429
57.793291 87.882 161.7808
58.212085 87.857 161.7145
58.633914 87.831 161.6425
59.058799 87.804 161.5656
59.486764 87.775 161.4865
59.917829 87.744 161.4078
60.352019 87.712 161.3300
60.789354 87.679 161.2519
61.229859 87.644 161.1731
61.673556 87.607 161.0948
62.120468 87.570 161.0199
62.570618 87.532 160.9509
63.024031 87.494 160.8878
63.480729 87.457 160.8285
63.940736 87.422 160.7695
64.404077 87.388 160.7078
64.870776 87.355 160.6421
65.340856 87.323 160.5727
65.814343 87.292 160.5018
66.291261 87.260 160.4322
66.771635 87.229 160.3663
67.255489 87.197 160.3050
67.742850 87.166 160.2480
68.233743 87.134 160.1951
68.728193 87.101 160.1474
69.226226 87.066 160.1078
69.727867 87.031 160.0781
70.233144 86.994 160.0581
70.742083 86.957 160.0452
71.254709 86.920 160.0363
71.771050 86.883 160.0296
72.291132 86.845 160.0234
72.814984 86.808 160.0154
73.342631 86.771 160.0038
73.874102 86.734 159.9913
74.409424 86.697 159.9845
74.948626 86.661 159.9890
75.491734 86.627 160.0024
76.038779 86.596 160.0151
76.589787 86.567 160.0172
77.144788 86.538 160.0064
77.703811 86.509 159.9888
78.266885 86.477 159.9732
78.834039 86.444 159.9666
79.405303 86.410 159.9706
79.980706 86.378 159.9808
80.560280 86.347 159.9863
81.144053 86.318 159.9750
81.732056 86.289 159.9407
82.324320 86.260 159.8861
82.920876 86.228 159.8200
83.521755 86.195 159.7521
84.126988 86.160 159.6909
84.736607 86.123 159.6440
85.350643 86.086 159.6176
85.969129 86.048 159.6151
86.592097 86.009 159.6363
87.219579 85.969 159.6777
87.851608 85.929 159.7328
