* Measurement data measured by REW V5.31
* Source: EXCL: Microphone (USB Sound Device        ), MICROPHONE (Master Volume), L, volume: 0.390
* Format: 256k Log Swept Sine, 1 sweep at -4.0 dBFS with no timing reference
* Dated: Jul 27, 2024 1:06:02 AM
* REW Settings:
*  C-weighting compensation: Off
*  Target level: 75.0 dB
* Note: ZS12 Pro X 0000 L
* Measurement: L KZ ZS12 Pro X 0000
* Smoothing: 1/12 octave
* Frequency Step: 96 ppo
* Start Frequency: 0.36621094 Hz
*
* Freq(Hz) SPL(dB) Phase(degrees)
0.366211 83.156 162.9816
0.368865 83.152 162.9646
0.371538 83.147 162.9390
0.374230 83.139 162.9069
0.376942 83.131 162.8699
0.379673 83.123 162.8294
0.382424 83.114 162.7860
0.385196 83.104 162.7403
0.387987 83.095 162.6925
0.390798 83.085 162.6429
0.393630 83.076 162.5914
0.396483 83.066 162.5382
0.399356 83.056 162.4832
0.402250 83.046 162.4264
0.405165 83.036 162.3678
0.408101 83.026 162.3074
0.411058 83.016 162.2452
0.414037 83.006 162.1812
0.417037 82.995 162.1154
0.420059 82.985 162.0477
0.423103 82.975 161.9781
0.426169 82.964 161.9066
0.429257 82.953 161.8333
0.432368 82.943 161.7580
0.435501 82.932 161.6809
0.438656 82.921 161.6017
0.441835 82.910 161.5207
0.445037 82.899 161.4377
0.448262 82.888 161.3527
0.451510 82.877 161.2657
0.454782 82.866 161.1767
0.458077 82.855 161.0858
0.461397 82.843 160.9928
0.464740 82.832 160.8978
0.468108 82.820 160.8008
0.471500 82.809 160.7018
0.474917 82.797 160.6008
0.478358 82.785 160.4977
0.481825 82.773 160.3925
0.485316 82.761 160.2854
0.488833 82.749 160.1761
0.492375 82.737 160.0649
0.495943 82.725 159.9515
0.499537 82.712 159.8362
0.503157 82.700 159.7188
0.506803 82.688 159.5993
0.510475 82.675 159.4778
0.514175 82.662 159.3543
0.517900 82.650 159.2288
0.521653 82.637 159.1013
0.525434 82.624 158.9718
0.529241 82.611 158.8403
0.533076 82.597 158.7068
0.536939 82.584 158.5714
0.540830 82.571 158.4340
0.544749 82.557 158.2947
0.548696 82.544 158.1535
0.552673 82.530 158.0105
0.556677 82.517 157.8656
0.560711 82.503 157.7189
0.564774 82.489 157.5704
0.568867 82.475 157.4203
0.572989 82.461 157.2683
0.577141 82.446 157.1148
0.581324 82.432 156.9595
0.585536 82.418 156.8028
0.589779 82.403 156.6445
0.594053 82.388 156.4847
0.598358 82.374 156.3235
0.602694 82.359 156.1609
0.607061 82.344 155.9971
0.611460 82.329 155.8320
0.615891 82.314 155.6657
0.620354 82.298 155.4984
0.624849 82.283 155.3301
0.629377 82.267 155.1608
0.633938 82.252 154.9907
0.638532 82.236 154.8199
0.643159 82.220 154.6485
0.647819 82.204 154.4765
0.652514 82.188 154.3041
0.657242 82.172 154.1313
0.662005 82.156 153.9584
0.666802 82.139 153.7855
0.671634 82.123 153.6126
0.676501 82.106 153.4399
0.681403 82.089 153.2676
0.686341 82.072 153.0957
0.691314 82.055 152.9246
0.696324 82.038 152.7542
0.701370 82.020 152.5848
0.706452 82.003 152.4165
0.711571 81.985 152.2493
0.716728 81.966 152.0832
0.721921 81.947 151.9182
0.727153 81.928 151.7540
0.732422 81.907 151.5900
0.737729 81.885 151.4258
0.743075 81.862 151.2607
0.748460 81.838 151.0942
0.753883 81.813 150.9258
0.759346 81.787 150.7553
0.764849 81.761 150.5826
0.770391 81.735 150.4074
0.775974 81.707 150.2298
0.781597 81.680 150.0498
0.787261 81.652 149.8673
0.792966 81.623 149.6823
0.798712 81.594 149.4949
0.804500 81.565 149.3050
0.810329 81.535 149.1128
0.816201 81.504 148.9182
0.822116 81.473 148.7212
0.828073 81.442 148.5220
0.834074 81.410 148.3204
0.840118 81.378 148.1167
0.846206 81.345 147.9108
0.852338 81.312 147.7028
0.858514 81.278 147.4928
0.864735 81.244 147.2808
0.871001 81.210 147.0669
0.877313 81.175 146.8512
0.883670 81.139 146.6338
0.890074 81.103 146.4147
0.896524 81.066 146.1942
0.903020 81.029 145.9723
0.909564 80.992 145.7492
0.916155 80.954 145.5249
0.922794 80.916 145.2997
0.929481 80.877 145.0737
0.936216 80.837 144.8471
0.943000 80.797 144.6200
0.949834 80.757 144.3927
0.956717 80.716 144.1653
0.963649 80.675 143.9382
0.970632 80.633 143.7115
0.977666 80.591 143.4855
0.984750 80.548 143.2604
0.991886 80.505 143.0367
0.999074 80.461 142.8145
1.006314 80.417 142.5943
1.013606 80.372 142.3763
1.020951 80.327 142.1610
1.028349 80.282 141.9488
1.035801 80.236 141.7400
1.043307 80.190 141.5351
1.050867 80.143 141.3345
1.058482 80.095 141.1389
1.066152 80.048 140.9485
1.073878 79.999 140.7639
1.081660 79.951 140.5856
1.089498 79.901 140.4140
1.097393 79.851 140.2494
1.105345 79.800 140.0920
1.113355 79.749 139.9420
1.121423 79.696 139.7995
1.129549 79.642 139.6646
1.137734 79.588 139.5372
1.145979 79.532 139.4175
1.154283 79.475 139.3054
1.162647 79.417 139.2010
1.171072 79.358 139.1042
1.179558 79.298 139.0151
1.188106 79.237 138.9338
1.196715 79.175 138.8601
1.205387 79.112 138.7942
1.214122 79.049 138.7359
1.222920 78.985 138.6854
1.231782 78.920 138.6425
1.240708 78.854 138.6073
1.249699 78.788 138.5797
1.258754 78.721 138.5596
1.267876 78.654 138.5471
1.277063 78.586 138.5419
1.286318 78.518 138.5440
1.295639 78.450 138.5533
1.305027 78.382 138.5697
1.314484 78.313 138.5929
1.324009 78.245 138.6228
1.333604 78.176 138.6593
1.343268 78.108 138.7019
1.353002 78.040 138.7505
1.362806 77.972 138.8049
1.372681 77.905 138.8645
1.382628 77.838 138.9291
1.392647 77.772 138.9983
1.402739 77.707 139.0717
1.412904 77.642 139.1491
1.423142 77.579 139.2301
1.433455 77.516 139.3147
1.443843 77.454 139.4032
1.454305 77.393 139.4964
1.464844 77.333 139.5956
1.475459 77.274 139.7024
1.486150 77.215 139.8187
1.496920 77.156 139.9461
1.507767 77.097 140.0857
1.518693 77.038 140.2383
1.529698 76.979 140.4042
1.540783 76.920 140.5838
1.551948 76.861 140.7768
1.563194 76.803 140.9833
1.574521 76.744 141.2030
1.585931 76.687 141.4356
1.597423 76.630 141.6806
1.608999 76.574 141.9377
1.620658 76.518 142.2064
1.632402 76.464 142.4860
1.644232 76.410 142.7759
1.656146 76.359 143.0755
1.668147 76.308 143.3838
1.680235 76.259 143.7001
1.692411 76.212 144.0234
1.704675 76.167 144.3527
1.717028 76.125 144.6869
1.729470 76.084 145.0248
1.742003 76.047 145.3653
1.754626 76.012 145.7071
1.767341 75.980 146.0492
1.780147 75.951 146.3906
1.793047 75.925 146.7305
1.806040 75.904 147.0689
1.819128 75.886 147.4062
1.832310 75.872 147.7435
1.845587 75.863 148.0826
1.858961 75.858 148.4250
1.872432 75.857 148.7719
1.886001 75.860 149.1234
1.899667 75.868 149.4791
1.913433 75.879 149.8382
1.927299 75.895 150.1993
1.941265 75.914 150.5608
1.955332 75.937 150.9210
1.969501 75.964 151.2780
1.983773 75.993 151.6301
1.998148 76.026 151.9753
2.012627 76.062 152.3116
2.027212 76.100 152.6373
2.041902 76.140 152.9503
2.056698 76.183 153.2487
2.071602 76.227 153.5308
2.086614 76.274 153.7946
2.101734 76.321 154.0383
2.116964 76.370 154.2604
2.132304 76.419 154.4593
2.147756 76.470 154.6337
2.163320 76.521 154.7827
2.178996 76.573 154.9058
2.194786 76.626 155.0033
2.210690 76.681 155.0758
2.226710 76.738 155.1244
2.242845 76.796 155.1501
2.259098 76.858 155.1539
2.275468 76.922 155.1364
2.291957 76.988 155.0982
2.308566 77.057 155.0396
2.325295 77.128 154.9612
2.342145 77.201 154.8631
2.359117 77.275 154.7456
2.376212 77.351 154.6091
2.393431 77.427 154.4537
2.410775 77.504 154.2797
2.428244 77.582 154.0872
2.445840 77.660 153.8764
2.463564 77.737 153.6473
2.481416 77.813 153.3998
2.499397 77.889 153.1337
2.517509 77.964 152.8484
2.535752 78.037 152.5434
2.554127 78.109 152.2175
2.572635 78.179 151.8697
2.591277 78.249 151.4991
2.610055 78.318 151.1051
2.628968 78.386 150.6880
2.648019 78.454 150.2486
2.667208 78.521 149.7881
2.686535 78.588 149.3081
2.706003 78.654 148.8103
2.725612 78.720 148.2965
2.745363 78.785 147.7686
2.765257 78.849 147.2284
2.785295 78.913 146.6777
2.805478 78.976 146.1181
2.825808 79.038 145.5511
2.846285 79.099 144.9778
2.866910 79.159 144.3992
2.887685 79.218 143.8153
2.908611 79.276 143.2255
2.929688 79.332 142.6285
2.950917 79.388 142.0224
2.972301 79.442 141.4054
2.993839 79.494 140.7763
3.015534 79.545 140.1349
3.037386 79.596 139.4815
3.059396 79.644 138.8173
3.081565 79.692 138.1437
3.103896 79.739 137.4625
3.126388 79.785 136.7755
3.149043 79.829 136.0846
3.171862 79.873 135.3918
3.194847 79.917 134.6988
3.217998 79.959 134.0071
3.241317 80.001 133.3177
3.264805 80.042 132.6308
3.288463 80.083 131.9460
3.312293 80.123 131.2618
3.336295 80.162 130.5767
3.360471 80.199 129.8895
3.384822 80.236 129.1995
3.409350 80.272 128.5070
3.434056 80.307 127.8127
3.458940 80.341 127.1178
3.484005 80.375 126.4242
3.509252 80.409 125.7335
3.534681 80.442 125.0478
3.560295 80.475 124.3690
3.586094 80.509 123.6990
3.612081 80.542 123.0393
3.638255 80.576 122.3910
3.664620 80.611 121.7543
3.691175 80.645 121.1289
3.717923 80.679 120.5141
3.744864 80.714 119.9090
3.772001 80.749 119.3130
3.799335 80.784 118.7255
3.826866 80.819 118.1462
3.854597 80.855 117.5749
3.882529 80.891 117.0117
3.910664 80.929 116.4568
3.939002 80.968 115.9107
3.967546 81.009 115.3738
3.996296 81.051 114.8468
4.025255 81.094 114.3304
4.054423 81.139 113.8252
4.083804 81.186 113.3316
4.113396 81.235 112.8493
4.143204 81.285 112.3778
4.173227 81.336 111.9159
4.203468 81.390 111.4626
4.233928 81.445 111.0165
4.264609 81.501 110.5763
4.295512 81.560 110.1410
4.326639 81.621 109.7098
4.357992 81.684 109.2824
4.389572 81.749 108.8590
4.421380 81.817 108.4401
4.453419 81.887 108.0263
4.485691 81.959 107.6175
4.518196 82.033 107.2134
4.550936 82.110 106.8127
4.583914 82.188 106.4141
4.617131 82.268 106.0158
4.650589 82.350 105.6161
4.684289 82.433 105.2137
4.718233 82.517 104.8075
4.752424 82.603 104.3970
4.786862 82.690 103.9822
4.821549 82.779 103.5635
4.856488 82.869 103.1414
4.891680 82.960 102.7161
4.927127 83.052 102.2878
4.962831 83.145 101.8561
4.998794 83.238 101.4207
5.035017 83.332 100.9811
5.071503 83.426 100.5368
5.108253 83.519 100.0873
5.145270 83.613 99.6323
5.182555 83.706 99.1719
5.220110 83.798 98.7066
5.257937 83.891 98.2371
5.296038 83.983 97.7645
5.334415 84.074 97.2898
5.373071 84.165 96.8141
5.412006 84.255 96.3380
5.451224 84.343 95.8620
5.490725 84.431 95.3861
5.530514 84.517 94.9103
5.570590 84.602 94.4346
5.610957 84.685 93.9594
5.651616 84.767 93.4857
5.692570 84.848 93.0148
5.733821 84.928 92.5480
5.775370 85.006 92.0867
5.817221 85.083 91.6318
5.859375 85.159 91.1838
5.901834 85.233 90.7427
5.944602 85.306 90.3085
5.987679 85.377 89.8813
6.031068 85.448 89.4617
6.074771 85.517 89.0502
6.118792 85.586 88.6476
6.163131 85.654 88.2547
6.207792 85.721 87.8722
6.252776 85.787 87.5001
6.298086 85.853 87.1384
6.343725 85.918 86.7868
6.389694 85.983 86.4447
6.435996 86.048 86.1118
6.482634 86.112 85.7875
6.529610 86.177 85.4716
6.576926 86.241 85.1639
6.624585 86.306 84.8642
6.672590 86.370 84.5720
6.720942 86.435 84.2869
6.769645 86.501 84.0077
6.818700 86.566 83.7334
6.868111 86.632 83.4629
6.917881 86.698 83.1953
6.968010 86.764 82.9297
7.018504 86.830 82.6659
7.069362 86.897 82.4032
7.120590 86.964 82.1410
7.172189 87.031 81.8786
7.224161 87.098 81.6148
7.276511 87.165 81.3490
7.329239 87.232 81.0804
7.382350 87.298 80.8088
7.435845 87.364 80.5339
7.489729 87.429 80.2557
7.544002 87.494 79.9742
7.598669 87.558 79.6893
7.653732 87.621 79.4009
7.709194 87.683 79.1090
7.765058 87.744 78.8137
7.821327 87.804 78.5152
7.878004 87.862 78.2140
7.935091 87.920 77.9107
7.992592 87.976 77.6058
8.050510 88.030 77.2998
8.108847 88.083 76.9929
8.167607 88.135 76.6856
8.226793 88.185 76.3782
8.286408 88.234 76.0713
8.346454 88.282 75.7654
8.406936 88.329 75.4609
8.467856 88.374 75.1582
8.529218 88.418 74.8575
8.591024 88.461 74.5587
8.653278 88.504 74.2619
8.715983 88.545 73.9671
8.779143 88.586 73.6744
8.842760 88.626 73.3836
8.906839 88.665 73.0944
8.971381 88.704 72.8066
9.036392 88.743 72.5196
9.101873 88.781 72.2329
9.167829 88.819 71.9461
9.234263 88.856 71.6588
9.301178 88.894 71.3704
9.368578 88.931 71.0805
9.436467 88.968 70.7885
9.504847 89.004 70.4937
9.573723 89.040 70.1958
9.643099 89.076 69.8945
9.712976 89.110 69.5894
9.783361 89.142 69.2803
9.854255 89.172 68.9670
9.925663 89.200 68.6492
9.997588 89.225 68.3270
10.070035 89.248 68.0004
10.143007 89.268 67.6694
10.216507 89.286 67.3344
10.290540 89.302 66.9953
10.365109 89.316 66.6525
10.440219 89.329 66.3062
10.515873 89.341 65.9566
10.592076 89.352 65.6041
10.668830 89.363 65.2490
10.746141 89.373 64.8914
10.824012 89.383 64.5317
10.902447 89.393 64.1701
10.981451 89.402 63.8069
11.061027 89.411 63.4421
11.141180 89.420 63.0759
11.221913 89.429 62.7086
11.303232 89.438 62.3401
11.385140 89.447 61.9706
11.467641 89.457 61.6002
11.550741 89.466 61.2290
11.634442 89.476 60.8570
11.718750 89.486 60.4844
11.803669 89.497 60.1112
11.889203 89.509 59.7376
11.975357 89.521 59.3637
12.062136 89.535 58.9895
12.149543 89.548 58.6153
12.237583 89.563 58.2412
12.326262 89.578 57.8672
12.415583 89.593 57.4936
12.505552 89.609 57.1206
12.596172 89.625 56.7481
12.687449 89.641 56.3764
12.779387 89.658 56.0055
12.871992 89.675 55.6355
12.965268 89.693 55.2666
13.059220 89.711 54.8989
13.153852 89.729 54.5325
13.249170 89.748 54.1675
13.345179 89.767 53.8040
13.441884 89.787 53.4423
13.539289 89.807 53.0827
13.637401 89.828 52.7252
13.736223 89.848 52.3704
13.835761 89.869 52.0183
13.936021 89.890 51.6695
14.037007 89.910 51.3242
14.138725 89.930 50.9829
14.241180 89.950 50.6457
14.344377 89.970 50.3130
14.448323 89.989 49.9851
14.553021 90.008 49.6621
14.658478 90.027 49.3440
14.764700 90.046 49.0309
14.871691 90.065 48.7227
14.979457 90.083 48.4192
15.088005 90.102 48.1202
15.197339 90.120 47.8254
15.307465 90.138 47.5344
15.418389 90.156 47.2470
15.530117 90.174 46.9627
15.642655 90.191 46.6812
15.756008 90.208 46.4022
15.870182 90.224 46.1254
15.985184 90.240 45.8508
16.101019 90.255 45.5780
16.217694 90.269 45.3071
16.335214 90.283 45.0379
16.453586 90.296 44.7704
16.572815 90.308 44.5046
16.692909 90.320 44.2403
16.813872 90.331 43.9775
16.935713 90.342 43.7161
17.058436 90.353 43.4558
17.182048 90.363 43.1965
17.306556 90.373 42.9378
17.431967 90.382 42.6795
17.558286 90.391 42.4213
17.685521 90.399 42.1628
17.813677 90.407 41.9038
17.942762 90.414 41.6440
18.072783 90.421 41.3831
18.203746 90.427 41.1211
18.335658 90.433 40.8577
18.468526 90.439 40.5929
18.602356 90.444 40.3265
18.737156 90.450 40.0585
18.872934 90.455 39.7887
19.009695 90.461 39.5172
19.147447 90.466 39.2438
19.286197 90.472 38.9686
19.425953 90.478 38.6914
19.566721 90.484 38.4123
19.708510 90.490 38.1313
19.851326 90.496 37.8486
19.995177 90.502 37.5642
20.140070 90.509 37.2785
20.286013 90.515 36.9916
20.433014 90.522 36.7040
20.581080 90.529 36.4160
20.730219 90.536 36.1278
20.880439 90.543 35.8400
21.031747 90.551 35.5528
21.184152 90.559 35.2665
21.337661 90.568 34.9816
21.492282 90.578 34.6982
21.648024 90.587 34.4168
21.804895 90.597 34.1376
21.962902 90.608 33.8611
22.122054 90.618 33.5875
22.282360 90.629 33.3172
22.443827 90.640 33.0506
22.606464 90.650 32.7880
22.770280 90.661 32.5297
22.935283 90.672 32.2757
23.101481 90.683 32.0262
23.268884 90.693 31.7810
23.437500 90.704 31.5401
23.607338 90.714 31.3030
23.778406 90.724 31.0695
23.950714 90.734 30.8393
24.124271 90.743 30.6121
24.299086 90.752 30.3876
24.475167 90.760 30.1657
24.652524 90.767 29.9462
24.831166 90.774 29.7291
25.011103 90.780 29.5144
25.192344 90.785 29.3020
25.374898 90.790 29.0918
25.558775 90.794 28.8838
25.743984 90.798 28.6778
25.930536 90.801 28.4735
26.118439 90.804 28.2705
26.307704 90.806 28.0685
26.498341 90.808 27.8669
26.690359 90.809 27.6652
26.883768 90.811 27.4629
27.078579 90.812 27.2597
27.274801 90.813 27.0553
27.472446 90.814 26.8492
27.671522 90.814 26.6415
27.872042 90.815 26.4322
28.074014 90.815 26.2212
28.277450 90.815 26.0088
28.482360 90.816 25.7953
28.688755 90.816 25.5808
28.896645 90.816 25.3657
29.106042 90.817 25.1501
29.316957 90.818 24.9345
29.529400 90.819 24.7190
29.743382 90.820 24.5039
29.958915 90.822 24.2895
30.176009 90.824 24.0761
30.394677 90.827 23.8640
30.614929 90.830 23.6534
30.836778 90.833 23.4446
31.060234 90.836 23.2377
31.285309 90.840 23.0330
31.512015 90.844 22.8306
31.740364 90.847 22.6306
31.970368 90.851 22.4331
32.202039 90.854 22.2383
32.435388 90.858 22.0463
32.670428 90.861 21.8569
32.907171 90.864 21.6701
33.145630 90.866 21.4856
33.385817 90.869 21.3032
33.627745 90.871 21.1224
33.871425 90.872 20.9430
34.116871 90.874 20.7647
34.364096 90.875 20.5873
34.613113 90.875 20.4108
34.863934 90.875 20.2351
35.116572 90.875 20.0600
35.371041 90.874 19.8854
35.627354 90.873 19.7112
35.885525 90.871 19.5372
36.145566 90.869 19.3633
36.407492 90.867 19.1897
36.671316 90.865 19.0166
36.937051 90.863 18.8442
37.204712 90.861 18.6728
37.474313 90.859 18.5023
37.745867 90.857 18.3327
38.019389 90.856 18.1637
38.294893 90.854 17.9948
38.572394 90.853 17.8260
38.851905 90.852 17.6575
39.133442 90.851 17.4898
39.417019 90.850 17.3237
39.702651 90.849 17.1601
39.990353 90.848 16.9995
40.280140 90.848 16.8422
40.572026 90.847 16.6876
40.866028 90.846 16.5350
41.162160 90.846 16.3834
41.460438 90.846 16.2323
41.760877 90.845 16.0815
42.063494 90.844 15.9312
42.368303 90.843 15.7822
42.675322 90.841 15.6350
42.984565 90.839 15.4897
43.296048 90.837 15.3460
43.609789 90.834 15.2033
43.925804 90.832 15.0607
44.244108 90.829 14.9179
44.564719 90.826 14.7748
44.887654 90.823 14.6318
45.212928 90.820 14.4895
45.540560 90.816 14.3484
45.870565 90.813 14.2087
46.202962 90.809 14.0701
46.537768 90.805 13.9326
46.875000 90.802 13.7958
47.214676 90.798 13.6601
47.556813 90.795 13.5259
47.901429 90.792 13.3938
48.248542 90.788 13.2642
48.598171 90.785 13.1373
48.950334 90.782 13.0127
49.305048 90.779 12.8901
49.662333 90.777 12.7686
50.022206 90.774 12.6475
50.384688 90.772 12.5263
50.749796 90.770 12.4048
51.117550 90.767 12.2830
51.487969 90.765 12.1611
51.861072 90.762 12.0398
52.236879 90.759 11.9195
52.615409 90.756 11.8006
52.996681 90.753 11.6833
53.380717 90.750 11.5676
53.767536 90.748 11.4536
54.157158 90.745 11.3415
54.549603 90.743 11.2311
54.944892 90.742 11.1221
55.343045 90.741 11.0139
55.744084 90.740 10.9055
56.148028 90.740 10.7958
56.554900 90.740 10.6839
56.964720 90.741 10.5690
57.377510 90.741 10.4508
57.793291 90.740 10.3295
58.212085 90.740 10.2057
58.633914 90.738 10.0803
59.058799 90.737 9.9542
59.486764 90.734 9.8277
59.917829 90.731 9.7011
60.352019 90.728 9.5747
60.789354 90.724 9.4488
61.229859 90.720 9.3243
61.673556 90.715 9.2020
62.120468 90.710 9.0821
62.570618 90.705 8.9645
63.024031 90.700 8.8487
63.480729 90.696 8.7346
63.940736 90.691 8.6222
64.404077 90.686 8.5116
64.870776 90.681 8.4032
65.340856 90.676 8.2965
65.814343 90.671 8.1913
66.291261 90.666 8.0872
66.771635 90.660 7.9841
67.255489 90.655 7.8821
67.742850 90.650 7.7809
68.233743 90.644 7.6805
68.728193 90.639 7.5807
69.226226 90.634 7.4816
69.727867 90.628 7.3833
70.233144 90.623 7.2861
70.742083 90.617 7.1898
71.254709 90.612 7.0943
71.771050 90.607 6.9993
72.291132 90.602 6.9045
72.814984 90.598 6.8099
73.342631 90.593 6.7157
73.874102 90.588 6.6225
74.409424 90.583 6.5308
74.948626 90.578 6.4405
75.491734 90.574 6.3511
76.038779 90.570 6.2615
76.589787 90.567 6.1705
77.144788 90.563 6.0773
77.703811 90.561 5.9813
78.266885 90.558 5.8822
78.834039 90.556 5.7796
79.405303 90.553 5.6728
79.980706 90.551 5.5609
80.560280 90.549 5.4426
81.144053 90.546 5.3174
81.732056 90.542 5.1853
82.324320 90.537 5.0477
82.920876 90.530 4.9071
83.521755 90.522 4.7667
84.126988 90.512 4.6300
84.736607 90.500 4.4998
85.350643 90.488 4.3782
85.969129 90.475 4.2658
86.592097 90.462 4.1625
87.219579 90.448 4.0677
87.851608 90.436 3.9804
88.488217 90.423 3.8994
89.129439 90.411 3.8234
89.775308 90.400 3.7510
90.425856 90.389 3.6810
91.081119 90.378 3.6122
91.741131 90.368 3.5436
92.405925 90.358 3.4747
93.075536 90.349 3.4050
93.750000 90.340 3.3345
94.429351 90.331 3.2631
95.113625 90.322 3.1908
95.802858 90.312 3.1184
96.497085 90.303 3.0468
97.196342 90.293 2.9773
97.900667 90.283 2.9106
98.610096 90.273 2.8468
99.324665 90.263 2.7853
100.044413 90.253 2.7259
100.769376 90.243 2.6690
101.499592 90.233 2.6147
102.235100 90.224 2.5626
102.975938 90.215 2.5113
103.722144 90.207 2.4594
104.473757 90.200 2.4056
105.230817 90.193 2.3492
105.993363 90.187 2.2901
