* Measurement data measured by REW V5.31
* Source: EXCL: Microphone (USB Sound Device        ), MICROPHONE (Master Volume), L, volume: 0.560
* Format: 256k Log Swept Sine, 1 sweep at 0.0 dBFS with no timing reference
* Dated: Apr 18, 2024 12:14:23 PM
* REW Settings:
*  C-weighting compensation: Off
*  Target level: 75.0 dB
* Note: KZ ZS10 Pro 2 1111 L
* Measurement: L KZ ZS10 Pro 2 1111
* Smoothing: 1/12 octave
* Frequency Step: 96 ppo
* Start Frequency: 0.36621094 Hz
*
* Freq(Hz) SPL(dB) Phase(degrees)
0.366211 76.923 -170.1057
0.368865 76.925 -170.1091
0.371538 76.927 -170.1142
0.374230 76.929 -170.1203
0.376942 76.932 -170.1273
0.379673 76.935 -170.1348
0.382424 76.939 -170.1427
0.385196 76.942 -170.1507
0.387987 76.946 -170.1589
0.390798 76.949 -170.1672
0.393630 76.953 -170.1756
0.396483 76.956 -170.1841
0.399356 76.960 -170.1927
0.402250 76.963 -170.2013
0.405165 76.967 -170.2101
0.408101 76.970 -170.2189
0.411058 76.974 -170.2279
0.414037 76.978 -170.2369
0.417037 76.982 -170.2461
0.420059 76.985 -170.2554
0.423103 76.989 -170.2647
0.426169 76.993 -170.2742
0.429257 76.997 -170.2839
0.432368 77.001 -170.2937
0.435501 77.004 -170.3036
0.438656 77.008 -170.3136
0.441835 77.012 -170.3238
0.445037 77.016 -170.3342
0.448262 77.020 -170.3447
0.451510 77.024 -170.3555
0.454782 77.028 -170.3663
0.458077 77.032 -170.3774
0.461397 77.036 -170.3887
0.464740 77.041 -170.4002
0.468108 77.045 -170.4118
0.471500 77.049 -170.4237
0.474917 77.053 -170.4359
0.478358 77.058 -170.4482
0.481825 77.062 -170.4609
0.485316 77.066 -170.4737
0.488833 77.071 -170.4869
0.492375 77.075 -170.5003
0.495943 77.079 -170.5140
0.499537 77.084 -170.5280
0.503157 77.088 -170.5423
0.506803 77.093 -170.5570
0.510475 77.097 -170.5720
0.514175 77.102 -170.5873
0.517900 77.107 -170.6030
0.521653 77.111 -170.6190
0.525434 77.116 -170.6355
0.529241 77.121 -170.6523
0.533076 77.125 -170.6696
0.536939 77.130 -170.6873
0.540830 77.135 -170.7055
0.544749 77.140 -170.7241
0.548696 77.145 -170.7432
0.552673 77.150 -170.7628
0.556677 77.155 -170.7830
0.560711 77.160 -170.8036
0.564774 77.165 -170.8249
0.568867 77.170 -170.8467
0.572989 77.175 -170.8691
0.577141 77.180 -170.8921
0.581324 77.185 -170.9158
0.585536 77.190 -170.9401
0.589779 77.196 -170.9651
0.594053 77.201 -170.9909
0.598358 77.206 -171.0174
0.602694 77.212 -171.0446
0.607061 77.217 -171.0727
0.611460 77.223 -171.1016
0.615891 77.228 -171.1313
0.620354 77.234 -171.1619
0.624849 77.239 -171.1935
0.629377 77.245 -171.2260
0.633938 77.250 -171.2595
0.638532 77.256 -171.2940
0.643159 77.262 -171.3296
0.647819 77.268 -171.3663
0.652514 77.273 -171.4042
0.657242 77.279 -171.4432
0.662005 77.285 -171.4835
0.666802 77.291 -171.5250
0.671634 77.297 -171.5679
0.676501 77.303 -171.6122
0.681403 77.309 -171.6578
0.686341 77.315 -171.7050
0.691314 77.321 -171.7538
0.696324 77.327 -171.8041
0.701370 77.333 -171.8562
0.706452 77.339 -171.9100
0.711571 77.344 -171.9658
0.716728 77.349 -172.0236
0.721921 77.353 -172.0835
0.727153 77.355 -172.1459
0.732422 77.355 -172.2110
0.737729 77.353 -172.2791
0.743075 77.349 -172.3505
0.748460 77.343 -172.4255
0.753883 77.337 -172.5041
0.759346 77.330 -172.5865
0.764849 77.322 -172.6728
0.770391 77.315 -172.7630
0.775974 77.307 -172.8570
0.781597 77.300 -172.9549
0.787261 77.292 -173.0567
0.792966 77.285 -173.1622
0.798712 77.277 -173.2716
0.804500 77.269 -173.3846
0.810329 77.262 -173.5014
0.816201 77.253 -173.6219
0.822116 77.245 -173.7459
0.828073 77.236 -173.8735
0.834074 77.227 -174.0047
0.840118 77.217 -174.1392
0.846206 77.207 -174.2772
0.852338 77.196 -174.4184
0.858514 77.185 -174.5630
0.864735 77.172 -174.7107
0.871001 77.159 -174.8615
0.877313 77.145 -175.0153
0.883670 77.130 -175.1721
0.890074 77.114 -175.3316
0.896524 77.097 -175.4940
0.903020 77.078 -175.6590
0.909564 77.058 -175.8265
0.916155 77.036 -175.9965
0.922794 77.013 -176.1688
0.929481 76.989 -176.3433
0.936216 76.962 -176.5198
0.943000 76.934 -176.6983
0.949834 76.903 -176.8786
0.956717 76.871 -177.0605
0.963649 76.836 -177.2440
0.970632 76.798 -177.4287
0.977666 76.758 -177.6146
0.984750 76.716 -177.8015
0.991886 76.670 -177.9892
0.999074 76.622 -178.1775
1.006314 76.570 -178.3661
1.013606 76.515 -178.5549
1.020951 76.457 -178.7437
1.028349 76.395 -178.9322
1.035801 76.329 -179.1201
1.043307 76.259 -179.3073
1.050867 76.185 -179.4935
1.058482 76.106 -179.6787
1.066152 76.023 -179.8627
1.073878 75.934 179.9543
1.081660 75.840 179.7717
1.089498 75.739 179.5887
1.097393 75.632 179.4038
1.105345 75.516 179.2152
1.113355 75.392 179.0209
1.121423 75.258 178.8190
1.129549 75.115 178.6083
1.137734 74.961 178.3878
1.145979 74.798 178.1566
1.154283 74.625 177.9146
1.162647 74.442 177.6614
1.171072 74.251 177.3968
1.179558 74.051 177.1207
1.188106 73.842 176.8331
1.196715 73.626 176.5338
1.205387 73.402 176.2228
1.214122 73.172 175.9001
1.222920 72.936 175.5658
1.231782 72.695 175.2197
1.240708 72.449 174.8619
1.249699 72.198 174.4926
1.258754 71.944 174.1116
1.267876 71.688 173.7192
1.277063 71.430 173.3156
1.286318 71.170 172.9008
1.295639 70.911 172.4753
1.305027 70.652 172.0392
1.314484 70.395 171.5930
1.324009 70.141 171.1371
1.333604 69.891 170.6723
1.343268 69.645 170.1991
1.353002 69.406 169.7185
1.362806 69.174 169.2315
1.372681 68.951 168.7393
1.382628 68.737 168.2433
1.392647 68.535 167.7454
1.402739 68.345 167.2472
1.412904 68.169 166.7508
1.423142 68.009 166.2580
1.433455 67.866 165.7700
1.443843 67.739 165.2868
1.454305 67.631 164.8063
1.464844 67.541 164.3232
1.475459 67.468 163.8284
1.486150 67.412 163.3096
1.496920 67.371 162.7520
1.507767 67.344 162.1378
1.518693 67.332 161.4447
1.529698 67.334 160.6419
1.540783 67.349 159.6837
1.551948 67.377 158.4955
1.563194 67.418 156.9459
1.574521 67.472 154.7759
1.585931 67.537 151.3983
1.597423 67.615 145.1564
1.608999 67.704 129.3815
1.620658 67.805 71.1513
1.632402 67.917 15.1320
1.644232 68.040 -0.0329
1.656146 68.173 -6.1724
1.668147 68.316 -9.5739
1.680235 68.469 -11.8244
1.692411 68.631 -13.4923
1.704675 68.801 -14.8295
1.717028 68.981 -15.9641
1.729470 69.168 -16.9686
1.742003 69.363 -17.8868
1.754626 69.565 -18.7468
1.767341 69.774 -19.5674
1.780147 69.990 -20.3613
1.793047 70.214 -21.1373
1.806040 70.446 -21.9008
1.819128 70.689 -22.6548
1.832310 70.944 -23.4000
1.845587 71.213 -24.1359
1.858961 71.499 -24.8610
1.872432 71.802 -25.5740
1.886001 72.124 -26.2742
1.899667 72.462 -26.9614
1.913433 72.818 -27.6359
1.927299 73.188 -28.2981
1.941265 73.573 -28.9489
1.955332 73.969 -29.5891
1.969501 74.375 -30.2197
1.983773 74.789 -30.8417
1.998148 75.210 -31.4561
2.012627 75.634 -32.0639
2.027212 76.061 -32.6663
2.041902 76.487 -33.2641
2.056698 76.911 -33.8586
2.071602 77.330 -34.4507
2.086614 77.742 -35.0416
2.101734 78.144 -35.6323
2.116964 78.535 -36.2241
2.132304 78.913 -36.8182
2.147756 79.276 -37.4159
2.163320 79.622 -38.0185
2.178996 79.951 -38.6275
2.194786 80.264 -39.2442
2.210690 80.560 -39.8696
2.226710 80.842 -40.5043
2.242845 81.110 -41.1479
2.259098 81.366 -41.7998
2.275468 81.610 -42.4586
2.291957 81.844 -43.1227
2.308566 82.068 -43.7909
2.325295 82.282 -44.4615
2.342145 82.489 -45.1332
2.359117 82.688 -45.8049
2.376212 82.879 -46.4755
2.393431 83.065 -47.1439
2.410775 83.246 -47.8096
2.428244 83.422 -48.4718
2.445840 83.594 -49.1301
2.463564 83.764 -49.7845
2.481416 83.932 -50.4349
2.499397 84.099 -51.0817
2.517509 84.264 -51.7260
2.535752 84.429 -52.3689
2.554127 84.593 -53.0128
2.572635 84.755 -53.6599
2.591277 84.915 -54.3127
2.610055 85.072 -54.9728
2.628968 85.225 -55.6406
2.648019 85.373 -56.3160
2.667208 85.517 -56.9977
2.686535 85.657 -57.6843
2.706003 85.793 -58.3740
2.725612 85.925 -59.0650
2.745363 86.054 -59.7554
2.765257 86.179 -60.4433
2.785295 86.301 -61.1270
2.805478 86.420 -61.8050
2.825808 86.537 -62.4758
2.846285 86.651 -63.1386
2.866910 86.763 -63.7927
2.887685 86.873 -64.4385
2.908611 86.982 -65.0769
2.929688 87.088 -65.7100
2.950917 87.191 -66.3403
2.972301 87.291 -66.9703
2.993839 87.389 -67.6017
3.015534 87.483 -68.2352
3.037386 87.573 -68.8704
3.059396 87.661 -69.5065
3.081565 87.745 -70.1421
3.103896 87.827 -70.7754
3.126388 87.906 -71.4045
3.149043 87.983 -72.0275
3.171862 88.057 -72.6425
3.194847 88.129 -73.2476
3.217998 88.200 -73.8413
3.241317 88.268 -74.4227
3.264805 88.336 -74.9913
3.288463 88.401 -75.5477
3.312293 88.464 -76.0934
3.336295 88.525 -76.6301
3.360471 88.584 -77.1593
3.384822 88.640 -77.6820
3.409350 88.693 -78.1987
3.434056 88.745 -78.7092
3.458940 88.794 -79.2128
3.484005 88.841 -79.7085
3.509252 88.887 -80.1952
3.534681 88.932 -80.6716
3.560295 88.976 -81.1365
3.586094 89.019 -81.5883
3.612081 89.062 -82.0261
3.638255 89.104 -82.4491
3.664620 89.145 -82.8568
3.691175 89.186 -83.2495
3.717923 89.226 -83.6276
3.744864 89.265 -83.9921
3.772001 89.303 -84.3438
3.799335 89.340 -84.6835
3.826866 89.376 -85.0123
3.854597 89.413 -85.3309
3.882529 89.449 -85.6399
3.910664 89.486 -85.9398
3.939002 89.523 -86.2310
3.967546 89.562 -86.5134
3.996296 89.601 -86.7869
4.025255 89.642 -87.0507
4.054423 89.684 -87.3042
4.083804 89.727 -87.5471
4.113396 89.770 -87.7798
4.143204 89.815 -88.0030
4.173227 89.861 -88.2184
4.203468 89.908 -88.4280
4.233928 89.956 -88.6340
4.264609 90.005 -88.8387
4.295512 90.056 -89.0440
4.326639 90.108 -89.2516
4.357992 90.162 -89.4626
4.389572 90.217 -89.6772
4.421380 90.274 -89.8950
4.453419 90.332 -90.1156
4.485691 90.393 -90.3389
4.518196 90.455 -90.5652
4.550936 90.518 -90.7958
4.583914 90.582 -91.0321
4.617131 90.648 -91.2760
4.650589 90.714 -91.5292
4.684289 90.780 -91.7936
4.718233 90.847 -92.0703
4.752424 90.915 -92.3603
4.786862 90.982 -92.6637
4.821549 91.051 -92.9802
4.856488 91.119 -93.3094
4.891680 91.188 -93.6506
4.927127 91.256 -94.0035
4.962831 91.325 -94.3677
4.998794 91.393 -94.7430
5.035017 91.460 -95.1298
5.071503 91.526 -95.5280
5.108253 91.591 -95.9382
5.145270 91.655 -96.3608
5.182555 91.717 -96.7960
5.220110 91.778 -97.2434
5.257937 91.837 -97.7019
5.296038 91.895 -98.1700
5.334415 91.952 -98.6462
5.373071 92.007 -99.1287
5.412006 92.060 -99.6161
5.451224 92.111 -100.1074
5.490725 92.161 -100.6025
5.530514 92.208 -101.1014
5.570590 92.253 -101.6042
5.610957 92.296 -102.1105
5.651616 92.337 -102.6193
5.692570 92.377 -103.1288
5.733821 92.414 -103.6373
5.775370 92.450 -104.1429
5.817221 92.485 -104.6442
5.859375 92.518 -105.1404
5.901834 92.550 -105.6311
5.944602 92.580 -106.1165
5.987679 92.608 -106.5966
6.031068 92.636 -107.0712
6.074771 92.663 -107.5396
6.118792 92.689 -108.0011
6.163131 92.715 -108.4550
6.207792 92.740 -108.9005
6.252776 92.766 -109.3373
6.298086 92.791 -109.7654
6.343725 92.817 -110.1853
6.389694 92.842 -110.5978
6.435996 92.869 -111.0039
6.482634 92.895 -111.4044
6.529610 92.923 -111.8002
6.576926 92.952 -112.1917
6.624585 92.982 -112.5792
6.672590 93.013 -112.9632
6.720942 93.045 -113.3444
6.769645 93.079 -113.7241
6.818700 93.113 -114.1039
6.868111 93.149 -114.4854
6.917881 93.186 -114.8698
6.968010 93.224 -115.2583
7.018504 93.263 -115.6512
7.069362 93.303 -116.0492
7.120590 93.345 -116.4525
7.172189 93.387 -116.8618
7.224161 93.429 -117.2780
7.276511 93.472 -117.7017
7.329239 93.515 -118.1334
7.382350 93.558 -118.5734
7.435845 93.600 -119.0214
7.489729 93.643 -119.4770
7.544002 93.685 -119.9394
7.598669 93.727 -120.4078
7.653732 93.768 -120.8820
7.709194 93.808 -121.3611
7.765058 93.847 -121.8448
7.821327 93.885 -122.3324
7.878004 93.922 -122.8226
7.935091 93.958 -123.3140
7.992592 93.992 -123.8053
8.050510 94.026 -124.2952
8.108847 94.058 -124.7830
8.167607 94.090 -125.2681
8.226793 94.120 -125.7496
8.286408 94.149 -126.2266
8.346454 94.178 -126.6983
8.406936 94.206 -127.1637
8.467856 94.234 -127.6224
8.529218 94.262 -128.0741
8.591024 94.289 -128.5189
8.653278 94.316 -128.9569
8.715983 94.343 -129.3884
8.779143 94.371 -129.8136
8.842760 94.399 -130.2326
8.906839 94.427 -130.6461
8.971381 94.456 -131.0547
9.036392 94.485 -131.4595
9.101873 94.515 -131.8613
9.167829 94.546 -132.2609
9.234263 94.577 -132.6592
9.301178 94.608 -133.0566
9.368578 94.640 -133.4540
9.436467 94.673 -133.8521
9.504847 94.705 -134.2513
9.573723 94.737 -134.6524
9.643099 94.769 -135.0554
9.712976 94.799 -135.4603
9.783361 94.828 -135.8670
9.854255 94.854 -136.2754
9.925663 94.878 -136.6851
9.997588 94.898 -137.0959
10.070035 94.916 -137.5073
10.143007 94.931 -137.9186
10.216507 94.943 -138.3290
10.290540 94.953 -138.7379
10.365109 94.961 -139.1448
10.440219 94.967 -139.5493
10.515873 94.972 -139.9507
10.592076 94.975 -140.3486
10.668830 94.978 -140.7427
10.746141 94.979 -141.1328
10.824012 94.980 -141.5190
10.902447 94.981 -141.9014
10.981451 94.981 -142.2800
11.061027 94.981 -142.6553
11.141180 94.980 -143.0275
11.221913 94.980 -143.3971
11.303232 94.978 -143.7646
11.385140 94.977 -144.1305
11.467641 94.975 -144.4952
11.550741 94.973 -144.8591
11.634442 94.971 -145.2225
11.718750 94.968 -145.5854
11.803669 94.965 -145.9483
11.889203 94.963 -146.3110
11.975357 94.960 -146.6733
12.062136 94.956 -147.0352
12.149543 94.952 -147.3963
12.237583 94.948 -147.7565
12.326262 94.944 -148.1154
12.415583 94.939 -148.4729
12.505552 94.933 -148.8286
12.596172 94.927 -149.1826
12.687449 94.921 -149.5349
12.779387 94.914 -149.8857
12.871992 94.907 -150.2351
12.965268 94.900 -150.5836
13.059220 94.893 -150.9317
13.153852 94.886 -151.2801
13.249170 94.880 -151.6294
13.345179 94.874 -151.9802
13.441884 94.868 -152.3332
13.539289 94.862 -152.6890
13.637401 94.857 -153.0479
13.736223 94.852 -153.4104
13.835761 94.846 -153.7766
13.936021 94.840 -154.1463
14.037007 94.834 -154.5195
14.138725 94.828 -154.8957
14.241180 94.820 -155.2745
14.344377 94.813 -155.6552
14.448323 94.804 -156.0373
14.553021 94.795 -156.4202
14.658478 94.786 -156.8033
14.764700 94.776 -157.1861
14.871691 94.766 -157.5684
14.979457 94.757 -157.9499
15.088005 94.747 -158.3306
15.197339 94.737 -158.7107
15.307465 94.728 -159.0902
15.418389 94.719 -159.4696
15.530117 94.710 -159.8491
15.642655 94.702 -160.2289
15.756008 94.693 -160.6093
15.870182 94.685 -160.9904
15.985184 94.676 -161.3722
16.101019 94.668 -161.7543
16.217694 94.659 -162.1365
16.335214 94.650 -162.5182
16.453586 94.641 -162.8990
16.572815 94.632 -163.2782
16.692909 94.624 -163.6552
16.813872 94.615 -164.0295
16.935713 94.607 -164.4006
17.058436 94.599 -164.7683
17.182048 94.591 -165.1325
17.306556 94.584 -165.4932
17.431967 94.576 -165.8506
17.558286 94.570 -166.2050
17.685521 94.563 -166.5566
17.813677 94.556 -166.9060
17.942762 94.550 -167.2534
18.072783 94.543 -167.5989
18.203746 94.536 -167.9429
18.335658 94.530 -168.2853
18.468526 94.523 -168.6260
18.602356 94.516 -168.9651
18.737156 94.508 -169.3021
18.872934 94.501 -169.6371
19.009695 94.493 -169.9697
19.147447 94.485 -170.3000
19.286197 94.476 -170.6277
19.425953 94.468 -170.9528
19.566721 94.458 -171.2754
19.708510 94.449 -171.5955
19.851326 94.438 -171.9130
19.995177 94.427 -172.2280
20.140070 94.416 -172.5406
20.286013 94.404 -172.8507
20.433014 94.391 -173.1584
20.581080 94.378 -173.4639
20.730219 94.364 -173.7672
20.880439 94.350 -174.0687
21.031747 94.336 -174.3686
21.184152 94.321 -174.6675
21.337661 94.307 -174.9658
21.492282 94.293 -175.2642
21.648024 94.278 -175.5632
21.804895 94.264 -175.8632
21.962902 94.249 -176.1644
22.122054 94.233 -176.4672
22.282360 94.218 -176.7714
22.443827 94.202 -177.0769
22.606464 94.185 -177.3834
22.770280 94.168 -177.6905
22.935283 94.151 -177.9980
23.101481 94.133 -178.3057
23.268884 94.116 -178.6133
23.437500 94.098 -178.9209
23.607338 94.079 -179.2285
23.778406 94.061 -179.5361
23.950714 94.043 -179.8440
24.124271 94.024 179.8480
24.299086 94.005 179.5398
24.475167 93.987 179.2316
24.652524 93.968 178.9236
24.831166 93.949 178.6161
25.011103 93.930 178.3097
25.192344 93.912 178.0045
25.374898 93.893 177.7010
25.558775 93.874 177.3996
25.743984 93.855 177.1005
25.930536 93.836 176.8040
26.118439 93.818 176.5103
26.307704 93.799 176.2195
26.498341 93.780 175.9319
26.690359 93.761 175.6475
26.883768 93.742 175.3663
27.078579 93.723 175.0884
27.274801 93.703 174.8137
27.472446 93.684 174.5421
27.671522 93.664 174.2734
27.872042 93.644 174.0075
28.074014 93.624 173.7444
28.277450 93.603 173.4841
28.482360 93.582 173.2262
28.688755 93.560 172.9707
28.896645 93.538 172.7172
29.106042 93.516 172.4655
29.316957 93.493 172.2149
29.529400 93.470 171.9652
29.743382 93.447 171.7161
29.958915 93.423 171.4672
30.176009 93.399 171.2188
30.394677 93.375 170.9707
30.614929 93.350 170.7232
30.836778 93.325 170.4763
31.060234 93.300 170.2300
31.285309 93.274 169.9839
31.512015 93.249 169.7375
31.740364 93.223 169.4905
31.970368 93.198 169.2423
32.202039 93.172 168.9930
32.435388 93.146 168.7428
32.670428 93.119 168.4922
32.907171 93.093 168.2419
33.145630 93.066 167.9927
33.385817 93.039 167.7449
33.627745 93.012 167.4991
33.871425 92.986 167.2551
34.116871 92.959 167.0129
34.364096 92.933 166.7724
34.613113 92.906 166.5338
34.863934 92.880 166.2972
35.116572 92.854 166.0634
35.371041 92.828 165.8325
35.627354 92.802 165.6047
35.885525 92.776 165.3795
36.145566 92.750 165.1559
36.407492 92.724 164.9326
36.671316 92.699 164.7084
36.937051 92.673 164.4824
37.204712 92.647 164.2550
37.474313 92.620 164.0273
37.745867 92.592 163.8015
38.019389 92.562 163.5798
38.294893 92.532 163.3644
38.572394 92.502 163.1558
38.851905 92.471 162.9534
39.133442 92.441 162.7554
39.417019 92.412 162.5591
39.702651 92.382 162.3621
39.990353 92.353 162.1630
40.280140 92.323 161.9620
40.572026 92.293 161.7604
40.866028 92.262 161.5601
41.162160 92.230 161.3626
41.460438 92.198 161.1686
41.760877 92.166 160.9780
42.063494 92.134 160.7898
42.368303 92.102 160.6031
42.675322 92.069 160.4175
42.984565 92.037 160.2329
43.296048 92.004 160.0498
43.609789 91.971 159.8687
43.925804 91.937 159.6893
44.244108 91.904 159.5115
44.564719 91.870 159.3345
44.887654 91.836 159.1582
45.212928 91.802 158.9827
45.540560 91.768 158.8082
45.870565 91.734 158.6354
46.202962 91.699 158.4644
46.537768 91.665 158.2951
46.875000 91.630 158.1275
47.214676 91.595 157.9617
47.556813 91.561 157.7979
47.901429 91.526 157.6367
48.248542 91.492 157.4786
48.598171 91.458 157.3239
48.950334 91.424 157.1723
49.305048 91.390 157.0238
49.662333 91.357 156.8778
50.022206 91.324 156.7335
50.384688 91.291 156.5900
50.749796 91.258 156.4458
51.117550 91.225 156.3002
51.487969 91.191 156.1536
51.861072 91.156 156.0076
52.236879 91.120 155.8656
52.615409 91.083 155.7305
52.996681 91.045 155.6041
53.380717 91.008 155.4857
53.767536 90.972 155.3726
54.157158 90.936 155.2611
54.549603 90.902 155.1483
54.944892 90.868 155.0318
55.343045 90.834 154.9105
55.744084 90.801 154.7832
56.148028 90.768 154.6495
56.554900 90.735 154.5103
56.964720 90.700 154.3685
57.377510 90.665 154.2291
57.793291 90.629 154.0970
58.212085 90.592 153.9744
58.633914 90.557 153.8595
59.058799 90.523 153.7476
59.486764 90.490 153.6337
59.917829 90.457 153.5159
60.352019 90.423 153.3963
60.789354 90.387 153.2791
61.229859 90.351 153.1680
61.673556 90.314 153.0641
62.120468 90.276 152.9655
62.570618 90.239 152.8694
63.024031 90.201 152.7735
63.480729 90.163 152.6774
63.940736 90.123 152.5822
64.404077 90.083 152.4896
64.870776 90.042 152.4009
65.340856 90.000 152.3167
65.814343 89.958 152.2369
66.291261 89.917 152.1610
66.771635 89.875 152.0882
67.255489 89.834 152.0176
67.742850 89.794 151.9485
68.233743 89.753 151.8809
68.728193 89.713 151.8151
69.226226 89.673 151.7515
69.727867 89.633 151.6895
70.233144 89.594 151.6279
70.742083 89.554 151.5660
71.254709 89.514 151.5065
71.771050 89.473 151.4533
72.291132 89.431 151.4104
72.814984 89.389 151.3787
73.342631 89.348 151.3578
73.874102 89.308 151.3467
74.409424 89.270 151.3422
74.948626 89.235 151.3365
75.491734 89.203 151.3184
76.038779 89.172 151.2792
76.589787 89.141 151.2177
77.144788 89.109 151.1382
77.703811 89.076 151.0457
78.266885 89.042 150.9440
78.834039 89.005 150.8402
79.405303 88.965 150.7463
79.980706 88.924 150.6750
80.560280 88.884 150.6294
81.144053 88.847 150.5998
81.732056 88.812 150.5710
82.324320 88.778 150.5340
82.920876 88.742 150.4910
83.521755 88.704 150.4502
