* Measurement data measured by REW V5.31
* Source: EXCL: Microphone (USB Sound Device        ), MICROPHONE (Master Volume), L, volume: 0.250
* Format: 256k Log Swept Sine, 1 sweep at -4.0 dBFS with no timing reference
* Dated: Jun 24, 2024 1:30:29 PM
* REW Settings:
*  C-weighting compensation: Off
*  Target level: 75.0 dB
* Note: Loose Foam
* Measurement: Loose Foam
* Smoothing: 1/12 octave
* Frequency Step: 96 ppo
* Start Frequency: 0.36621094 Hz
*
* Freq(Hz) SPL(dB) Phase(degrees)
0.366211 82.173 166.1742
0.368865 82.168 166.1580
0.371538 82.161 166.1337
0.374230 82.153 166.1032
0.376942 82.144 166.0681
0.379673 82.133 166.0297
0.382424 82.123 165.9886
0.385196 82.112 165.9454
0.387987 82.101 165.9003
0.390798 82.089 165.8535
0.393630 82.078 165.8050
0.396483 82.067 165.7549
0.399356 82.055 165.7032
0.402250 82.043 165.6498
0.405165 82.032 165.5949
0.408101 82.020 165.5383
0.411058 82.008 165.4800
0.414037 81.996 165.4200
0.417037 81.984 165.3584
0.420059 81.972 165.2950
0.423103 81.960 165.2300
0.426169 81.947 165.1632
0.429257 81.935 165.0947
0.432368 81.922 165.0243
0.435501 81.910 164.9523
0.438656 81.897 164.8784
0.441835 81.884 164.8027
0.445037 81.871 164.7252
0.448262 81.858 164.6458
0.451510 81.845 164.5647
0.454782 81.832 164.4816
0.458077 81.819 164.3967
0.461397 81.806 164.3099
0.464740 81.792 164.2213
0.468108 81.779 164.1307
0.471500 81.765 164.0382
0.474917 81.751 163.9437
0.478358 81.737 163.8474
0.481825 81.723 163.7491
0.485316 81.709 163.6488
0.488833 81.695 163.5466
0.492375 81.681 163.4424
0.495943 81.667 163.3363
0.499537 81.652 163.2281
0.503157 81.638 163.1180
0.506803 81.623 163.0059
0.510475 81.608 162.8918
0.514175 81.593 162.7758
0.517900 81.578 162.6577
0.521653 81.563 162.5376
0.525434 81.548 162.4156
0.529241 81.533 162.2915
0.533076 81.517 162.1655
0.536939 81.502 162.0375
0.540830 81.486 161.9075
0.544749 81.470 161.7755
0.548696 81.454 161.6416
0.552673 81.438 161.5057
0.556677 81.422 161.3679
0.560711 81.406 161.2281
0.564774 81.390 161.0864
0.568867 81.373 160.9428
0.572989 81.357 160.7974
0.577141 81.340 160.6501
0.581324 81.323 160.5009
0.585536 81.306 160.3499
0.589779 81.289 160.1971
0.594053 81.272 160.0425
0.598358 81.255 159.8863
0.602694 81.237 159.7283
0.607061 81.220 159.5686
0.611460 81.202 159.4073
0.615891 81.184 159.2444
0.620354 81.166 159.0800
0.624849 81.148 158.9141
0.629377 81.130 158.7467
0.633938 81.112 158.5779
0.638532 81.093 158.4077
0.643159 81.074 158.2363
0.647819 81.056 158.0637
0.652514 81.037 157.8899
0.657242 81.018 157.7150
0.662005 80.999 157.5391
0.666802 80.979 157.3622
0.671634 80.960 157.1845
0.676501 80.940 157.0061
0.681403 80.921 156.8269
0.686341 80.901 156.6472
0.691314 80.881 156.4670
0.696324 80.860 156.2864
0.701370 80.840 156.1055
0.706452 80.819 155.9243
0.711571 80.798 155.7429
0.716728 80.776 155.5612
0.721921 80.753 155.3790
0.727153 80.729 155.1960
0.732422 80.703 155.0117
0.737729 80.676 154.8256
0.743075 80.647 154.6368
0.748460 80.616 154.4450
0.753883 80.585 154.2496
0.759346 80.552 154.0504
0.764849 80.519 153.8470
0.770391 80.486 153.6395
0.775974 80.451 153.4276
0.781597 80.417 153.2114
0.787261 80.382 152.9908
0.792966 80.347 152.7656
0.798712 80.311 152.5360
0.804500 80.274 152.3018
0.810329 80.238 152.0630
0.816201 80.200 151.8197
0.822116 80.162 151.5717
0.828073 80.124 151.3190
0.834074 80.085 151.0617
0.840118 80.045 150.7997
0.846206 80.005 150.5330
0.852338 79.964 150.2616
0.858514 79.922 149.9855
0.864735 79.880 149.7047
0.871001 79.837 149.4192
0.877313 79.793 149.1289
0.883670 79.748 148.8340
0.890074 79.702 148.5344
0.896524 79.656 148.2301
0.903020 79.608 147.9212
0.909564 79.560 147.6077
0.916155 79.510 147.2897
0.922794 79.460 146.9672
0.929481 79.408 146.6403
0.936216 79.355 146.3090
0.943000 79.302 145.9734
0.949834 79.246 145.6336
0.956717 79.190 145.2897
0.963649 79.132 144.9419
0.970632 79.073 144.5901
0.977666 79.013 144.2347
0.984750 78.951 143.8757
0.991886 78.887 143.5133
0.999074 78.822 143.1476
1.006314 78.755 142.7789
1.013606 78.687 142.4074
1.020951 78.617 142.0333
1.028349 78.545 141.6568
1.035801 78.471 141.2783
1.043307 78.395 140.8980
1.050867 78.317 140.5162
1.058482 78.238 140.1331
1.066152 78.155 139.7490
1.073878 78.071 139.3641
1.081660 77.984 138.9783
1.089498 77.895 138.5915
1.097393 77.803 138.2032
1.105345 77.709 137.8128
1.113355 77.611 137.4194
1.121423 77.511 137.0221
1.129549 77.407 136.6203
1.137734 77.301 136.2132
1.145979 77.191 135.8003
1.154283 77.079 135.3812
1.162647 76.963 134.9554
1.171072 76.845 134.5224
1.179558 76.723 134.0819
1.188106 76.599 133.6332
1.196715 76.472 133.1761
1.205387 76.342 132.7099
1.214122 76.209 132.2343
1.222920 76.074 131.7484
1.231782 75.936 131.2520
1.240708 75.796 130.7441
1.249699 75.653 130.2243
1.258754 75.508 129.6918
1.267876 75.361 129.1459
1.277063 75.212 128.5858
1.286318 75.061 128.0105
1.295639 74.907 127.4193
1.305027 74.752 126.8112
1.314484 74.595 126.1851
1.324009 74.437 125.5400
1.333604 74.277 124.8747
1.343268 74.116 124.1879
1.353002 73.954 123.4785
1.362806 73.790 122.7449
1.372681 73.626 121.9857
1.382628 73.461 121.1993
1.392647 73.296 120.3839
1.402739 73.130 119.5379
1.412904 72.963 118.6591
1.423142 72.796 117.7453
1.433455 72.629 116.7941
1.443843 72.460 115.8025
1.454305 72.289 114.7671
1.464844 72.116 113.6836
1.475459 71.937 112.5472
1.486150 71.753 111.3520
1.496920 71.562 110.0918
1.507767 71.363 108.7598
1.518693 71.156 107.3487
1.529698 70.942 105.8507
1.540783 70.720 104.2572
1.551948 70.493 102.5589
1.563194 70.260 100.7455
1.574521 70.022 98.8062
1.585931 69.781 96.7288
1.597423 69.538 94.5008
1.608999 69.294 92.1085
1.620658 69.050 89.5381
1.632402 68.808 86.7756
1.644232 68.569 83.8075
1.656146 68.335 80.6219
1.668147 68.107 77.2092
1.680235 67.887 73.5638
1.692411 67.677 69.6854
1.704675 67.478 65.5811
1.717028 67.293 61.2664
1.729470 67.123 56.7668
1.742003 66.972 52.1175
1.754626 66.840 47.3624
1.767341 66.731 42.5518
1.780147 66.647 37.7391
1.793047 66.591 32.9760
1.806040 66.564 28.3092
1.819128 66.571 23.7767
1.832310 66.611 19.4069
1.845587 66.688 15.2187
1.858961 66.801 11.2237
1.872432 66.950 7.4282
1.886001 67.135 3.8348
1.899667 67.353 0.4425
1.913433 67.603 -2.7524
1.927299 67.882 -5.7561
1.941265 68.188 -8.5764
1.955332 68.517 -11.2226
1.969501 68.868 -13.7046
1.983773 69.236 -16.0328
1.998148 69.618 -18.2175
2.012627 70.012 -20.2687
2.027212 70.414 -22.1962
2.041902 70.821 -24.0089
2.056698 71.229 -25.7156
2.071602 71.636 -27.3242
2.086614 72.036 -28.8421
2.101734 72.428 -30.2764
2.116964 72.809 -31.6336
2.132304 73.174 -32.9199
2.147756 73.523 -34.1417
2.163320 73.852 -35.3052
2.178996 74.163 -36.4171
2.194786 74.456 -37.4841
2.210690 74.733 -38.5132
2.226710 74.996 -39.5105
2.242845 75.247 -40.4806
2.259098 75.488 -41.4271
2.275468 75.721 -42.3518
2.291957 75.946 -43.2561
2.308566 76.164 -44.1405
2.325295 76.376 -45.0052
2.342145 76.581 -45.8503
2.359117 76.781 -46.6756
2.376212 76.976 -47.4811
2.393431 77.167 -48.2665
2.410775 77.353 -49.0316
2.428244 77.535 -49.7762
2.445840 77.713 -50.5003
2.463564 77.889 -51.2037
2.481416 78.062 -51.8865
2.499397 78.232 -52.5492
2.517509 78.401 -53.1925
2.535752 78.567 -53.8179
2.554127 78.730 -54.4272
2.572635 78.891 -55.0231
2.591277 79.047 -55.6085
2.610055 79.200 -56.1855
2.628968 79.348 -56.7559
2.648019 79.491 -57.3203
2.667208 79.629 -57.8791
2.686535 79.763 -58.4319
2.706003 79.893 -58.9783
2.725612 80.019 -59.5173
2.745363 80.141 -60.0483
2.765257 80.261 -60.5703
2.785295 80.377 -61.0824
2.805478 80.491 -61.5836
2.825808 80.603 -62.0731
2.846285 80.713 -62.5502
2.866910 80.821 -63.0145
2.887685 80.929 -63.4658
2.908611 81.034 -63.9046
2.929688 81.139 -64.3318
2.950917 81.241 -64.7489
2.972301 81.341 -65.1573
2.993839 81.439 -65.5583
3.015534 81.534 -65.9526
3.037386 81.626 -66.3404
3.059396 81.715 -66.7216
3.081565 81.802 -67.0959
3.103896 81.887 -67.4627
3.126388 81.970 -67.8214
3.149043 82.052 -68.1713
3.171862 82.132 -68.5115
3.194847 82.211 -68.8413
3.217998 82.289 -69.1600
3.241317 82.367 -69.4669
3.264805 82.444 -69.7617
3.288463 82.520 -70.0443
3.312293 82.596 -70.3147
3.336295 82.670 -70.5736
3.360471 82.744 -70.8214
3.384822 82.816 -71.0591
3.409350 82.887 -71.2871
3.434056 82.956 -71.5064
3.458940 83.025 -71.7174
3.484005 83.093 -71.9207
3.509252 83.161 -72.1170
3.534681 83.228 -72.3065
3.560295 83.295 -72.4898
3.586094 83.363 -72.6670
3.612081 83.431 -72.8382
3.638255 83.499 -73.0033
3.664620 83.567 -73.1618
3.691175 83.636 -73.3136
3.717923 83.705 -73.4583
3.744864 83.774 -73.5963
3.772001 83.844 -73.7280
3.799335 83.913 -73.8543
3.826866 83.983 -73.9765
3.854597 84.053 -74.0957
3.882529 84.123 -74.2132
3.910664 84.194 -74.3305
3.939002 84.265 -74.4486
3.967546 84.337 -74.5688
3.996296 84.409 -74.6916
4.025255 84.482 -74.8175
4.054423 84.556 -74.9466
4.083804 84.630 -75.0785
4.113396 84.706 -75.2126
4.143204 84.781 -75.3483
4.173227 84.858 -75.4852
4.203468 84.935 -75.6228
4.233928 85.012 -75.7611
4.264609 85.089 -75.9003
4.295512 85.166 -76.0412
4.326639 85.244 -76.1853
4.357992 85.321 -76.3347
4.389572 85.398 -76.4919
4.421380 85.476 -76.6592
4.453419 85.553 -76.8372
4.485691 85.631 -77.0256
4.518196 85.708 -77.2236
4.550936 85.785 -77.4304
4.583914 85.862 -77.6455
4.617131 85.939 -77.8685
4.650589 86.014 -78.0994
4.684289 86.089 -78.3383
4.718233 86.163 -78.5853
4.752424 86.237 -78.8407
4.786862 86.309 -79.1047
4.821549 86.380 -79.3773
4.856488 86.450 -79.6582
4.891680 86.519 -79.9468
4.927127 86.588 -80.2424
4.962831 86.655 -80.5440
4.998794 86.720 -80.8509
5.035017 86.785 -81.1623
5.071503 86.848 -81.4778
5.108253 86.910 -81.7971
5.145270 86.971 -82.1203
5.182555 87.030 -82.4476
5.220110 87.087 -82.7789
5.257937 87.143 -83.1139
5.296038 87.198 -83.4518
5.334415 87.251 -83.7916
5.373071 87.304 -84.1323
5.412006 87.355 -84.4730
5.451224 87.405 -84.8128
5.490725 87.454 -85.1515
5.530514 87.502 -85.4889
5.570590 87.548 -85.8252
5.610957 87.594 -86.1604
5.651616 87.639 -86.4945
5.692570 87.682 -86.8272
5.733821 87.726 -87.1579
5.775370 87.769 -87.4863
5.817221 87.811 -87.8120
5.859375 87.853 -88.1346
5.901834 87.895 -88.4541
5.944602 87.937 -88.7707
5.987679 87.978 -89.0847
6.031068 88.020 -89.3968
6.074771 88.061 -89.7073
6.118792 88.103 -90.0170
6.163131 88.145 -90.3260
6.207792 88.188 -90.6348
6.252776 88.231 -90.9435
6.298086 88.275 -91.2523
6.343725 88.319 -91.5615
6.389694 88.363 -91.8719
6.435996 88.408 -92.1843
6.482634 88.454 -92.4995
6.529610 88.500 -92.8184
6.576926 88.547 -93.1416
6.624585 88.594 -93.4694
6.672590 88.642 -93.8021
6.720942 88.691 -94.1399
6.769645 88.739 -94.4829
6.818700 88.788 -94.8317
6.868111 88.838 -95.1865
6.917881 88.887 -95.5477
6.968010 88.936 -95.9157
7.018504 88.985 -96.2905
7.069362 89.034 -96.6719
7.120590 89.083 -97.0595
7.172189 89.132 -97.4528
7.224161 89.181 -97.8514
7.276511 89.228 -98.2548
7.329239 89.276 -98.6626
7.382350 89.323 -99.0747
7.435845 89.369 -99.4905
7.489729 89.415 -99.9095
7.544002 89.460 -100.3306
7.598669 89.504 -100.7530
7.653732 89.548 -101.1758
7.709194 89.592 -101.5983
7.765058 89.635 -102.0202
7.821327 89.677 -102.4411
7.878004 89.719 -102.8604
7.935091 89.761 -103.2775
7.992592 89.803 -103.6919
8.050510 89.844 -104.1031
8.108847 89.886 -104.5107
8.167607 89.928 -104.9147
8.226793 89.970 -105.3153
8.286408 90.012 -105.7126
8.346454 90.055 -106.1069
8.406936 90.099 -106.4984
8.467856 90.143 -106.8872
8.529218 90.188 -107.2738
8.591024 90.233 -107.6586
8.653278 90.279 -108.0424
8.715983 90.326 -108.4260
8.779143 90.374 -108.8100
8.842760 90.423 -109.1949
8.906839 90.472 -109.5812
8.971381 90.522 -109.9693
9.036392 90.572 -110.3597
9.101873 90.623 -110.7528
9.167829 90.674 -111.1491
9.234263 90.725 -111.5487
9.301178 90.776 -111.9515
9.368578 90.827 -112.3572
9.436467 90.877 -112.7656
9.504847 90.928 -113.1763
9.573723 90.977 -113.5889
9.643099 91.025 -114.0030
9.712976 91.072 -114.4177
9.783361 91.116 -114.8321
9.854255 91.158 -115.2455
9.925663 91.197 -115.6569
9.997588 91.232 -116.0656
10.070035 91.265 -116.4711
10.143007 91.295 -116.8723
10.216507 91.323 -117.2687
10.290540 91.349 -117.6596
10.365109 91.373 -118.0448
10.440219 91.396 -118.4240
10.515873 91.418 -118.7973
10.592076 91.440 -119.1646
10.668830 91.461 -119.5263
10.746141 91.482 -119.8827
10.824012 91.504 -120.2345
10.902447 91.526 -120.5824
10.981451 91.548 -120.9273
11.061027 91.570 -121.2700
11.141180 91.592 -121.6114
11.221913 91.615 -121.9524
11.303232 91.638 -122.2940
11.385140 91.661 -122.6371
11.467641 91.684 -122.9822
11.550741 91.706 -123.3299
11.634442 91.729 -123.6806
11.718750 91.752 -124.0346
11.803669 91.774 -124.3919
11.889203 91.796 -124.7523
11.975357 91.817 -125.1155
12.062136 91.837 -125.4810
12.149543 91.857 -125.8481
12.237583 91.875 -126.2162
12.326262 91.893 -126.5845
12.415583 91.909 -126.9519
12.505552 91.924 -127.3178
12.596172 91.938 -127.6813
12.687449 91.950 -128.0416
12.779387 91.962 -128.3982
12.871992 91.972 -128.7505
12.965268 91.981 -129.0982
13.059220 91.991 -129.4413
13.153852 91.999 -129.7796
13.249170 92.008 -130.1134
13.345179 92.016 -130.4432
13.441884 92.025 -130.7695
13.539289 92.035 -131.0929
13.637401 92.044 -131.4144
13.736223 92.054 -131.7346
13.835761 92.065 -132.0546
13.936021 92.075 -132.3753
14.037007 92.086 -132.6975
14.138725 92.097 -133.0220
14.241180 92.109 -133.3495
14.344377 92.120 -133.6805
14.448323 92.131 -134.0156
14.553021 92.142 -134.3549
14.658478 92.153 -134.6987
14.764700 92.164 -135.0469
14.871691 92.175 -135.3994
14.979457 92.185 -135.7559
15.088005 92.195 -136.1159
15.197339 92.205 -136.4790
15.307465 92.215 -136.8448
15.418389 92.224 -137.2125
15.530117 92.233 -137.5817
15.642655 92.241 -137.9519
15.756008 92.249 -138.3225
15.870182 92.257 -138.6932
15.985184 92.265 -139.0636
16.101019 92.272 -139.4334
16.217694 92.280 -139.8027
16.335214 92.287 -140.1712
16.453586 92.295 -140.5391
16.572815 92.303 -140.9064
16.692909 92.311 -141.2732
16.813872 92.319 -141.6397
16.935713 92.329 -142.0058
17.058436 92.338 -142.3717
17.182048 92.348 -142.7372
17.306556 92.358 -143.1022
17.431967 92.368 -143.4665
17.558286 92.378 -143.8297
17.685521 92.389 -144.1914
17.813677 92.398 -144.5512
17.942762 92.408 -144.9089
18.072783 92.418 -145.2639
18.203746 92.427 -145.6162
18.335658 92.437 -145.9657
18.468526 92.447 -146.3123
18.602356 92.457 -146.6563
18.737156 92.467 -146.9979
18.872934 92.477 -147.3376
19.009695 92.488 -147.6758
19.147447 92.498 -148.0128
19.286197 92.509 -148.3490
19.425953 92.519 -148.6844
19.566721 92.529 -149.0191
19.708510 92.539 -149.3529
19.851326 92.548 -149.6853
19.995177 92.556 -150.0159
20.140070 92.563 -150.3441
20.286013 92.570 -150.6692
20.433014 92.576 -150.9909
20.581080 92.581 -151.3087
20.730219 92.586 -151.6227
20.880439 92.591 -151.9330
21.031747 92.595 -152.2401
21.184152 92.600 -152.5447
21.337661 92.604 -152.8476
21.492282 92.609 -153.1497
21.648024 92.614 -153.4521
21.804895 92.619 -153.7554
21.962902 92.624 -154.0604
22.122054 92.628 -154.3675
22.282360 92.632 -154.6769
22.443827 92.636 -154.9887
22.606464 92.639 -155.3026
22.770280 92.642 -155.6186
22.935283 92.644 -155.9362
23.101481 92.645 -156.2553
23.268884 92.646 -156.5757
23.437500 92.647 -156.8972
23.607338 92.647 -157.2195
23.778406 92.646 -157.5427
23.950714 92.645 -157.8664
24.124271 92.644 -158.1904
24.299086 92.642 -158.5146
24.475167 92.640 -158.8385
24.652524 92.638 -159.1620
24.831166 92.636 -159.4847
25.011103 92.634 -159.8066
25.192344 92.632 -160.1277
25.374898 92.630 -160.4480
25.558775 92.628 -160.7678
25.743984 92.626 -161.0873
25.930536 92.625 -161.4068
26.118439 92.623 -161.7263
26.307704 92.622 -162.0457
26.498341 92.620 -162.3646
26.690359 92.618 -162.6826
26.883768 92.616 -162.9989
27.078579 92.614 -163.3128
27.274801 92.611 -163.6234
27.472446 92.608 -163.9303
27.671522 92.604 -164.2330
27.872042 92.601 -164.5317
28.074014 92.597 -164.8266
28.277450 92.594 -165.1182
28.482360 92.590 -165.4076
28.688755 92.587 -165.6954
28.896645 92.584 -165.9826
29.106042 92.580 -166.2699
29.316957 92.576 -166.5577
29.529400 92.572 -166.8462
29.743382 92.567 -167.1352
29.958915 92.562 -167.4245
30.176009 92.556 -167.7135
30.394677 92.550 -168.0017
30.614929 92.543 -168.2889
30.836778 92.536 -168.5747
31.060234 92.528 -168.8593
31.285309 92.521 -169.1431
31.512015 92.513 -169.4266
31.740364 92.505 -169.7104
31.970368 92.498 -169.9953
32.202039 92.490 -170.2818
32.435388 92.481 -170.5702
32.670428 92.473 -170.8604
32.907171 92.465 -171.1521
33.145630 92.456 -171.4447
33.385817 92.446 -171.7374
33.627745 92.437 -172.0294
33.871425 92.427 -172.3204
34.116871 92.418 -172.6102
34.364096 92.408 -172.8989
34.613113 92.399 -173.1869
34.863934 92.389 -173.4745
35.116572 92.380 -173.7619
35.371041 92.370 -174.0487
35.627354 92.360 -174.3342
35.885525 92.349 -174.6175
36.145566 92.338 -174.8978
36.407492 92.327 -175.1747
36.671316 92.315 -175.4482
36.937051 92.303 -175.7188
37.204712 92.292 -175.9875
37.474313 92.279 -176.2549
37.745867 92.267 -176.5213
38.019389 92.254 -176.7863
38.294893 92.240 -177.0491
38.572394 92.226 -177.3087
38.851905 92.211 -177.5643
39.133442 92.196 -177.8160
39.417019 92.181 -178.0645
39.702651 92.166 -178.3111
39.990353 92.151 -178.5576
40.280140 92.136 -178.8052
40.572026 92.121 -179.0551
40.866028 92.106 -179.3077
41.162160 92.091 -179.5631
41.460438 92.074 -179.8207
41.760877 92.057 179.9205
42.063494 92.039 179.6622
42.368303 92.020 179.4063
42.675322 92.001 179.1552
42.984565 91.981 178.9103
43.296048 91.961 178.6723
43.609789 91.941 178.4401
43.925804 91.923 178.2113
44.244108 91.905 177.9827
44.564719 91.889 177.7510
44.887654 91.872 177.5146
45.212928 91.855 177.2735
45.540560 91.838 177.0295
45.870565 91.819 176.7861
46.202962 91.800 176.5466
46.537768 91.779 176.3141
46.875000 91.759 176.0900
47.214676 91.739 175.8739
47.556813 91.720 175.6636
47.901429 91.702 175.4559
48.248542 91.685 175.2476
48.598171 91.668 175.0358
48.950334 91.651 174.8194
49.305048 91.634 174.5984
49.662333 91.617 174.3740
50.022206 91.598 174.1476
50.384688 91.579 173.9205
50.749796 91.559 173.6938
51.117550 91.538 173.4682
51.487969 91.517 173.2441
51.861072 91.496 173.0214
52.236879 91.474 172.8000
52.615409 91.453 172.5793
52.996681 91.431 172.3586
53.380717 91.410 172.1372
53.767536 91.388 171.9152
54.157158 91.367 171.6932
54.549603 91.345 171.4728
54.944892 91.323 171.2558
55.343045 91.300 171.0436
55.744084 91.278 170.8372
56.148028 91.256 170.6357
56.554900 91.234 170.4372
56.964720 91.212 170.2391
57.377510 91.190 170.0398
57.793291 91.167 169.8398
58.212085 91.142 169.6411
58.633914 91.116 169.4466
59.058799 91.088 169.2572
59.486764 91.060 169.0721
59.917829 91.030 168.8893
60.352019 90.999 168.7074
60.789354 90.967 168.5267
61.229859 90.934 168.3486
61.673556 90.900 168.1733
62.120468 90.866 167.9987
62.570618 90.833 167.8213
63.024031 90.800 167.6376
63.480729 90.766 167.4471
63.940736 90.730 167.2533
64.404077 90.694 167.0630
64.870776 90.655 166.8842
65.340856 90.616 166.7230
65.814343 90.577 166.5825
66.291261 90.539 166.4612
66.771635 90.502 166.3555
67.255489 90.466 166.2623
67.742850 90.431 166.1803
68.233743 90.396 166.1099
68.728193 90.361 166.0504
69.226226 90.326 165.9988
69.727867 90.292 165.9521
70.233144 90.258 165.9092
70.742083 90.223 165.8719
71.254709 90.188 165.8428
71.771050 90.154 165.8238
72.291132 90.121 165.8165
72.814984 90.091 165.8220
73.342631 90.065 165.8372
73.874102 90.044 165.8516
74.409424 90.028 165.8536
74.948626 90.014 165.8416
75.491734 90.000 165.8275
76.038779 89.988 165.8248
76.589787 89.979 165.8341
77.144788 89.974 165.8440
77.703811 89.971 165.8471
78.266885 89.968 165.8504
78.834039 89.966 165.8648
79.405303 89.969 165.8876
79.980706 89.977 165.8978
80.560280 89.991 165.8686
81.144053 90.008 165.7794
81.732056 90.025 165.6191
82.324320 90.038 165.3879
82.920876 90.045 165.0995
83.521755 90.044 164.7808
84.126988 90.035 164.4602
84.736607 90.021 164.1532
85.350643 90.006 163.8594
85.969129 89.988 163.5714
86.592097 89.967 163.2877
87.219579 89.941 163.0172
87.851608 89.910 162.7724
