* Measurement data measured by REW V5.31
* Source: EXCL: Microphone (USB Sound Device        ), MICROPHONE (Master Volume), L, volume: 0.560
* Format: 256k Log Swept Sine, 1 sweep at -5.0 dBFS with no timing reference
* Dated: Jun 3, 2024 12:58:10 AM
* REW Settings:
*  C-weighting compensation: Off
*  Target level: 75.0 dB
* Note: LetShuoer S08 L
* Measurement: L LetShuoer S08
* Smoothing: 1/12 octave
* Frequency Step: 96 ppo
* Start Frequency: 0.36621094 Hz
*
* Freq(Hz) SPL(dB) Phase(degrees)
0.366211 81.781 164.2204
0.368865 81.775 164.2020
0.371538 81.768 164.1745
0.374230 81.758 164.1399
0.376942 81.747 164.1001
0.379673 81.736 164.0564
0.382424 81.723 164.0097
0.385196 81.711 163.9606
0.387987 81.698 163.9093
0.390798 81.686 163.8561
0.393630 81.673 163.8009
0.396483 81.660 163.7438
0.399356 81.646 163.6849
0.402250 81.633 163.6241
0.405165 81.620 163.5614
0.408101 81.606 163.4968
0.411058 81.593 163.4303
0.414037 81.579 163.3618
0.417037 81.565 163.2914
0.420059 81.551 163.2190
0.423103 81.537 163.1447
0.426169 81.523 163.0683
0.429257 81.509 162.9898
0.432368 81.495 162.9093
0.435501 81.481 162.8268
0.438656 81.466 162.7422
0.441835 81.452 162.6555
0.445037 81.437 162.5666
0.448262 81.422 162.4756
0.451510 81.407 162.3825
0.454782 81.392 162.2872
0.458077 81.377 162.1898
0.461397 81.362 162.0901
0.464740 81.346 161.9882
0.468108 81.331 161.8841
0.471500 81.315 161.7778
0.474917 81.300 161.6692
0.478358 81.284 161.5583
0.481825 81.268 161.4452
0.485316 81.252 161.3298
0.488833 81.236 161.2121
0.492375 81.220 161.0921
0.495943 81.203 160.9698
0.499537 81.187 160.8451
0.503157 81.170 160.7181
0.506803 81.154 160.5888
0.510475 81.137 160.4571
0.514175 81.120 160.3231
0.517900 81.103 160.1868
0.521653 81.085 160.0481
0.525434 81.068 159.9070
0.529241 81.051 159.7636
0.533076 81.033 159.6178
0.536939 81.015 159.4697
0.540830 80.997 159.3192
0.544749 80.980 159.1664
0.548696 80.961 159.0113
0.552673 80.943 158.8538
0.556677 80.925 158.6941
0.560711 80.906 158.5320
0.564774 80.888 158.3676
0.568867 80.869 158.2010
0.572989 80.850 158.0321
0.577141 80.831 157.8610
0.581324 80.812 157.6877
0.585536 80.792 157.5122
0.589779 80.773 157.3345
0.594053 80.753 157.1548
0.598358 80.734 156.9729
0.602694 80.714 156.7889
0.607061 80.694 156.6030
0.611460 80.674 156.4150
0.615891 80.653 156.2252
0.620354 80.633 156.0334
0.624849 80.612 155.8398
0.629377 80.591 155.6444
0.633938 80.570 155.4473
0.638532 80.549 155.2486
0.643159 80.528 155.0482
0.647819 80.507 154.8463
0.652514 80.485 154.6430
0.657242 80.464 154.4383
0.662005 80.442 154.2324
0.666802 80.420 154.0252
0.671634 80.398 153.8169
0.676501 80.375 153.6077
0.681403 80.353 153.3975
0.686341 80.330 153.1866
0.691314 80.307 152.9749
0.696324 80.284 152.7627
0.701370 80.261 152.5500
0.706452 80.237 152.3369
0.711571 80.213 152.1234
0.716728 80.188 151.9094
0.721921 80.162 151.6947
0.727153 80.134 151.4789
0.732422 80.105 151.2615
0.737729 80.073 151.0416
0.743075 80.040 150.8186
0.748460 80.005 150.5917
0.753883 79.968 150.3604
0.759346 79.931 150.1243
0.764849 79.893 149.8831
0.770391 79.854 149.6367
0.775974 79.814 149.3849
0.781597 79.774 149.1276
0.787261 79.733 148.8647
0.792966 79.692 148.5963
0.798712 79.650 148.3221
0.804500 79.608 148.0421
0.810329 79.565 147.7563
0.816201 79.521 147.4647
0.822116 79.477 147.1671
0.828073 79.432 146.8635
0.834074 79.386 146.5538
0.840118 79.340 146.2381
0.846206 79.293 145.9162
0.852338 79.245 145.5882
0.858514 79.196 145.2539
0.864735 79.147 144.9134
0.871001 79.096 144.5666
0.877313 79.045 144.2135
0.883670 78.992 143.8540
0.890074 78.939 143.4883
0.896524 78.885 143.1161
0.903020 78.829 142.7376
0.909564 78.773 142.3528
0.916155 78.715 141.9616
0.922794 78.657 141.5641
0.929481 78.597 141.1603
0.936216 78.536 140.7502
0.943000 78.473 140.3339
0.949834 78.409 139.9115
0.956717 78.344 139.4830
0.963649 78.278 139.0486
0.970632 78.210 138.6082
0.977666 78.140 138.1620
0.984750 78.069 137.7102
0.991886 77.997 137.2529
0.999074 77.923 136.7902
1.006314 77.847 136.3223
1.013606 77.769 135.8494
1.020951 77.689 135.3718
1.028349 77.608 134.8897
1.035801 77.524 134.4033
1.043307 77.439 133.9128
1.050867 77.351 133.4186
1.058482 77.262 132.9209
1.066152 77.169 132.4200
1.073878 77.075 131.9158
1.081660 76.977 131.4082
1.089498 76.877 130.8971
1.097393 76.773 130.3815
1.105345 76.665 129.8606
1.113355 76.553 129.3330
1.121423 76.436 128.7976
1.129549 76.313 128.2530
1.137734 76.186 127.6984
1.145979 76.053 127.1327
1.154283 75.915 126.5550
1.162647 75.772 125.9646
1.171072 75.625 125.3605
1.179558 75.473 124.7419
1.188106 75.317 124.1077
1.196715 75.156 123.4571
1.205387 74.992 122.7890
1.214122 74.824 122.1022
1.222920 74.654 121.3956
1.231782 74.480 120.6679
1.240708 74.304 119.9179
1.249699 74.126 119.1439
1.258754 73.946 118.3446
1.267876 73.764 117.5182
1.277063 73.582 116.6631
1.286318 73.399 115.7774
1.295639 73.216 114.8591
1.305027 73.034 113.9061
1.314484 72.852 112.9163
1.324009 72.672 111.8872
1.333604 72.493 110.8163
1.343268 72.318 109.7011
1.353002 72.145 108.5388
1.362806 71.976 107.3263
1.372681 71.812 106.0608
1.382628 71.652 104.7390
1.392647 71.498 103.3577
1.402739 71.351 101.9133
1.412904 71.210 100.4025
1.423142 71.077 98.8214
1.433455 70.953 97.1659
1.443843 70.837 95.4317
1.454305 70.729 93.6136
1.464844 70.630 91.7056
1.475459 70.539 89.7008
1.486150 70.455 87.5919
1.496920 70.378 85.3716
1.507767 70.307 83.0332
1.518693 70.241 80.5706
1.529698 70.182 77.9794
1.540783 70.128 75.2561
1.551948 70.080 72.3996
1.563194 70.038 69.4105
1.574521 70.002 66.2922
1.585931 69.971 63.0513
1.597423 69.947 59.6972
1.608999 69.929 56.2429
1.620658 69.917 52.7046
1.632402 69.912 49.1018
1.644232 69.913 45.4559
1.656146 69.920 41.7905
1.668147 69.935 38.1297
1.680235 69.956 34.4972
1.692411 69.984 30.9155
1.704675 70.020 27.4052
1.717028 70.062 23.9835
1.729470 70.113 20.6650
1.742003 70.170 17.4604
1.754626 70.236 14.3772
1.767341 70.309 11.4196
1.780147 70.391 8.5887
1.793047 70.482 5.8829
1.806040 70.583 3.2983
1.819128 70.695 0.8289
1.832310 70.819 -1.5329
1.845587 70.957 -3.7951
1.858961 71.110 -5.9654
1.872432 71.279 -8.0502
1.886001 71.463 -10.0544
1.899667 71.662 -11.9821
1.913433 71.876 -13.8365
1.927299 72.103 -15.6205
1.941265 72.343 -17.3366
1.955332 72.594 -18.9872
1.969501 72.855 -20.5749
1.983773 73.124 -22.1018
1.998148 73.400 -23.5703
2.012627 73.681 -24.9825
2.027212 73.966 -26.3406
2.041902 74.252 -27.6468
2.056698 74.540 -28.9031
2.071602 74.825 -30.1115
2.086614 75.108 -31.2739
2.101734 75.386 -32.3923
2.116964 75.657 -33.4687
2.132304 75.920 -34.5053
2.147756 76.173 -35.5045
2.163320 76.417 -36.4691
2.178996 76.649 -37.4025
2.194786 76.871 -38.3085
2.210690 77.084 -39.1913
2.226710 77.288 -40.0549
2.242845 77.485 -40.9022
2.259098 77.675 -41.7354
2.275468 77.859 -42.5556
2.291957 78.038 -43.3632
2.308566 78.213 -44.1584
2.325295 78.383 -44.9409
2.342145 78.548 -45.7103
2.359117 78.710 -46.4663
2.376212 78.868 -47.2082
2.393431 79.022 -47.9356
2.410775 79.174 -48.6480
2.428244 79.323 -49.3449
2.445840 79.470 -50.0258
2.463564 79.614 -50.6903
2.481416 79.756 -51.3382
2.499397 79.897 -51.9695
2.517509 80.037 -52.5846
2.535752 80.175 -53.1844
2.554127 80.311 -53.7702
2.572635 80.445 -54.3440
2.591277 80.576 -54.9080
2.610055 80.704 -55.4642
2.628968 80.830 -56.0138
2.648019 80.952 -56.5575
2.667208 81.071 -57.0956
2.686535 81.186 -57.6279
2.706003 81.299 -58.1540
2.725612 81.409 -58.6734
2.745363 81.516 -59.1853
2.765257 81.621 -59.6892
2.785295 81.724 -60.1841
2.805478 81.826 -60.6695
2.825808 81.925 -61.1445
2.846285 82.024 -61.6085
2.866910 82.121 -62.0612
2.887685 82.218 -62.5024
2.908611 82.313 -62.9323
2.929688 82.407 -63.3516
2.950917 82.500 -63.7614
2.972301 82.590 -64.1629
2.993839 82.679 -64.5568
3.015534 82.766 -64.9439
3.037386 82.851 -65.3245
3.059396 82.934 -65.6985
3.081565 83.015 -66.0657
3.103896 83.095 -66.4258
3.126388 83.173 -66.7785
3.149043 83.250 -67.1231
3.171862 83.326 -67.4593
3.194847 83.402 -67.7863
3.217998 83.477 -68.1038
3.241317 83.552 -68.4111
3.264805 83.626 -68.7081
3.288463 83.700 -68.9944
3.312293 83.773 -69.2703
3.336295 83.846 -69.5359
3.360471 83.918 -69.7917
3.384822 83.989 -70.0383
3.409350 84.060 -70.2764
3.434056 84.130 -70.5067
3.458940 84.199 -70.7298
3.484005 84.267 -70.9463
3.509252 84.335 -71.1568
3.534681 84.404 -71.3620
3.560295 84.472 -71.5622
3.586094 84.541 -71.7579
3.612081 84.609 -71.9491
3.638255 84.679 -72.1357
3.664620 84.749 -72.3177
3.691175 84.819 -72.4945
3.717923 84.889 -72.6660
3.744864 84.960 -72.8323
3.772001 85.031 -72.9938
3.799335 85.102 -73.1512
3.826866 85.173 -73.3055
3.854597 85.245 -73.4577
3.882529 85.317 -73.6088
3.910664 85.389 -73.7598
3.939002 85.461 -73.9117
3.967546 85.535 -74.0650
3.996296 85.608 -74.2202
4.025255 85.682 -74.3772
4.054423 85.757 -74.5358
4.083804 85.832 -74.6957
4.113396 85.908 -74.8567
4.143204 85.984 -75.0191
4.173227 86.061 -75.1833
4.203468 86.138 -75.3502
4.233928 86.215 -75.5206
4.264609 86.292 -75.6954
4.295512 86.370 -75.8755
4.326639 86.447 -76.0618
4.357992 86.524 -76.2548
4.389572 86.601 -76.4548
4.421380 86.678 -76.6618
4.453419 86.755 -76.8757
4.485691 86.831 -77.0960
4.518196 86.908 -77.3227
4.550936 86.984 -77.5555
4.583914 87.060 -77.7942
4.617131 87.136 -78.0387
4.650589 87.211 -78.2892
4.684289 87.285 -78.5457
4.718233 87.358 -78.8084
4.752424 87.431 -79.0774
4.786862 87.502 -79.3530
4.821549 87.573 -79.6352
4.856488 87.643 -79.9238
4.891680 87.712 -80.2184
4.927127 87.780 -80.5182
4.962831 87.847 -80.8226
4.998794 87.913 -81.1307
5.035017 87.978 -81.4420
5.071503 88.042 -81.7559
5.108253 88.105 -82.0724
5.145270 88.166 -82.3915
5.182555 88.226 -82.7132
5.220110 88.285 -83.0376
5.257937 88.343 -83.3645
5.296038 88.400 -83.6931
5.334415 88.456 -84.0228
5.373071 88.510 -84.3526
5.412006 88.564 -84.6819
5.451224 88.617 -85.0099
5.490725 88.669 -85.3365
5.530514 88.720 -85.6616
5.570590 88.770 -85.9852
5.610957 88.820 -86.3074
5.651616 88.869 -86.6283
5.692570 88.917 -86.9475
5.733821 88.964 -87.2648
5.775370 89.011 -87.5799
5.817221 89.058 -87.8925
5.859375 89.105 -88.2024
5.901834 89.152 -88.5095
5.944602 89.198 -88.8140
5.987679 89.245 -89.1163
6.031068 89.291 -89.4167
6.074771 89.337 -89.7159
6.118792 89.384 -90.0142
6.163131 89.431 -90.3120
6.207792 89.478 -90.6096
6.252776 89.526 -90.9072
6.298086 89.574 -91.2049
6.343725 89.623 -91.5031
6.389694 89.672 -91.8022
6.435996 89.721 -92.1031
6.482634 89.771 -92.4063
6.529610 89.822 -92.7127
6.576926 89.872 -93.0228
6.624585 89.923 -93.3368
6.672590 89.975 -93.6549
6.720942 90.027 -93.9773
6.769645 90.079 -94.3042
6.818700 90.132 -94.6360
6.868111 90.184 -94.9730
6.917881 90.237 -95.3156
6.968010 90.290 -95.6639
7.018504 90.342 -96.0181
7.069362 90.395 -96.3781
7.120590 90.447 -96.7435
7.172189 90.499 -97.1141
7.224161 90.551 -97.4894
7.276511 90.602 -97.8692
7.329239 90.653 -98.2532
7.382350 90.703 -98.6413
7.435845 90.753 -99.0332
7.489729 90.802 -99.4283
7.544002 90.851 -99.8259
7.598669 90.899 -100.2254
7.653732 90.947 -100.6260
7.709194 90.994 -101.0273
7.765058 91.040 -101.4290
7.821327 91.086 -101.8307
7.878004 91.131 -102.2321
7.935091 91.177 -102.6325
7.992592 91.221 -103.0314
8.050510 91.266 -103.4285
8.108847 91.310 -103.8234
8.167607 91.354 -104.2161
8.226793 91.398 -104.6065
8.286408 91.442 -104.9946
8.346454 91.486 -105.3805
8.406936 91.530 -105.7640
8.467856 91.575 -106.1454
8.529218 91.620 -106.5247
8.591024 91.665 -106.9022
8.653278 91.710 -107.2783
8.715983 91.756 -107.6534
8.779143 91.802 -108.0279
8.842760 91.849 -108.4019
8.906839 91.896 -108.7758
8.971381 91.943 -109.1499
9.036392 91.990 -109.5244
9.101873 92.038 -109.8997
9.167829 92.086 -110.2761
9.234263 92.134 -110.6536
9.301178 92.182 -111.0323
9.368578 92.230 -111.4121
9.436467 92.278 -111.7930
9.504847 92.326 -112.1749
9.573723 92.374 -112.5577
9.643099 92.420 -112.9412
9.712976 92.466 -113.3251
9.783361 92.509 -113.7090
9.854255 92.551 -114.0925
9.925663 92.590 -114.4754
9.997588 92.626 -114.8574
10.070035 92.659 -115.2382
10.143007 92.691 -115.6175
10.216507 92.720 -115.9950
10.290540 92.748 -116.3705
10.365109 92.774 -116.7438
10.440219 92.800 -117.1150
10.515873 92.824 -117.4840
10.592076 92.848 -117.8509
10.668830 92.871 -118.2157
10.746141 92.894 -118.5785
10.824012 92.917 -118.9397
10.902447 92.940 -119.2994
10.981451 92.962 -119.6579
11.061027 92.985 -120.0154
11.141180 93.007 -120.3722
11.221913 93.029 -120.7283
11.303232 93.050 -121.0841
11.385140 93.072 -121.4397
11.467641 93.093 -121.7951
11.550741 93.113 -122.1504
11.634442 93.134 -122.5056
11.718750 93.154 -122.8605
11.803669 93.174 -123.2150
11.889203 93.194 -123.5692
11.975357 93.214 -123.9226
12.062136 93.234 -124.2753
12.149543 93.253 -124.6270
12.237583 93.272 -124.9775
12.326262 93.291 -125.3269
12.415583 93.310 -125.6751
12.505552 93.328 -126.0220
12.596172 93.346 -126.3677
12.687449 93.363 -126.7123
12.779387 93.380 -127.0561
12.871992 93.397 -127.3993
12.965268 93.413 -127.7421
13.059220 93.429 -128.0847
13.153852 93.446 -128.4276
13.249170 93.462 -128.7709
13.345179 93.478 -129.1149
13.441884 93.494 -129.4599
13.539289 93.510 -129.8059
13.637401 93.526 -130.1530
13.736223 93.542 -130.5014
13.835761 93.557 -130.8509
13.936021 93.573 -131.2015
14.037007 93.587 -131.5531
14.138725 93.601 -131.9055
14.241180 93.615 -132.2586
14.344377 93.629 -132.6122
14.448323 93.641 -132.9662
14.553021 93.654 -133.3205
14.658478 93.666 -133.6752
14.764700 93.678 -134.0301
14.871691 93.690 -134.3855
14.979457 93.702 -134.7413
15.088005 93.714 -135.0977
15.197339 93.726 -135.4549
15.307465 93.738 -135.8129
15.418389 93.750 -136.1720
15.530117 93.761 -136.5320
15.642655 93.773 -136.8930
15.756008 93.785 -137.2549
15.870182 93.796 -137.6176
15.985184 93.807 -137.9810
16.101019 93.817 -138.3446
16.217694 93.828 -138.7084
16.335214 93.839 -139.0720
16.453586 93.849 -139.4352
16.572815 93.859 -139.7977
16.692909 93.870 -140.1595
16.813872 93.881 -140.5203
16.935713 93.892 -140.8802
17.058436 93.904 -141.2392
17.182048 93.915 -141.5974
17.306556 93.927 -141.9549
17.431967 93.940 -142.3118
17.558286 93.952 -142.6682
17.685521 93.964 -143.0242
17.813677 93.976 -143.3798
17.942762 93.988 -143.7350
18.072783 94.000 -144.0895
18.203746 94.012 -144.4432
18.335658 94.023 -144.7959
18.468526 94.035 -145.1472
18.602356 94.046 -145.4969
18.737156 94.057 -145.8447
18.872934 94.068 -146.1905
19.009695 94.079 -146.5341
19.147447 94.090 -146.8754
19.286197 94.101 -147.2144
19.425953 94.112 -147.5513
19.566721 94.122 -147.8862
19.708510 94.133 -148.2192
19.851326 94.143 -148.5506
19.995177 94.153 -148.8805
20.140070 94.163 -149.2093
20.286013 94.173 -149.5369
20.433014 94.182 -149.8636
20.581080 94.190 -150.1895
20.730219 94.199 -150.5147
20.880439 94.207 -150.8391
21.031747 94.215 -151.1629
21.184152 94.223 -151.4861
21.337661 94.230 -151.8086
21.492282 94.238 -152.1305
21.648024 94.245 -152.4519
21.804895 94.252 -152.7728
21.962902 94.258 -153.0932
22.122054 94.265 -153.4131
22.282360 94.270 -153.7328
22.443827 94.276 -154.0523
22.606464 94.281 -154.3717
22.770280 94.286 -154.6913
22.935283 94.291 -155.0113
23.101481 94.296 -155.3318
23.268884 94.300 -155.6530
23.437500 94.304 -155.9752
23.607338 94.307 -156.2983
23.778406 94.310 -156.6224
23.950714 94.313 -156.9472
24.124271 94.315 -157.2726
24.299086 94.316 -157.5981
24.475167 94.317 -157.9232
24.652524 94.318 -158.2476
24.831166 94.318 -158.5707
25.011103 94.318 -158.8920
25.192344 94.318 -159.2113
25.374898 94.317 -159.5283
25.558775 94.317 -159.8429
25.743984 94.317 -160.1553
25.930536 94.316 -160.4657
26.118439 94.316 -160.7743
26.307704 94.316 -161.0817
26.498341 94.316 -161.3883
26.690359 94.317 -161.6944
26.883768 94.317 -162.0002
27.078579 94.317 -162.3061
27.274801 94.317 -162.6118
27.472446 94.317 -162.9174
27.671522 94.316 -163.2224
27.872042 94.315 -163.5266
28.074014 94.314 -163.8296
28.277450 94.312 -164.1311
28.482360 94.309 -164.4310
28.688755 94.307 -164.7291
28.896645 94.304 -165.0257
29.106042 94.300 -165.3208
29.316957 94.297 -165.6147
29.529400 94.293 -165.9076
29.743382 94.288 -166.1995
29.958915 94.284 -166.4907
30.176009 94.280 -166.7811
30.394677 94.275 -167.0708
30.614929 94.270 -167.3599
30.836778 94.265 -167.6486
31.060234 94.260 -167.9371
31.285309 94.255 -168.2257
31.512015 94.249 -168.5147
31.740364 94.244 -168.8042
31.970368 94.238 -169.0941
32.202039 94.232 -169.3844
32.435388 94.226 -169.6749
32.670428 94.220 -169.9655
32.907171 94.213 -170.2560
33.145630 94.207 -170.5466
33.385817 94.200 -170.8373
33.627745 94.194 -171.1286
33.871425 94.187 -171.4203
34.116871 94.180 -171.7125
34.364096 94.173 -172.0050
34.613113 94.166 -172.2972
34.863934 94.158 -172.5886
35.116572 94.150 -172.8788
35.371041 94.142 -173.1673
35.627354 94.133 -173.4540
35.885525 94.123 -173.7388
36.145566 94.114 -174.0217
36.407492 94.104 -174.3027
36.671316 94.094 -174.5815
36.937051 94.083 -174.8579
37.204712 94.072 -175.1317
37.474313 94.061 -175.4028
37.745867 94.049 -175.6716
38.019389 94.038 -175.9386
38.294893 94.027 -176.2046
38.572394 94.015 -176.4706
38.851905 94.003 -176.7372
39.133442 93.991 -177.0046
39.417019 93.979 -177.2727
39.702651 93.966 -177.5408
39.990353 93.953 -177.8081
40.280140 93.939 -178.0736
40.572026 93.925 -178.3370
40.866028 93.910 -178.5982
41.162160 93.896 -178.8575
41.460438 93.882 -179.1155
41.760877 93.867 -179.3725
42.063494 93.852 -179.6288
42.368303 93.837 -179.8842
42.675322 93.822 179.8619
42.984565 93.807 179.6099
43.296048 93.791 179.3603
43.609789 93.775 179.1129
43.925804 93.759 178.8674
44.244108 93.743 178.6230
44.564719 93.726 178.3789
44.887654 93.710 178.1346
45.212928 93.693 177.8901
45.540560 93.676 177.6454
45.870565 93.659 177.4010
46.202962 93.641 177.1575
46.537768 93.623 176.9149
46.875000 93.604 176.6736
47.214676 93.585 176.4334
47.556813 93.566 176.1943
47.901429 93.547 175.9564
48.248542 93.528 175.7198
48.598171 93.508 175.4846
48.950334 93.489 175.2511
49.305048 93.469 175.0192
49.662333 93.450 174.7886
50.022206 93.430 174.5591
50.384688 93.410 174.3307
50.749796 93.390 174.1035
51.117550 93.369 173.8783
51.487969 93.348 173.6557
51.861072 93.327 173.4364
52.236879 93.306 173.2204
52.615409 93.285 173.0074
52.996681 93.264 172.7970
53.380717 93.242 172.5887
53.767536 93.221 172.3825
54.157158 93.199 172.1790
54.549603 93.177 171.9783
54.944892 93.155 171.7802
55.343045 93.134 171.5837
55.744084 93.112 171.3870
56.148028 93.091 171.1886
56.554900 93.070 170.9876
56.964720 93.049 170.7837
57.377510 93.027 170.5771
57.793291 93.005 170.3683
58.212085 92.982 170.1580
58.633914 92.959 169.9468
59.058799 92.935 169.7357
59.486764 92.910 169.5262
59.917829 92.884 169.3194
60.352019 92.858 169.1159
60.789354 92.831 168.9159
61.229859 92.804 168.7195
61.673556 92.776 168.5267
62.120468 92.748 168.3381
62.570618 92.719 168.1540
63.024031 92.689 167.9750
63.480729 92.659 167.8018
63.940736 92.628 167.6351
64.404077 92.597 167.4759
64.870776 92.565 167.3254
65.340856 92.533 167.1847
65.814343 92.502 167.0545
66.291261 92.470 166.9357
66.771635 92.439 166.8284
67.255489 92.409 166.7321
67.742850 92.381 166.6447
68.233743 92.354 166.5635
68.728193 92.330 166.4857
69.226226 92.307 166.4083
69.727867 92.287 166.3286
70.233144 92.269 166.2439
70.742083 92.254 166.1510
71.254709 92.240 166.0465
71.771050 92.227 165.9273
72.291132 92.215 165.7915
72.814984 92.204 165.6389
73.342631 92.192 165.4709
73.874102 92.178 165.2900
74.409424 92.164 165.0985
74.948626 92.148 164.8984
75.491734 92.130 164.6914
76.038779 92.109 164.4800
76.589787 92.087 164.2671
77.144788 92.063 164.0555
77.703811 92.037 163.8476
78.266885 92.009 163.6432
78.834039 91.981 163.4409
79.405303 91.953 163.2385
79.980706 91.923 163.0345
80.560280 91.893 162.8280
81.144053 91.862 162.6187
81.732056 91.829 162.4065
82.324320 91.796 162.1924
82.920876 91.761 161.9787
83.521755 91.724 161.7686
84.126988 91.686 161.5656
84.736607 91.645 161.3727
85.350643 91.604 161.1920
85.969129 91.561 161.0242
86.592097 91.517 160.8688
87.219579 91.473 160.7245
87.851608 91.427 160.5901
