* Measurement data measured by REW V5.31.3
* Source: EXCL: Microphone (USB Sound Device        ), MICROPHONE (Master Volume), R, volume: 0.390
* Format: 256k Log Swept Sine, 1 sweep at -12.0 dBFS with no timing reference
* Dated: Apr 16, 2025 11:52:03 PM
* REW Settings:
*  C-weighting compensation: Off
*  Target level: 75.0 dB
* Note: LetShuoer DX1 L
* Measurement: L LetShuoer DX1
* Smoothing: 1/12 octave
* Frequency Step: 96 ppo
* Start Frequency: 0.36621094 Hz
*
* Freq(Hz) SPL(dB) Phase(degrees)
0.366211 87.111 -108.7404
0.368865 87.126 -108.7827
0.371538 87.148 -108.8456
0.374230 87.176 -108.9242
0.376942 87.207 -109.0137
0.379673 87.240 -109.1111
0.382424 87.274 -109.2141
0.385196 87.310 -109.3214
0.387987 87.346 -109.4321
0.390798 87.383 -109.5460
0.393630 87.420 -109.6627
0.396483 87.457 -109.7820
0.399356 87.494 -109.9039
0.402250 87.532 -110.0284
0.405165 87.570 -110.1553
0.408101 87.609 -110.2848
0.411058 87.647 -110.4166
0.414037 87.686 -110.5509
0.417037 87.725 -110.6875
0.420059 87.765 -110.8265
0.423103 87.805 -110.9678
0.426169 87.845 -111.1113
0.429257 87.885 -111.2571
0.432368 87.926 -111.4050
0.435501 87.967 -111.5552
0.438656 88.008 -111.7074
0.441835 88.049 -111.8618
0.445037 88.091 -112.0181
0.448262 88.133 -112.1765
0.451510 88.176 -112.3368
0.454782 88.219 -112.4990
0.458077 88.262 -112.6631
0.461397 88.305 -112.8290
0.464740 88.349 -112.9967
0.468108 88.393 -113.1660
0.471500 88.437 -113.3371
0.474917 88.482 -113.5098
0.478358 88.527 -113.6840
0.481825 88.572 -113.8598
0.485316 88.618 -114.0371
0.488833 88.664 -114.2157
0.492375 88.710 -114.3958
0.495943 88.757 -114.5772
0.499537 88.804 -114.7599
0.503157 88.851 -114.9438
0.506803 88.899 -115.1289
0.510475 88.947 -115.3151
0.514175 88.995 -115.5024
0.517900 89.044 -115.6908
0.521653 89.093 -115.8801
0.525434 89.142 -116.0704
0.529241 89.192 -116.2616
0.533076 89.242 -116.4537
0.536939 89.293 -116.6466
0.540830 89.344 -116.8402
0.544749 89.395 -117.0346
0.548696 89.446 -117.2297
0.552673 89.498 -117.4254
0.556677 89.551 -117.6217
0.560711 89.603 -117.8187
0.564774 89.657 -118.0161
0.568867 89.710 -118.2141
0.572989 89.764 -118.4126
0.577141 89.818 -118.6115
0.581324 89.873 -118.8108
0.585536 89.928 -119.0105
0.589779 89.983 -119.2106
0.594053 90.039 -119.4111
0.598358 90.096 -119.6119
0.602694 90.152 -119.8130
0.607061 90.209 -120.0144
0.611460 90.267 -120.2160
0.615891 90.325 -120.4179
0.620354 90.383 -120.6201
0.624849 90.442 -120.8226
0.629377 90.501 -121.0253
0.633938 90.561 -121.2282
0.638532 90.621 -121.4314
0.643159 90.681 -121.6348
0.647819 90.742 -121.8385
0.652514 90.804 -122.0425
0.657242 90.865 -122.2467
0.662005 90.928 -122.4512
0.666802 90.990 -122.6560
0.671634 91.054 -122.8612
0.676501 91.117 -123.0667
0.681403 91.181 -123.2727
0.686341 91.246 -123.4790
0.691314 91.311 -123.6858
0.696324 91.376 -123.8932
0.701370 91.441 -124.1011
0.706452 91.507 -124.3098
0.711571 91.572 -124.5193
0.716728 91.636 -124.7299
0.721921 91.699 -124.9418
0.727153 91.759 -125.1555
0.732422 91.815 -125.3714
0.737729 91.868 -125.5903
0.743075 91.917 -125.8126
0.748460 91.963 -126.0387
0.753883 92.007 -126.2690
0.759346 92.049 -126.5035
0.764849 92.090 -126.7423
0.770391 92.130 -126.9854
0.775974 92.169 -127.2327
0.781597 92.207 -127.4840
0.787261 92.244 -127.7393
0.792966 92.281 -127.9984
0.798712 92.317 -128.2612
0.804500 92.352 -128.5276
0.810329 92.386 -128.7973
0.816201 92.420 -129.0703
0.822116 92.453 -129.3463
0.828073 92.485 -129.6253
0.834074 92.516 -129.9071
0.840118 92.547 -130.1915
0.846206 92.577 -130.4784
0.852338 92.606 -130.7676
0.858514 92.634 -131.0589
0.864735 92.661 -131.3522
0.871001 92.688 -131.6472
0.877313 92.714 -131.9440
0.883670 92.739 -132.2422
0.890074 92.763 -132.5416
0.896524 92.787 -132.8423
0.903020 92.810 -133.1438
0.909564 92.831 -133.4462
0.916155 92.853 -133.7491
0.922794 92.873 -134.0524
0.929481 92.892 -134.3560
0.936216 92.911 -134.6597
0.943000 92.929 -134.9633
0.949834 92.946 -135.2665
0.956717 92.962 -135.5693
0.963649 92.977 -135.8714
0.970632 92.992 -136.1727
0.977666 93.006 -136.4729
0.984750 93.019 -136.7720
0.991886 93.031 -137.0696
0.999074 93.043 -137.3656
1.006314 93.053 -137.6598
1.013606 93.063 -137.9521
1.020951 93.073 -138.2421
1.028349 93.081 -138.5298
1.035801 93.089 -138.8150
1.043307 93.096 -139.0974
1.050867 93.102 -139.3770
1.058482 93.108 -139.6537
1.066152 93.113 -139.9274
1.073878 93.117 -140.1984
1.081660 93.120 -140.4671
1.089498 93.123 -140.7342
1.097393 93.125 -141.0008
1.105345 93.126 -141.2684
1.113355 93.126 -141.5385
1.121423 93.125 -141.8124
1.129549 93.124 -142.0909
1.137734 93.121 -142.3746
1.145979 93.117 -142.6639
1.154283 93.112 -142.9590
1.162647 93.105 -143.2597
1.171072 93.098 -143.5660
1.179558 93.089 -143.8777
1.188106 93.079 -144.1948
1.196715 93.067 -144.5168
1.205387 93.055 -144.8437
1.214122 93.040 -145.1751
1.222920 93.024 -145.5108
1.231782 93.007 -145.8503
1.240708 92.988 -146.1933
1.249699 92.968 -146.5395
1.258754 92.946 -146.8883
1.267876 92.922 -147.2393
1.277063 92.896 -147.5920
1.286318 92.869 -147.9458
1.295639 92.840 -148.3000
1.305027 92.809 -148.6541
1.314484 92.776 -149.0071
1.324009 92.741 -149.3585
1.333604 92.703 -149.7072
1.343268 92.664 -150.0525
1.353002 92.623 -150.3932
1.362806 92.579 -150.7283
1.372681 92.533 -151.0567
1.382628 92.484 -151.3771
1.392647 92.433 -151.6883
1.402739 92.380 -151.9889
1.412904 92.324 -152.2777
1.423142 92.265 -152.5535
1.433455 92.203 -152.8152
1.443843 92.138 -153.0623
1.454305 92.070 -153.2948
1.464844 91.998 -153.5132
1.475459 91.922 -153.7189
1.486150 91.841 -153.9133
1.496920 91.755 -154.0978
1.507767 91.665 -154.2731
1.518693 91.569 -154.4396
1.529698 91.469 -154.5974
1.540783 91.364 -154.7461
1.551948 91.254 -154.8852
1.563194 91.140 -155.0140
1.574521 91.022 -155.1317
1.585931 90.900 -155.2373
1.597423 90.775 -155.3297
1.608999 90.646 -155.4077
1.620658 90.514 -155.4702
1.632402 90.380 -155.5155
1.644232 90.243 -155.5421
1.656146 90.105 -155.5483
1.668147 89.964 -155.5322
1.680235 89.823 -155.4917
1.692411 89.681 -155.4245
1.704675 89.538 -155.3283
1.717028 89.396 -155.2002
1.729470 89.254 -155.0375
1.742003 89.113 -154.8370
1.754626 88.974 -154.5953
1.767341 88.837 -154.3088
1.780147 88.701 -153.9735
1.793047 88.568 -153.5852
1.806040 88.437 -153.1392
1.819128 88.308 -152.6305
1.832310 88.178 -152.0537
1.845587 88.048 -151.4027
1.858961 87.916 -150.6714
1.872432 87.780 -149.8537
1.886001 87.641 -148.9432
1.899667 87.499 -147.9338
1.913433 87.353 -146.8197
1.927299 87.205 -145.5951
1.941265 87.056 -144.2545
1.955332 86.906 -142.7933
1.969501 86.758 -141.2075
1.983773 86.611 -139.4945
1.998148 86.468 -137.6531
2.012627 86.329 -135.6847
2.027212 86.198 -133.5928
2.041902 86.074 -131.3844
2.056698 85.960 -129.0698
2.071602 85.858 -126.6628
2.086614 85.769 -124.1811
2.101734 85.695 -121.6454
2.116964 85.640 -119.0790
2.132304 85.603 -116.5062
2.147756 85.589 -113.9512
2.163320 85.598 -111.4359
2.178996 85.634 -108.9784
2.194786 85.698 -106.5917
2.210690 85.792 -104.2846
2.226710 85.916 -102.0629
2.242845 86.070 -99.9326
2.259098 86.253 -97.9000
2.275468 86.463 -95.9717
2.291957 86.699 -94.1536
2.308566 86.957 -92.4504
2.325295 87.236 -90.8650
2.342145 87.532 -89.3987
2.359117 87.842 -88.0510
2.376212 88.163 -86.8203
2.393431 88.493 -85.7037
2.410775 88.827 -84.6978
2.428244 89.162 -83.7986
2.445840 89.496 -83.0017
2.463564 89.826 -82.3027
2.481416 90.147 -81.6971
2.499397 90.459 -81.1805
2.517509 90.759 -80.7485
2.535752 91.046 -80.3967
2.554127 91.321 -80.1207
2.572635 91.584 -79.9156
2.591277 91.838 -79.7765
2.610055 92.083 -79.6984
2.628968 92.323 -79.6762
2.648019 92.558 -79.7048
2.667208 92.788 -79.7795
2.686535 93.014 -79.8957
2.706003 93.236 -80.0491
2.725612 93.454 -80.2359
2.745363 93.668 -80.4525
2.765257 93.878 -80.6955
2.785295 94.084 -80.9623
2.805478 94.286 -81.2503
2.825808 94.483 -81.5574
2.846285 94.676 -81.8822
2.866910 94.864 -82.2238
2.887685 95.048 -82.5823
2.908611 95.226 -82.9584
2.929688 95.399 -83.3537
2.950917 95.566 -83.7701
2.972301 95.727 -84.2093
2.993839 95.882 -84.6713
3.015534 96.031 -85.1555
3.037386 96.174 -85.6597
3.059396 96.312 -86.1814
3.081565 96.444 -86.7176
3.103896 96.571 -87.2652
3.126388 96.694 -87.8210
3.149043 96.812 -88.3821
3.171862 96.926 -88.9456
3.194847 97.036 -89.5093
3.217998 97.143 -90.0716
3.241317 97.247 -90.6315
3.264805 97.347 -91.1896
3.288463 97.444 -91.7473
3.312293 97.537 -92.3073
3.336295 97.626 -92.8726
3.360471 97.711 -93.4451
3.384822 97.791 -94.0256
3.409350 97.867 -94.6135
3.434056 97.938 -95.2073
3.458940 98.005 -95.8045
3.484005 98.068 -96.4023
3.509252 98.128 -96.9978
3.534681 98.185 -97.5878
3.560295 98.238 -98.1695
3.586094 98.289 -98.7404
3.612081 98.337 -99.2990
3.638255 98.383 -99.8446
3.664620 98.426 -100.3779
3.691175 98.465 -100.9005
3.717923 98.502 -101.4145
3.744864 98.535 -101.9215
3.772001 98.565 -102.4223
3.799335 98.591 -102.9168
3.826866 98.615 -103.4045
3.854597 98.636 -103.8841
3.882529 98.655 -104.3541
3.910664 98.673 -104.8129
3.939002 98.689 -105.2585
3.967546 98.704 -105.6893
3.996296 98.718 -106.1038
4.025255 98.731 -106.5011
4.054423 98.742 -106.8810
4.083804 98.753 -107.2439
4.113396 98.762 -107.5905
4.143204 98.770 -107.9220
4.173227 98.777 -108.2394
4.203468 98.783 -108.5440
4.233928 98.789 -108.8368
4.264609 98.795 -109.1187
4.295512 98.801 -109.3904
4.326639 98.809 -109.6521
4.357992 98.817 -109.9037
4.389572 98.827 -110.1446
4.421380 98.838 -110.3741
4.453419 98.850 -110.5917
4.485691 98.864 -110.7978
4.518196 98.878 -110.9936
4.550936 98.894 -111.1815
4.583914 98.911 -111.3639
4.617131 98.930 -111.5440
4.650589 98.950 -111.7247
4.684289 98.971 -111.9085
4.718233 98.995 -112.0972
4.752424 99.020 -112.2919
4.786862 99.047 -112.4925
4.821549 99.076 -112.6988
4.856488 99.107 -112.9106
4.891680 99.140 -113.1287
4.927127 99.174 -113.3541
4.962831 99.210 -113.5889
4.998794 99.246 -113.8350
5.035017 99.282 -114.0947
5.071503 99.319 -114.3699
5.108253 99.356 -114.6622
5.145270 99.393 -114.9721
5.182555 99.431 -115.3000
5.220110 99.468 -115.6452
5.257937 99.506 -116.0070
5.296038 99.542 -116.3845
5.334415 99.579 -116.7770
5.373071 99.614 -117.1838
5.412006 99.647 -117.6047
5.451224 99.679 -118.0397
5.490725 99.709 -118.4894
5.530514 99.737 -118.9540
5.570590 99.763 -119.4336
5.610957 99.787 -119.9273
5.651616 99.809 -120.4333
5.692570 99.828 -120.9493
5.733821 99.845 -121.4728
5.775370 99.859 -122.0015
5.817221 99.871 -122.5339
5.859375 99.880 -123.0689
5.901834 99.886 -123.6066
5.944602 99.890 -124.1468
5.987679 99.890 -124.6888
6.031068 99.888 -125.2311
6.074771 99.884 -125.7716
6.118792 99.877 -126.3076
6.163131 99.868 -126.8369
6.207792 99.858 -127.3575
6.252776 99.845 -127.8684
6.298086 99.831 -128.3693
6.343725 99.815 -128.8602
6.389694 99.797 -129.3409
6.435996 99.779 -129.8111
6.482634 99.760 -130.2701
6.529610 99.741 -130.7170
6.576926 99.722 -131.1510
6.624585 99.703 -131.5715
6.672590 99.685 -131.9786
6.720942 99.667 -132.3730
6.769645 99.650 -132.7561
6.818700 99.634 -133.1296
6.868111 99.620 -133.4952
6.917881 99.608 -133.8543
6.968010 99.597 -134.2078
7.018504 99.589 -134.5564
7.069362 99.582 -134.9010
7.120590 99.578 -135.2434
7.172189 99.576 -135.5857
7.224161 99.576 -135.9305
7.276511 99.578 -136.2802
7.329239 99.582 -136.6363
7.382350 99.587 -137.0000
7.435845 99.594 -137.3719
7.489729 99.603 -137.7527
7.544002 99.613 -138.1430
7.598669 99.624 -138.5438
7.653732 99.635 -138.9560
7.709194 99.646 -139.3800
7.765058 99.657 -139.8159
7.821327 99.669 -140.2631
7.878004 99.679 -140.7206
7.935091 99.690 -141.1868
7.992592 99.699 -141.6606
8.050510 99.706 -142.1409
8.108847 99.713 -142.6265
8.167607 99.718 -143.1165
8.226793 99.722 -143.6090
8.286408 99.724 -144.1021
8.346454 99.724 -144.5933
8.406936 99.723 -145.0807
8.467856 99.721 -145.5628
8.529218 99.717 -146.0383
8.591024 99.712 -146.5061
8.653278 99.705 -146.9650
8.715983 99.698 -147.4135
8.779143 99.691 -147.8504
8.842760 99.683 -148.2750
8.906839 99.675 -148.6870
8.971381 99.668 -149.0866
9.036392 99.660 -149.4741
9.101873 99.653 -149.8501
9.167829 99.647 -150.2149
9.234263 99.642 -150.5693
9.301178 99.638 -150.9142
9.368578 99.636 -151.2511
9.436467 99.634 -151.5813
9.504847 99.634 -151.9065
9.573723 99.635 -152.2280
9.643099 99.637 -152.5468
9.712976 99.640 -152.8639
9.783361 99.644 -153.1806
9.854255 99.649 -153.4979
9.925663 99.654 -153.8166
9.997588 99.660 -154.1370
10.070035 99.665 -154.4594
10.143007 99.671 -154.7835
10.216507 99.676 -155.1093
10.290540 99.681 -155.4365
10.365109 99.685 -155.7645
10.440219 99.688 -156.0928
10.515873 99.690 -156.4204
10.592076 99.692 -156.7466
10.668830 99.692 -157.0705
10.746141 99.692 -157.3915
10.824012 99.691 -157.7090
10.902447 99.689 -158.0225
10.981451 99.686 -158.3315
11.061027 99.682 -158.6358
11.141180 99.678 -158.9352
11.221913 99.673 -159.2299
11.303232 99.667 -159.5202
11.385140 99.662 -159.8064
11.467641 99.656 -160.0889
11.550741 99.649 -160.3681
11.634442 99.642 -160.6448
11.718750 99.635 -160.9194
11.803669 99.628 -161.1923
11.889203 99.620 -161.4641
11.975357 99.611 -161.7350
12.062136 99.602 -162.0052
12.149543 99.593 -162.2749
12.237583 99.582 -162.5442
12.326262 99.572 -162.8129
12.415583 99.560 -163.0810
12.505552 99.548 -163.3484
12.596172 99.535 -163.6150
12.687449 99.522 -163.8807
12.779387 99.508 -164.1457
12.871992 99.494 -164.4101
12.965268 99.480 -164.6741
13.059220 99.465 -164.9381
13.153852 99.450 -165.2027
13.249170 99.436 -165.4685
13.345179 99.421 -165.7361
13.441884 99.406 -166.0063
13.539289 99.391 -166.2796
13.637401 99.376 -166.5566
13.736223 99.361 -166.8377
13.835761 99.345 -167.1232
13.936021 99.330 -167.4132
14.037007 99.314 -167.7075
14.138725 99.297 -168.0057
14.241180 99.280 -168.3074
14.344377 99.263 -168.6117
14.448323 99.245 -168.9179
14.553021 99.226 -169.2254
14.658478 99.208 -169.5331
14.764700 99.189 -169.8406
14.871691 99.170 -170.1472
14.979457 99.151 -170.4527
15.088005 99.132 -170.7570
15.197339 99.114 -171.0600
15.307465 99.097 -171.3622
15.418389 99.080 -171.6640
15.530117 99.064 -171.9658
15.642655 99.048 -172.2682
15.756008 99.034 -172.5717
15.870182 99.020 -172.8765
15.985184 99.006 -173.1828
16.101019 98.993 -173.4906
16.217694 98.981 -173.7995
16.335214 98.968 -174.1089
16.453586 98.956 -174.4182
16.572815 98.944 -174.7266
16.692909 98.932 -175.0332
16.813872 98.921 -175.3371
16.935713 98.909 -175.6375
17.058436 98.898 -175.9341
17.182048 98.887 -176.2262
17.306556 98.876 -176.5138
17.431967 98.866 -176.7969
17.558286 98.856 -177.0755
17.685521 98.846 -177.3498
17.813677 98.837 -177.6202
17.942762 98.827 -177.8868
18.072783 98.818 -178.1497
18.203746 98.809 -178.4089
18.335658 98.800 -178.6642
18.468526 98.790 -178.9156
18.602356 98.780 -179.1625
18.737156 98.770 -179.4048
18.872934 98.759 -179.6422
19.009695 98.748 -179.8745
19.147447 98.736 179.8984
19.286197 98.724 179.6765
19.425953 98.712 179.4594
19.566721 98.699 179.2468
19.708510 98.685 179.0385
19.851326 98.672 178.8339
19.995177 98.657 178.6326
20.140070 98.642 178.4343
20.286013 98.627 178.2385
20.433014 98.611 178.0449
20.581080 98.595 177.8528
20.730219 98.578 177.6617
20.880439 98.561 177.4709
21.031747 98.543 177.2796
21.184152 98.525 177.0870
21.337661 98.507 176.8923
21.492282 98.488 176.6948
21.648024 98.468 176.4940
21.804895 98.448 176.2898
21.962902 98.427 176.0825
22.122054 98.405 175.8728
22.282360 98.382 175.6615
22.443827 98.358 175.4499
22.606464 98.334 175.2390
22.770280 98.309 175.0297
22.935283 98.285 174.8225
23.101481 98.260 174.6174
23.268884 98.236 174.4141
23.437500 98.213 174.2114
23.607338 98.190 174.0082
23.778406 98.169 173.8032
23.950714 98.148 173.5951
24.124271 98.128 173.3834
24.299086 98.109 173.1678
24.475167 98.090 172.9487
24.652524 98.071 172.7270
24.831166 98.052 172.5041
25.011103 98.034 172.2813
25.192344 98.015 172.0601
25.374898 97.996 171.8416
25.558775 97.978 171.6268
25.743984 97.960 171.4162
25.930536 97.942 171.2102
26.118439 97.924 171.0090
26.307704 97.907 170.8129
26.498341 97.889 170.6219
26.690359 97.872 170.4364
26.883768 97.854 170.2566
27.078579 97.837 170.0827
27.274801 97.819 169.9148
27.472446 97.801 169.7527
27.671522 97.783 169.5961
27.872042 97.765 169.4446
28.074014 97.747 169.2977
28.277450 97.728 169.1549
28.482360 97.709 169.0159
28.688755 97.689 168.8804
28.896645 97.669 168.7482
29.106042 97.648 168.6190
29.316957 97.627 168.4924
29.529400 97.605 168.3676
29.743382 97.583 168.2441
29.958915 97.561 168.1207
30.176009 97.538 167.9967
30.394677 97.515 167.8714
30.614929 97.492 167.7441
30.836778 97.468 167.6148
31.060234 97.444 167.4832
31.285309 97.420 167.3495
31.512015 97.396 167.2138
31.740364 97.371 167.0761
31.970368 97.347 166.9363
32.202039 97.322 166.7947
32.435388 97.298 166.6512
32.670428 97.273 166.5060
32.907171 97.249 166.3595
33.145630 97.225 166.2122
33.385817 97.202 166.0645
33.627745 97.178 165.9173
33.871425 97.154 165.7711
34.116871 97.131 165.6267
34.364096 97.107 165.4850
34.613113 97.084 165.3467
34.863934 97.061 165.2125
35.116572 97.038 165.0829
35.371041 97.015 164.9581
35.627354 96.992 164.8380
35.885525 96.969 164.7222
36.145566 96.947 164.6103
36.407492 96.924 164.5016
36.671316 96.902 164.3956
36.937051 96.879 164.2920
37.204712 96.856 164.1907
37.474313 96.832 164.0917
37.745867 96.808 163.9951
38.019389 96.784 163.9010
38.294893 96.759 163.8094
38.572394 96.733 163.7203
38.851905 96.708 163.6335
39.133442 96.682 163.5487
39.417019 96.655 163.4659
39.702651 96.629 163.3849
39.990353 96.603 163.3058
40.280140 96.576 163.2286
40.572026 96.550 163.1532
40.866028 96.524 163.0790
41.162160 96.498 163.0056
41.460438 96.473 162.9320
41.760877 96.447 162.8580
42.063494 96.422 162.7833
42.368303 96.397 162.7086
42.675322 96.372 162.6351
42.984565 96.347 162.5639
43.296048 96.321 162.4962
43.609789 96.296 162.4324
43.925804 96.270 162.3724
44.244108 96.245 162.3157
44.564719 96.220 162.2615
44.887654 96.195 162.2087
45.212928 96.171 162.1566
45.540560 96.146 162.1049
45.870565 96.121 162.0532
46.202962 96.097 162.0014
46.537768 96.071 161.9497
46.875000 96.046 161.8985
47.214676 96.020 161.8481
47.556813 95.994 161.7987
47.901429 95.968 161.7505
48.248542 95.942 161.7035
48.598171 95.916 161.6577
48.950334 95.890 161.6133
49.305048 95.863 161.5710
49.662333 95.837 161.5316
50.022206 95.810 161.4963
50.384688 95.783 161.4656
50.749796 95.756 161.4399
51.117550 95.730 161.4188
51.487969 95.703 161.4019
51.861072 95.678 161.3884
52.236879 95.652 161.3779
52.615409 95.626 161.3702
52.996681 95.601 161.3647
53.380717 95.576 161.3605
53.767536 95.552 161.3566
54.157158 95.527 161.3524
54.549603 95.502 161.3477
54.944892 95.478 161.3430
55.343045 95.453 161.3386
55.744084 95.429 161.3343
56.148028 95.405 161.3288
56.554900 95.381 161.3209
56.964720 95.358 161.3100
57.377510 95.334 161.2974
57.793291 95.309 161.2850
58.212085 95.284 161.2747
58.633914 95.259 161.2672
59.058799 95.235 161.2618
59.486764 95.210 161.2576
59.917829 95.185 161.2544
60.352019 95.159 161.2531
60.789354 95.133 161.2552
61.229859 95.107 161.2617
61.673556 95.081 161.2725
62.120468 95.055 161.2869
62.570618 95.029 161.3037
63.024031 95.003 161.3226
63.480729 94.977 161.3432
63.940736 94.951 161.3656
64.404077 94.926 161.3895
64.870776 94.902 161.4142
65.340856 94.878 161.4388
65.814343 94.854 161.4623
66.291261 94.831 161.4839
66.771635 94.807 161.5038
67.255489 94.783 161.5234
67.742850 94.759 161.5455
68.233743 94.734 161.5728
68.728193 94.710 161.6067
69.226226 94.686 161.6460
69.727867 94.663 161.6876
70.233144 94.641 161.7273
70.742083 94.620 161.7626
71.254709 94.599 161.7933
71.771050 94.577 161.8209
72.291132 94.554 161.8481
72.814984 94.532 161.8775
73.342631 94.509 161.9112
73.874102 94.486 161.9503
74.409424 94.464 161.9943
74.948626 94.443 162.0416
75.491734 94.423 162.0898
76.038779 94.403 162.1375
76.589787 94.384 162.1852
77.144788 94.364 162.2347
77.703811 94.346 162.2880
78.266885 94.327 162.3451
78.834039 94.310 162.4027
79.405303 94.295 162.4561
79.980706 94.280 162.5009
80.560280 94.264 162.5360
81.144053 94.248 162.5634
