* Measurement data measured by REW V5.31.3
* Source: EXCL: Microphone (USB Sound Device        ), MICROPHONE (Master Volume), R, volume: 0.390
* Format: 256k Log Swept Sine, 1 sweep at -15.0 dBFS with no timing reference
* Dated: May 17, 2025 4:17:15 PM
* REW Settings:
*  C-weighting compensation: Off
*  Target level: 75.0 dB
* Note: Lime Ears Maris R
* Measurement: R Lime Ears Maris
* Smoothing: 1/12 octave
* Frequency Step: 96 ppo
* Start Frequency: 0.36621094 Hz
*
* Freq(Hz) SPL(dB) Phase(degrees)
0.366211 94.374 157.6511
0.368865 94.368 157.6280
0.371538 94.358 157.5934
0.374230 94.347 157.5499
0.376942 94.334 157.4997
0.379673 94.320 157.4445
0.382424 94.305 157.3854
0.385196 94.291 157.3230
0.387987 94.275 157.2577
0.390798 94.260 157.1898
0.393630 94.244 157.1192
0.396483 94.229 157.0461
0.399356 94.213 156.9705
0.402250 94.197 156.8923
0.405165 94.181 156.8115
0.408101 94.165 156.7281
0.411058 94.149 156.6422
0.414037 94.132 156.5535
0.417037 94.116 156.4622
0.420059 94.099 156.3682
0.423103 94.082 156.2715
0.426169 94.065 156.1720
0.429257 94.049 156.0697
0.432368 94.031 155.9647
0.435501 94.014 155.8568
0.438656 93.997 155.7461
0.441835 93.979 155.6325
0.445037 93.962 155.5160
0.448262 93.944 155.3966
0.451510 93.926 155.2743
0.454782 93.908 155.1490
0.458077 93.890 155.0207
0.461397 93.872 154.8895
0.464740 93.853 154.7552
0.468108 93.835 154.6179
0.471500 93.816 154.4775
0.474917 93.797 154.3341
0.478358 93.778 154.1876
0.481825 93.759 154.0380
0.485316 93.740 153.8852
0.488833 93.721 153.7294
0.492375 93.701 153.5704
0.495943 93.682 153.4083
0.499537 93.662 153.2430
0.503157 93.642 153.0745
0.506803 93.622 152.9029
0.510475 93.602 152.7281
0.514175 93.582 152.5502
0.517900 93.561 152.3691
0.521653 93.540 152.1848
0.525434 93.520 151.9973
0.529241 93.499 151.8067
0.533076 93.478 151.6130
0.536939 93.456 151.4161
0.540830 93.435 151.2160
0.544749 93.413 151.0129
0.548696 93.392 150.8067
0.552673 93.370 150.5975
0.556677 93.348 150.3851
0.560711 93.326 150.1698
0.564774 93.303 149.9516
0.568867 93.281 149.7303
0.572989 93.258 149.5062
0.577141 93.235 149.2792
0.581324 93.212 149.0494
0.585536 93.189 148.8169
0.589779 93.166 148.5816
0.594053 93.142 148.3437
0.598358 93.119 148.1033
0.602694 93.095 147.8604
0.607061 93.071 147.6150
0.611460 93.047 147.3673
0.615891 93.022 147.1173
0.620354 92.998 146.8652
0.624849 92.973 146.6111
0.629377 92.948 146.3550
0.633938 92.923 146.0971
0.638532 92.898 145.8374
0.643159 92.872 145.5762
0.647819 92.847 145.3136
0.652514 92.821 145.0497
0.657242 92.795 144.7846
0.662005 92.769 144.5186
0.666802 92.742 144.2517
0.671634 92.716 143.9843
0.676501 92.689 143.7164
0.681403 92.662 143.4483
0.686341 92.635 143.1802
0.691314 92.607 142.9122
0.696324 92.580 142.6447
0.701370 92.552 142.3778
0.706452 92.523 142.1116
0.711571 92.494 141.8462
0.716728 92.464 141.5816
0.721921 92.433 141.3176
0.727153 92.401 141.0536
0.732422 92.366 140.7889
0.737729 92.328 140.5225
0.743075 92.289 140.2532
0.748460 92.248 139.9800
0.753883 92.205 139.7023
0.759346 92.161 139.4195
0.764849 92.117 139.1312
0.770391 92.072 138.8372
0.775974 92.026 138.5372
0.781597 91.980 138.2313
0.787261 91.933 137.9192
0.792966 91.886 137.6009
0.798712 91.838 137.2763
0.804500 91.790 136.9453
0.810329 91.741 136.6079
0.816201 91.692 136.2639
0.822116 91.641 135.9135
0.828073 91.590 135.5564
0.834074 91.538 135.1926
0.840118 91.486 134.8222
0.846206 91.432 134.4450
0.852338 91.378 134.0611
0.858514 91.323 133.6704
0.864735 91.267 133.2729
0.871001 91.209 132.8686
0.877313 91.151 132.4575
0.883670 91.092 132.0397
0.890074 91.031 131.6151
0.896524 90.969 131.1839
0.903020 90.906 130.7460
0.909564 90.841 130.3017
0.916155 90.775 129.8508
0.922794 90.708 129.3937
0.929481 90.639 128.9303
0.936216 90.568 128.4609
0.943000 90.496 127.9856
0.949834 90.422 127.5047
0.956717 90.346 127.0183
0.963649 90.268 126.5268
0.970632 90.189 126.0305
0.977666 90.107 125.5295
0.984750 90.023 125.0245
0.991886 89.937 124.5156
0.999074 89.848 124.0034
1.006314 89.757 123.4884
1.013606 89.664 122.9711
1.020951 89.568 122.4520
1.028349 89.469 121.9319
1.035801 89.368 121.4114
1.043307 89.263 120.8912
1.050867 89.156 120.3721
1.058482 89.045 119.8549
1.066152 88.931 119.3404
1.073878 88.814 118.8292
1.081660 88.693 118.3219
1.089498 88.568 117.8188
1.097393 88.438 117.3198
1.105345 88.305 116.8244
1.113355 88.167 116.3318
1.121423 88.023 115.8411
1.129549 87.875 115.3515
1.137734 87.721 114.8623
1.145979 87.563 114.3728
1.154283 87.399 113.8824
1.162647 87.230 113.3905
1.171072 87.056 112.8966
1.179558 86.878 112.4001
1.188106 86.695 111.9004
1.196715 86.507 111.3969
1.205387 86.315 110.8889
1.214122 86.119 110.3757
1.222920 85.919 109.8567
1.231782 85.714 109.3310
1.240708 85.507 108.7978
1.249699 85.295 108.2562
1.258754 85.081 107.7053
1.267876 84.863 107.1440
1.277063 84.643 106.5713
1.286318 84.420 105.9859
1.295639 84.195 105.3867
1.305027 83.969 104.7722
1.314484 83.740 104.1410
1.324009 83.510 103.4916
1.333604 83.279 102.8222
1.343268 83.047 102.1312
1.353002 82.815 101.4165
1.362806 82.582 100.6761
1.372681 82.350 99.9079
1.382628 82.119 99.1095
1.392647 81.889 98.2786
1.402739 81.660 97.4127
1.412904 81.433 96.5091
1.423142 81.208 95.5655
1.433455 80.985 94.5790
1.443843 80.764 93.5473
1.454305 80.544 92.4677
1.464844 80.323 91.3372
1.475459 80.101 90.1521
1.486150 79.876 88.9072
1.496920 79.646 87.5956
1.507767 79.410 86.2075
1.518693 79.169 84.7311
1.529698 78.922 83.1511
1.540783 78.670 81.4487
1.551948 78.414 79.6008
1.563194 78.154 77.5786
1.574521 77.892 75.3462
1.585931 77.627 72.8586
1.597423 77.362 70.0594
1.608999 77.098 66.8772
1.620658 76.836 63.2226
1.632402 76.578 58.9847
1.644232 76.323 54.0298
1.656146 76.076 48.2067
1.668147 75.835 41.3646
1.680235 75.605 33.3962
1.692411 75.385 24.3113
1.704675 75.178 14.3223
1.717028 74.986 3.8784
1.729470 74.811 -6.4246
1.742003 74.656 -16.0361
1.754626 74.521 -24.6096
1.767341 74.410 -32.0329
1.780147 74.325 -38.3625
1.793047 74.269 -43.7377
1.806040 74.245 -48.3209
1.819128 74.256 -52.2677
1.832310 74.304 -55.7136
1.845587 74.391 -58.7708
1.858961 74.519 -61.5268
1.872432 74.688 -64.0465
1.886001 74.897 -66.3761
1.899667 75.144 -68.5485
1.913433 75.426 -70.5871
1.927299 75.740 -72.5087
1.941265 76.083 -74.3262
1.955332 76.452 -76.0491
1.969501 76.843 -77.6850
1.983773 77.251 -79.2401
1.998148 77.674 -80.7191
2.012627 78.107 -82.1262
2.027212 78.546 -83.4646
2.041902 78.988 -84.7371
2.056698 79.427 -85.9459
2.071602 79.860 -87.0930
2.086614 80.283 -88.1802
2.101734 80.691 -89.2092
2.116964 81.081 -90.1817
2.132304 81.450 -91.1001
2.147756 81.794 -91.9676
2.163320 82.111 -92.7886
2.178996 82.401 -93.5697
2.194786 82.664 -94.3192
2.210690 82.901 -95.0471
2.226710 83.116 -95.7628
2.242845 83.311 -96.4739
2.259098 83.488 -97.1850
2.275468 83.648 -97.8985
2.291957 83.793 -98.6144
2.308566 83.925 -99.3317
2.325295 84.044 -100.0486
2.342145 84.151 -100.7626
2.359117 84.247 -101.4708
2.376212 84.333 -102.1702
2.393431 84.411 -102.8575
2.410775 84.482 -103.5294
2.428244 84.545 -104.1824
2.445840 84.604 -104.8129
2.463564 84.658 -105.4174
2.481416 84.710 -105.9928
2.499397 84.758 -106.5363
2.517509 84.806 -107.0462
2.535752 84.852 -107.5220
2.554127 84.896 -107.9651
2.572635 84.937 -108.3788
2.591277 84.974 -108.7674
2.610055 85.007 -109.1352
2.628968 85.033 -109.4855
2.648019 85.053 -109.8203
2.667208 85.067 -110.1405
2.686535 85.075 -110.4461
2.706003 85.077 -110.7361
2.725612 85.075 -111.0094
2.745363 85.068 -111.2642
2.765257 85.058 -111.4985
2.785295 85.045 -111.7098
2.805478 85.029 -111.8956
2.825808 85.013 -112.0529
2.846285 84.996 -112.1786
2.866910 84.979 -112.2692
2.887685 84.962 -112.3215
2.908611 84.946 -112.3320
2.929688 84.929 -112.2976
2.950917 84.912 -112.2161
2.972301 84.893 -112.0866
2.993839 84.873 -111.9096
3.015534 84.850 -111.6867
3.037386 84.826 -111.4208
3.059396 84.800 -111.1154
3.081565 84.775 -110.7745
3.103896 84.749 -110.4024
3.126388 84.725 -110.0035
3.149043 84.703 -109.5825
3.171862 84.685 -109.1434
3.194847 84.671 -108.6897
3.217998 84.662 -108.2235
3.241317 84.660 -107.7450
3.264805 84.666 -107.2520
3.288463 84.678 -106.7399
3.312293 84.699 -106.2034
3.336295 84.728 -105.6391
3.360471 84.763 -105.0467
3.384822 84.806 -104.4293
3.409350 84.856 -103.7926
3.434056 84.911 -103.1436
3.458940 84.972 -102.4905
3.484005 85.038 -101.8421
3.509252 85.109 -101.2070
3.534681 85.184 -100.5938
3.560295 85.263 -100.0106
3.586094 85.345 -99.4640
3.612081 85.431 -98.9593
3.638255 85.521 -98.4995
3.664620 85.614 -98.0852
3.691175 85.712 -97.7147
3.717923 85.815 -97.3857
3.744864 85.922 -97.0960
3.772001 86.034 -96.8443
3.799335 86.149 -96.6298
3.826866 86.266 -96.4527
3.854597 86.385 -96.3132
3.882529 86.505 -96.2120
3.910664 86.623 -96.1499
3.939002 86.739 -96.1278
3.967546 86.852 -96.1467
3.996296 86.961 -96.2076
4.025255 87.067 -96.3115
4.054423 87.169 -96.4587
4.083804 87.268 -96.6487
4.113396 87.363 -96.8795
4.143204 87.455 -97.1483
4.173227 87.544 -97.4513
4.203468 87.629 -97.7841
4.233928 87.710 -98.1425
4.264609 87.786 -98.5225
4.295512 87.858 -98.9210
4.326639 87.925 -99.3357
4.357992 87.986 -99.7661
4.389572 88.041 -100.2131
4.421380 88.090 -100.6785
4.453419 88.133 -101.1642
4.485691 88.169 -101.6705
4.518196 88.200 -102.1955
4.550936 88.225 -102.7358
4.583914 88.245 -103.2864
4.617131 88.258 -103.8418
4.650589 88.267 -104.3964
4.684289 88.270 -104.9455
4.718233 88.268 -105.4855
4.752424 88.260 -106.0151
4.786862 88.247 -106.5346
4.821549 88.228 -107.0454
4.856488 88.203 -107.5488
4.891680 88.173 -108.0444
4.927127 88.138 -108.5308
4.962831 88.098 -109.0049
4.998794 88.055 -109.4630
5.035017 88.009 -109.9009
5.071503 87.959 -110.3144
5.108253 87.908 -110.7001
5.145270 87.854 -111.0557
5.182555 87.798 -111.3803
5.220110 87.739 -111.6743
5.257937 87.679 -111.9389
5.296038 87.617 -112.1759
5.334415 87.555 -112.3867
5.373071 87.494 -112.5729
5.412006 87.436 -112.7352
5.451224 87.380 -112.8737
5.490725 87.327 -112.9877
5.530514 87.278 -113.0763
5.570590 87.233 -113.1397
5.610957 87.191 -113.1803
5.651616 87.154 -113.2025
5.692570 87.122 -113.2126
5.733821 87.094 -113.2178
5.775370 87.072 -113.2251
5.817221 87.056 -113.2402
5.859375 87.046 -113.2669
5.901834 87.043 -113.3071
5.944602 87.047 -113.3624
5.987679 87.056 -113.4352
6.031068 87.071 -113.5291
6.074771 87.091 -113.6495
6.118792 87.115 -113.8017
6.163131 87.143 -113.9912
6.207792 87.173 -114.2221
6.252776 87.206 -114.4965
6.298086 87.241 -114.8150
6.343725 87.279 -115.1765
6.389694 87.318 -115.5793
6.435996 87.358 -116.0216
6.482634 87.397 -116.5020
6.529610 87.436 -117.0197
6.576926 87.472 -117.5743
6.624585 87.507 -118.1656
6.672590 87.539 -118.7927
6.720942 87.568 -119.4525
6.769645 87.595 -120.1407
6.818700 87.619 -120.8516
6.868111 87.639 -121.5798
6.917881 87.656 -122.3208
6.968010 87.670 -123.0717
7.018504 87.679 -123.8307
7.069362 87.685 -124.5957
7.120590 87.688 -125.3634
7.172189 87.687 -126.1288
7.224161 87.684 -126.8864
7.276511 87.678 -127.6310
7.329239 87.670 -128.3584
7.382350 87.661 -129.0662
7.435845 87.650 -129.7530
7.489729 87.638 -130.4177
7.544002 87.626 -131.0586
7.598669 87.615 -131.6739
7.653732 87.606 -132.2614
7.709194 87.598 -132.8195
7.765058 87.593 -133.3479
7.821327 87.591 -133.8473
7.878004 87.593 -134.3201
7.935091 87.598 -134.7690
7.992592 87.608 -135.1971
8.050510 87.623 -135.6066
8.108847 87.644 -135.9997
8.167607 87.669 -136.3786
8.226793 87.700 -136.7465
8.286408 87.737 -137.1078
8.346454 87.778 -137.4668
8.406936 87.823 -137.8274
8.467856 87.873 -138.1924
8.529218 87.927 -138.5634
8.591024 87.985 -138.9417
8.653278 88.045 -139.3285
8.715983 88.107 -139.7251
8.779143 88.170 -140.1324
8.842760 88.234 -140.5506
8.906839 88.298 -140.9788
8.971381 88.361 -141.4151
9.036392 88.424 -141.8573
9.101873 88.486 -142.3028
9.167829 88.545 -142.7495
9.234263 88.602 -143.1953
9.301178 88.657 -143.6375
9.368578 88.710 -144.0733
9.436467 88.760 -144.4992
9.504847 88.808 -144.9121
9.573723 88.853 -145.3096
9.643099 88.896 -145.6901
9.712976 88.937 -146.0519
9.783361 88.976 -146.3936
9.854255 89.014 -146.7139
9.925663 89.051 -147.0122
9.997588 89.088 -147.2883
10.070035 89.123 -147.5430
10.143007 89.158 -147.7774
10.216507 89.194 -147.9928
10.290540 89.229 -148.1909
10.365109 89.265 -148.3731
10.440219 89.302 -148.5415
10.515873 89.338 -148.6985
10.592076 89.375 -148.8464
10.668830 89.412 -148.9872
10.746141 89.449 -149.1227
10.824012 89.486 -149.2542
10.902447 89.522 -149.3833
10.981451 89.558 -149.5112
11.061027 89.592 -149.6386
11.141180 89.626 -149.7660
11.221913 89.658 -149.8935
11.303232 89.689 -150.0212
11.385140 89.718 -150.1490
11.467641 89.745 -150.2768
11.550741 89.770 -150.4045
11.634442 89.794 -150.5318
11.718750 89.816 -150.6589
11.803669 89.836 -150.7858
11.889203 89.854 -150.9129
11.975357 89.871 -151.0408
12.062136 89.886 -151.1703
12.149543 89.900 -151.3021
12.237583 89.913 -151.4372
12.326262 89.924 -151.5765
12.415583 89.933 -151.7212
12.505552 89.941 -151.8721
12.596172 89.948 -152.0299
12.687449 89.953 -152.1951
12.779387 89.955 -152.3680
12.871992 89.956 -152.5487
12.965268 89.955 -152.7369
13.059220 89.952 -152.9321
13.153852 89.948 -153.1338
13.249170 89.941 -153.3411
13.345179 89.932 -153.5536
13.441884 89.923 -153.7704
13.539289 89.911 -153.9913
13.637401 89.899 -154.2159
13.736223 89.887 -154.4445
13.835761 89.874 -154.6776
13.936021 89.861 -154.9161
14.037007 89.849 -155.1611
14.138725 89.837 -155.4141
14.241180 89.826 -155.6768
14.344377 89.816 -155.9508
14.448323 89.807 -156.2376
14.553021 89.799 -156.5385
14.658478 89.792 -156.8543
14.764700 89.786 -157.1855
14.871691 89.780 -157.5317
14.979457 89.775 -157.8923
15.088005 89.770 -158.2659
15.197339 89.765 -158.6506
15.307465 89.760 -159.0441
15.418389 89.756 -159.4442
15.530117 89.752 -159.8481
15.642655 89.748 -160.2537
15.756008 89.746 -160.6586
15.870182 89.744 -161.0612
15.985184 89.744 -161.4603
16.101019 89.746 -161.8552
16.217694 89.751 -162.2456
16.335214 89.757 -162.6317
16.453586 89.766 -163.0141
16.572815 89.778 -163.3934
16.692909 89.791 -163.7702
16.813872 89.807 -164.1448
16.935713 89.825 -164.5174
17.058436 89.845 -164.8876
17.182048 89.865 -165.2547
17.306556 89.886 -165.6173
17.431967 89.908 -165.9740
17.558286 89.930 -166.3230
17.685521 89.953 -166.6625
17.813677 89.975 -166.9908
17.942762 89.997 -167.3065
18.072783 90.019 -167.6085
18.203746 90.041 -167.8961
18.335658 90.063 -168.1693
18.468526 90.084 -168.4282
18.602356 90.106 -168.6733
18.737156 90.127 -168.9056
18.872934 90.147 -169.1257
19.009695 90.167 -169.3347
19.147447 90.186 -169.5335
19.286197 90.204 -169.7227
19.425953 90.221 -169.9031
19.566721 90.237 -170.0754
19.708510 90.251 -170.2403
19.851326 90.264 -170.3987
19.995177 90.275 -170.5515
20.140070 90.285 -170.6997
20.286013 90.293 -170.8448
20.433014 90.300 -170.9881
20.581080 90.305 -171.1307
20.730219 90.308 -171.2741
20.880439 90.310 -171.4194
21.031747 90.310 -171.5673
21.184152 90.309 -171.7187
21.337661 90.305 -171.8742
21.492282 90.301 -172.0346
21.648024 90.295 -172.2007
21.804895 90.289 -172.3736
21.962902 90.282 -172.5547
22.122054 90.274 -172.7458
22.282360 90.266 -172.9489
22.443827 90.258 -173.1656
22.606464 90.251 -173.3979
22.770280 90.243 -173.6469
22.935283 90.235 -173.9131
23.101481 90.226 -174.1961
23.268884 90.218 -174.4950
23.437500 90.209 -174.8077
23.607338 90.199 -175.1319
23.778406 90.190 -175.4649
23.950714 90.180 -175.8040
24.124271 90.171 -176.1468
24.299086 90.163 -176.4914
24.475167 90.156 -176.8363
24.652524 90.151 -177.1805
24.831166 90.147 -177.5234
25.011103 90.145 -177.8643
25.192344 90.145 -178.2030
25.374898 90.146 -178.5386
25.558775 90.149 -178.8705
25.743984 90.154 -179.1976
25.930536 90.160 -179.5188
26.118439 90.167 -179.8332
26.307704 90.174 179.8603
26.498341 90.183 179.5626
26.690359 90.192 179.2744
26.883768 90.201 178.9961
27.078579 90.210 178.7283
27.274801 90.219 178.4710
27.472446 90.227 178.2245
27.671522 90.235 177.9883
27.872042 90.242 177.7618
28.074014 90.248 177.5443
28.277450 90.254 177.3342
28.482360 90.258 177.1303
28.688755 90.261 176.9310
28.896645 90.263 176.7347
29.106042 90.263 176.5403
29.316957 90.261 176.3464
29.529400 90.258 176.1520
29.743382 90.254 175.9560
29.958915 90.247 175.7570
30.176009 90.240 175.5537
30.394677 90.231 175.3446
30.614929 90.221 175.1284
30.836778 90.210 174.9043
31.060234 90.198 174.6722
31.285309 90.185 174.4326
31.512015 90.171 174.1868
31.740364 90.157 173.9360
31.970368 90.143 173.6815
32.202039 90.129 173.4236
32.435388 90.117 173.1620
32.670428 90.106 172.8953
32.907171 90.097 172.6216
33.145630 90.090 172.3391
33.385817 90.085 172.0468
33.627745 90.080 171.7448
33.871425 90.076 171.4346
34.116871 90.073 171.1191
34.364096 90.069 170.8022
34.613113 90.065 170.4881
34.863934 90.060 170.1805
35.116572 90.055 169.8824
35.371041 90.051 169.5956
35.627354 90.046 169.3201
35.885525 90.042 169.0553
36.145566 90.039 168.7994
36.407492 90.035 168.5503
36.671316 90.032 168.3063
36.937051 90.028 168.0661
37.204712 90.023 167.8289
37.474313 90.018 167.5943
37.745867 90.011 167.3619
38.019389 90.004 167.1310
38.294893 89.995 166.9007
38.572394 89.986 166.6697
38.851905 89.976 166.4373
39.133442 89.965 166.2030
39.417019 89.952 165.9675
39.702651 89.940 165.7314
39.990353 89.926 165.4956
40.280140 89.913 165.2600
40.572026 89.901 165.0234
40.866028 89.889 164.7839
41.162160 89.878 164.5394
41.460438 89.868 164.2883
41.760877 89.858 164.0300
42.063494 89.849 163.7651
42.368303 89.840 163.4950
42.675322 89.831 163.2212
42.984565 89.821 162.9451
43.296048 89.812 162.6681
43.609789 89.801 162.3914
43.925804 89.790 162.1165
44.244108 89.778 161.8451
44.564719 89.766 161.5788
44.887654 89.752 161.3185
45.212928 89.739 161.0650
45.540560 89.725 160.8180
45.870565 89.711 160.5770
46.202962 89.697 160.3407
46.537768 89.684 160.1068
46.875000 89.672 159.8719
47.214676 89.661 159.6314
47.556813 89.650 159.3816
47.901429 89.639 159.1208
48.248542 89.626 158.8513
48.598171 89.611 158.5786
48.950334 89.595 158.3094
49.305048 89.578 158.0494
49.662333 89.561 157.7997
50.022206 89.545 157.5574
50.384688 89.530 157.3168
50.749796 89.516 157.0728
51.117550 89.502 156.8229
51.487969 89.487 156.5684
51.861072 89.471 156.3124
52.236879 89.454 156.0582
52.615409 89.437 155.8076
52.996681 89.419 155.5602
53.380717 89.401 155.3146
53.767536 89.384 155.0682
54.157158 89.367 154.8185
54.549603 89.351 154.5634
54.944892 89.335 154.3019
55.343045 89.319 154.0339
55.744084 89.303 153.7599
56.148028 89.288 153.4801
56.554900 89.273 153.1939
56.964720 89.257 152.9013
57.377510 89.240 152.6046
57.793291 89.222 152.3091
58.212085 89.202 152.0231
58.633914 89.182 151.7534
59.058799 89.161 151.5025
59.486764 89.142 151.2673
59.917829 89.125 151.0399
60.352019 89.110 150.8120
60.789354 89.095 150.5773
61.229859 89.080 150.3340
61.673556 89.063 150.0833
62.120468 89.045 149.8287
62.570618 89.026 149.5732
63.024031 89.005 149.3186
63.480729 88.984 149.0646
63.940736 88.963 148.8097
64.404077 88.942 148.5520
64.870776 88.921 148.2909
65.340856 88.899 148.0272
65.814343 88.877 147.7625
66.291261 88.856 147.4985
66.771635 88.834 147.2357
67.255489 88.813 146.9738
67.742850 88.792 146.7125
68.233743 88.771 146.4525
68.728193 88.749 146.1951
69.226226 88.728 145.9402
69.727867 88.708 145.6857
70.233144 88.688 145.4277
70.742083 88.667 145.1633
71.254709 88.646 144.8918
71.771050 88.624 144.6150
72.291132 88.600 144.3369
72.814984 88.574 144.0638
73.342631 88.547 143.8034
73.874102 88.519 143.5602
74.409424 88.494 143.3308
74.948626 88.471 143.1044
75.491734 88.450 142.8698
76.038779 88.429 142.6229
76.589787 88.408 142.3669
77.144788 88.387 142.1048
77.703811 88.365 141.8371
78.266885 88.343 141.5636
78.834039 88.319 141.2870
79.405303 88.295 141.0112
79.980706 88.271 140.7361
80.560280 88.246 140.4575
81.144053 88.222 140.1703
81.732056 88.197 139.8730
82.324320 88.170 139.5687
82.920876 88.140 139.2620
83.521755 88.109 138.9570
84.126988 88.076 138.6566
84.736607 88.041 138.3626
85.350643 88.005 138.0760
