* Measurement data measured by REW V5.31.3
* Source: EXCL: Microphone (USB Sound Device        ), no input selected, R, volume: 0.390
* Format: 256k Log Swept Sine, 1 sweep at -12.0 dBFS with no timing reference
* Dated: Jul 23, 2025 12:11:09 AM
* REW Settings:
*  C-weighting compensation: Off
*  Target level: 75.0 dB
* Note: Mangird Tea R
* Measurement: R Mangird Tea
* Smoothing: 1/12 octave
* Frequency Step: 96 ppo
* Start Frequency: 0.36621094 Hz
*
* Freq(Hz) SPL(dB) Phase(degrees)
0.366211 95.075 -60.4598
0.368865 95.083 -60.5204
0.371538 95.095 -60.6108
0.374230 95.111 -60.7239
0.376942 95.128 -60.8536
0.379673 95.146 -60.9951
0.382424 95.165 -61.1457
0.385196 95.184 -61.3034
0.387987 95.204 -61.4672
0.390798 95.224 -61.6365
0.393630 95.245 -61.8109
0.396483 95.265 -61.9903
0.399356 95.286 -62.1746
0.402250 95.307 -62.3638
0.405165 95.328 -62.5579
0.408101 95.349 -62.7569
0.411058 95.370 -62.9607
0.414037 95.391 -63.1693
0.417037 95.413 -63.3828
0.420059 95.435 -63.6012
0.423103 95.457 -63.8243
0.426169 95.479 -64.0523
0.429257 95.501 -64.2851
0.432368 95.523 -64.5226
0.435501 95.546 -64.7649
0.438656 95.568 -65.0119
0.441835 95.591 -65.2637
0.445037 95.614 -65.5201
0.448262 95.638 -65.7811
0.451510 95.661 -66.0468
0.454782 95.684 -66.3170
0.458077 95.708 -66.5917
0.461397 95.732 -66.8709
0.464740 95.756 -67.1545
0.468108 95.780 -67.4424
0.471500 95.805 -67.7347
0.474917 95.829 -68.0312
0.478358 95.854 -68.3320
0.481825 95.879 -68.6368
0.485316 95.904 -68.9456
0.488833 95.929 -69.2585
0.492375 95.955 -69.5752
0.495943 95.980 -69.8958
0.499537 96.006 -70.2201
0.503157 96.032 -70.5480
0.506803 96.059 -70.8795
0.510475 96.085 -71.2144
0.514175 96.112 -71.5528
0.517900 96.138 -71.8944
0.521653 96.165 -72.2392
0.525434 96.193 -72.5870
0.529241 96.220 -72.9378
0.533076 96.247 -73.2915
0.536939 96.275 -73.6480
0.540830 96.303 -74.0070
0.544749 96.331 -74.3686
0.548696 96.360 -74.7326
0.552673 96.388 -75.0989
0.556677 96.417 -75.4674
0.560711 96.446 -75.8380
0.564774 96.475 -76.2104
0.568867 96.505 -76.5847
0.572989 96.535 -76.9607
0.577141 96.564 -77.3382
0.581324 96.594 -77.7172
0.585536 96.625 -78.0975
0.589779 96.655 -78.4790
0.594053 96.686 -78.8616
0.598358 96.717 -79.2451
0.602694 96.748 -79.6294
0.607061 96.780 -80.0145
0.611460 96.811 -80.4001
0.615891 96.843 -80.7861
0.620354 96.875 -81.1725
0.624849 96.908 -81.5591
0.629377 96.940 -81.9458
0.633938 96.973 -82.3325
0.638532 97.006 -82.7191
0.643159 97.039 -83.1053
0.647819 97.073 -83.4913
0.652514 97.106 -83.8767
0.657242 97.140 -84.2616
0.662005 97.175 -84.6458
0.666802 97.209 -85.0292
0.671634 97.244 -85.4117
0.676501 97.279 -85.7933
0.681403 97.314 -86.1738
0.686341 97.350 -86.5531
0.691314 97.385 -86.9312
0.696324 97.421 -87.3080
0.701370 97.457 -87.6836
0.706452 97.494 -88.0578
0.711571 97.530 -88.4308
0.716728 97.566 -88.8028
0.721921 97.601 -89.1741
0.727153 97.636 -89.5454
0.732422 97.670 -89.9174
0.737729 97.702 -90.2911
0.743075 97.733 -90.6673
0.748460 97.763 -91.0468
0.753883 97.793 -91.4302
0.759346 97.822 -91.8176
0.764849 97.850 -92.2092
0.770391 97.879 -92.6051
0.775974 97.907 -93.0051
0.781597 97.935 -93.4092
0.787261 97.963 -93.8172
0.792966 97.991 -94.2290
0.798712 98.019 -94.6443
0.804500 98.047 -95.0632
0.810329 98.074 -95.4853
0.816201 98.102 -95.9104
0.822116 98.129 -96.3386
0.828073 98.156 -96.7694
0.834074 98.183 -97.2028
0.840118 98.210 -97.6385
0.846206 98.237 -98.0764
0.852338 98.263 -98.5163
0.858514 98.290 -98.9579
0.864735 98.316 -99.4011
0.871001 98.342 -99.8456
0.877313 98.368 -100.2914
0.883670 98.393 -100.7380
0.890074 98.419 -101.1854
0.896524 98.444 -101.6333
0.903020 98.469 -102.0816
0.909564 98.494 -102.5299
0.916155 98.518 -102.9781
0.922794 98.543 -103.4260
0.929481 98.567 -103.8734
0.936216 98.591 -104.3200
0.943000 98.614 -104.7656
0.949834 98.638 -105.2101
0.956717 98.661 -105.6531
0.963649 98.684 -106.0946
0.970632 98.706 -106.5342
0.977666 98.728 -106.9717
0.984750 98.750 -107.4070
0.991886 98.772 -107.8399
0.999074 98.793 -108.2700
1.006314 98.814 -108.6973
1.013606 98.835 -109.1214
1.020951 98.856 -109.5422
1.028349 98.876 -109.9595
1.035801 98.895 -110.3731
1.043307 98.915 -110.7828
1.050867 98.933 -111.1884
1.058482 98.952 -111.5898
1.066152 98.970 -111.9871
1.073878 98.988 -112.3802
1.081660 99.005 -112.7694
1.089498 99.022 -113.1554
1.097393 99.038 -113.5388
1.105345 99.054 -113.9208
1.113355 99.070 -114.3025
1.121423 99.084 -114.6848
1.129549 99.099 -115.0685
1.137734 99.112 -115.4542
1.145979 99.125 -115.8420
1.154283 99.138 -116.2324
1.162647 99.149 -116.6252
1.171072 99.161 -117.0205
1.179558 99.171 -117.4184
1.188106 99.181 -117.8187
1.196715 99.190 -118.2214
1.205387 99.199 -118.6265
1.214122 99.207 -119.0338
1.222920 99.214 -119.4431
1.231782 99.221 -119.8544
1.240708 99.227 -120.2675
1.249699 99.232 -120.6822
1.258754 99.236 -121.0982
1.267876 99.240 -121.5153
1.277063 99.244 -121.9333
1.286318 99.246 -122.3519
1.295639 99.248 -122.7707
1.305027 99.250 -123.1894
1.314484 99.250 -123.6077
1.324009 99.250 -124.0250
1.333604 99.249 -124.4410
1.343268 99.248 -124.8552
1.353002 99.246 -125.2670
1.362806 99.243 -125.6759
1.372681 99.240 -126.0813
1.382628 99.236 -126.4826
1.392647 99.231 -126.8792
1.402739 99.225 -127.2703
1.412904 99.219 -127.6553
1.423142 99.213 -128.0337
1.433455 99.205 -128.4049
1.443843 99.197 -128.7688
1.454305 99.188 -129.1252
1.464844 99.178 -129.4747
1.475459 99.167 -129.8179
1.486150 99.155 -130.1556
1.496920 99.142 -130.4886
1.507767 99.127 -130.8174
1.518693 99.112 -131.1425
1.529698 99.095 -131.4641
1.540783 99.077 -131.7821
1.551948 99.057 -132.0967
1.563194 99.037 -132.4077
1.574521 99.015 -132.7150
1.585931 98.992 -133.0185
1.597423 98.969 -133.3180
1.608999 98.944 -133.6132
1.620658 98.918 -133.9041
1.632402 98.891 -134.1903
1.644232 98.863 -134.4716
1.656146 98.834 -134.7476
1.668147 98.805 -135.0181
1.680235 98.775 -135.2827
1.692411 98.744 -135.5411
1.704675 98.712 -135.7928
1.717028 98.680 -136.0374
1.729470 98.647 -136.2745
1.742003 98.614 -136.5036
1.754626 98.581 -136.7241
1.767341 98.547 -136.9354
1.780147 98.513 -137.1370
1.793047 98.479 -137.3283
1.806040 98.444 -137.5086
1.819128 98.408 -137.6772
1.832310 98.372 -137.8334
1.845587 98.335 -137.9767
1.858961 98.297 -138.1066
1.872432 98.258 -138.2228
1.886001 98.217 -138.3249
1.899667 98.175 -138.4130
1.913433 98.131 -138.4870
1.927299 98.087 -138.5468
1.941265 98.041 -138.5924
1.955332 97.994 -138.6239
1.969501 97.947 -138.6414
1.983773 97.899 -138.6448
1.998148 97.851 -138.6343
2.012627 97.802 -138.6099
2.027212 97.754 -138.5718
2.041902 97.707 -138.5201
2.056698 97.660 -138.4549
2.071602 97.614 -138.3765
2.086614 97.569 -138.2851
2.101734 97.525 -138.1808
2.116964 97.484 -138.0639
2.132304 97.444 -137.9343
2.147756 97.406 -137.7919
2.163320 97.371 -137.6362
2.178996 97.339 -137.4661
2.194786 97.308 -137.2800
2.210690 97.280 -137.0757
2.226710 97.254 -136.8514
2.242845 97.230 -136.6053
2.259098 97.208 -136.3369
2.275468 97.187 -136.0461
2.291957 97.168 -135.7337
2.308566 97.151 -135.4007
2.325295 97.135 -135.0488
2.342145 97.122 -134.6799
2.359117 97.111 -134.2960
2.376212 97.102 -133.8994
2.393431 97.095 -133.4925
2.410775 97.091 -133.0780
2.428244 97.089 -132.6586
2.445840 97.090 -132.2370
2.463564 97.094 -131.8160
2.481416 97.101 -131.3983
2.499397 97.112 -130.9862
2.517509 97.126 -130.5814
2.535752 97.144 -130.1850
2.554127 97.166 -129.7968
2.572635 97.192 -129.4156
2.591277 97.223 -129.0399
2.610055 97.259 -128.6682
2.628968 97.299 -128.2998
2.648019 97.344 -127.9350
2.667208 97.394 -127.5749
2.686535 97.447 -127.2210
2.706003 97.504 -126.8751
2.725612 97.564 -126.5393
2.745363 97.627 -126.2158
2.765257 97.693 -125.9065
2.785295 97.760 -125.6136
2.805478 97.829 -125.3391
2.825808 97.899 -125.0848
2.846285 97.969 -124.8525
2.866910 98.040 -124.6437
2.887685 98.111 -124.4595
2.908611 98.182 -124.3007
2.929688 98.253 -124.1673
2.950917 98.324 -124.0591
2.972301 98.397 -123.9752
2.993839 98.471 -123.9147
3.015534 98.546 -123.8766
3.037386 98.622 -123.8598
3.059396 98.699 -123.8635
3.081565 98.777 -123.8865
3.103896 98.856 -123.9282
3.126388 98.934 -123.9874
3.149043 99.011 -124.0635
3.171862 99.088 -124.1557
3.194847 99.163 -124.2635
3.217998 99.237 -124.3865
3.241317 99.309 -124.5246
3.264805 99.378 -124.6784
3.288463 99.445 -124.8486
3.312293 99.510 -125.0363
3.336295 99.572 -125.2423
3.360471 99.633 -125.4671
3.384822 99.691 -125.7102
3.409350 99.748 -125.9703
3.434056 99.803 -126.2456
3.458940 99.855 -126.5341
3.484005 99.906 -126.8335
3.509252 99.954 -127.1414
3.534681 100.001 -127.4556
3.560295 100.045 -127.7740
3.586094 100.086 -128.0950
3.612081 100.125 -128.4177
3.638255 100.162 -128.7420
3.664620 100.196 -129.0687
3.691175 100.227 -129.3993
3.717923 100.254 -129.7351
3.744864 100.280 -130.0768
3.772001 100.302 -130.4243
3.799335 100.321 -130.7765
3.826866 100.338 -131.1318
3.854597 100.352 -131.4880
3.882529 100.364 -131.8427
3.910664 100.374 -132.1934
3.939002 100.382 -132.5379
3.967546 100.389 -132.8741
3.996296 100.393 -133.2007
4.025255 100.395 -133.5171
4.054423 100.395 -133.8235
4.083804 100.394 -134.1208
4.113396 100.389 -134.4097
4.143204 100.383 -134.6904
4.173227 100.375 -134.9633
4.203468 100.365 -135.2278
4.233928 100.354 -135.4835
4.264609 100.342 -135.7295
4.295512 100.329 -135.9649
4.326639 100.316 -136.1885
4.357992 100.303 -136.3993
4.389572 100.290 -136.5963
4.421380 100.277 -136.7788
4.453419 100.264 -136.9465
4.485691 100.251 -137.1000
4.518196 100.238 -137.2400
4.550936 100.225 -137.3679
4.583914 100.213 -137.4853
4.617131 100.201 -137.5938
4.650589 100.190 -137.6951
4.684289 100.181 -137.7903
4.718233 100.174 -137.8802
4.752424 100.168 -137.9650
4.786862 100.164 -138.0443
4.821549 100.163 -138.1179
4.856488 100.163 -138.1861
4.891680 100.165 -138.2501
4.927127 100.169 -138.3119
4.962831 100.175 -138.3740
4.998794 100.183 -138.4393
5.035017 100.192 -138.5106
5.071503 100.202 -138.5900
5.108253 100.214 -138.6793
5.145270 100.228 -138.7791
5.182555 100.244 -138.8895
5.220110 100.262 -139.0105
5.257937 100.281 -139.1422
5.296038 100.301 -139.2853
5.334415 100.322 -139.4405
5.373071 100.343 -139.6090
5.412006 100.364 -139.7921
5.451224 100.386 -139.9908
5.490725 100.406 -140.2062
5.530514 100.427 -140.4387
5.570590 100.447 -140.6882
5.610957 100.466 -140.9539
5.651616 100.485 -141.2346
5.692570 100.503 -141.5289
5.733821 100.519 -141.8351
5.775370 100.534 -142.1522
5.817221 100.546 -142.4793
5.859375 100.557 -142.8160
5.901834 100.565 -143.1624
5.944602 100.572 -143.5182
5.987679 100.576 -143.8822
6.031068 100.577 -144.2528
6.074771 100.577 -144.6275
6.118792 100.574 -145.0038
6.163131 100.569 -145.3794
6.207792 100.562 -145.7526
6.252776 100.553 -146.1224
6.298086 100.541 -146.4883
6.343725 100.527 -146.8498
6.389694 100.511 -147.2058
6.435996 100.493 -147.5547
6.482634 100.474 -147.8947
6.529610 100.454 -148.2238
6.576926 100.433 -148.5405
6.624585 100.411 -148.8443
6.672590 100.389 -149.1357
6.720942 100.366 -149.4157
6.769645 100.343 -149.6851
6.818700 100.320 -149.9443
6.868111 100.298 -150.1931
6.917881 100.276 -150.4312
6.968010 100.256 -150.6585
7.018504 100.237 -150.8750
7.069362 100.220 -151.0813
7.120590 100.205 -151.2786
7.172189 100.191 -151.4685
7.224161 100.179 -151.6531
7.276511 100.169 -151.8346
7.329239 100.161 -152.0151
7.382350 100.155 -152.1964
7.435845 100.151 -152.3799
7.489729 100.150 -152.5670
7.544002 100.150 -152.7593
7.598669 100.152 -152.9586
7.653732 100.155 -153.1665
7.709194 100.159 -153.3840
7.765058 100.164 -153.6119
7.821327 100.170 -153.8502
7.878004 100.176 -154.0987
7.935091 100.183 -154.3572
7.992592 100.189 -154.6255
8.050510 100.195 -154.9034
8.108847 100.201 -155.1905
8.167607 100.206 -155.4862
8.226793 100.210 -155.7890
8.286408 100.213 -156.0974
8.346454 100.214 -156.4097
8.406936 100.215 -156.7242
8.467856 100.214 -157.0396
8.529218 100.211 -157.3548
8.591024 100.208 -157.6686
8.653278 100.203 -157.9793
8.715983 100.197 -158.2853
8.779143 100.191 -158.5851
8.842760 100.183 -158.8777
8.906839 100.175 -159.1625
8.971381 100.167 -159.4391
9.036392 100.158 -159.7072
9.101873 100.149 -159.9667
9.167829 100.141 -160.2173
9.234263 100.133 -160.4594
9.301178 100.126 -160.6934
9.368578 100.120 -160.9203
9.436467 100.114 -161.1412
9.504847 100.109 -161.3573
9.573723 100.106 -161.5695
9.643099 100.103 -161.7789
9.712976 100.102 -161.9865
9.783361 100.102 -162.1937
9.854255 100.102 -162.4016
9.925663 100.103 -162.6112
9.997588 100.105 -162.8231
10.070035 100.108 -163.0379
10.143007 100.110 -163.2560
10.216507 100.113 -163.4774
10.290540 100.116 -163.7025
10.365109 100.118 -163.9310
10.440219 100.121 -164.1626
10.515873 100.122 -164.3968
10.592076 100.124 -164.6328
10.668830 100.124 -164.8702
10.746141 100.124 -165.1084
10.824012 100.124 -165.3467
10.902447 100.122 -165.5845
10.981451 100.120 -165.8212
11.061027 100.118 -166.0563
11.141180 100.115 -166.2896
11.221913 100.111 -166.5208
11.303232 100.107 -166.7500
11.385140 100.103 -166.9770
11.467641 100.099 -167.2021
11.550741 100.094 -167.4254
11.634442 100.089 -167.6474
11.718750 100.085 -167.8683
11.803669 100.080 -168.0885
11.889203 100.074 -168.3082
11.975357 100.069 -168.5279
12.062136 100.064 -168.7478
12.149543 100.058 -168.9680
12.237583 100.052 -169.1888
12.326262 100.046 -169.4101
12.415583 100.040 -169.6321
12.505552 100.034 -169.8546
12.596172 100.027 -170.0778
12.687449 100.020 -170.3016
12.779387 100.013 -170.5261
12.871992 100.006 -170.7514
12.965268 100.000 -170.9776
13.059220 99.993 -171.2050
13.153852 99.986 -171.4339
13.249170 99.979 -171.6648
13.345179 99.972 -171.8980
13.441884 99.966 -172.1339
13.539289 99.959 -172.3730
13.637401 99.953 -172.6155
13.736223 99.946 -172.8618
13.835761 99.940 -173.1119
13.936021 99.934 -173.3658
14.037007 99.927 -173.6233
14.138725 99.920 -173.8841
14.241180 99.913 -174.1475
14.344377 99.905 -174.4131
14.448323 99.897 -174.6801
14.553021 99.889 -174.9478
14.658478 99.881 -175.2156
14.764700 99.873 -175.4829
14.871691 99.864 -175.7493
14.979457 99.856 -176.0145
15.088005 99.848 -176.2785
15.197339 99.841 -176.5415
15.307465 99.834 -176.8038
15.418389 99.828 -177.0659
15.530117 99.823 -177.3285
15.642655 99.818 -177.5922
15.756008 99.814 -177.8576
15.870182 99.810 -178.1251
15.985184 99.807 -178.3951
16.101019 99.804 -178.6677
16.217694 99.801 -178.9427
16.335214 99.799 -179.2196
16.453586 99.796 -179.4979
16.572815 99.793 -179.7767
16.692909 99.789 179.9449
16.813872 99.786 179.6680
16.935713 99.782 179.3934
17.058436 99.778 179.1220
17.182048 99.773 178.8544
17.306556 99.769 178.5911
17.431967 99.765 178.3323
17.558286 99.761 178.0779
17.685521 99.757 177.8278
17.813677 99.753 177.5815
17.942762 99.749 177.3385
18.072783 99.746 177.0983
18.203746 99.743 176.8604
18.335658 99.740 176.6242
18.468526 99.737 176.3895
18.602356 99.733 176.1559
18.737156 99.730 175.9232
18.872934 99.727 175.6913
19.009695 99.723 175.4602
19.147447 99.718 175.2298
19.286197 99.714 175.0001
19.425953 99.709 174.7710
19.566721 99.703 174.5427
19.708510 99.697 174.3149
19.851326 99.690 174.0878
19.995177 99.683 173.8613
20.140070 99.675 173.6354
20.286013 99.667 173.4100
20.433014 99.658 173.1851
20.581080 99.648 172.9605
20.730219 99.639 172.7361
20.880439 99.628 172.5115
21.031747 99.618 172.2863
21.184152 99.607 172.0600
21.337661 99.596 171.8322
21.492282 99.585 171.6022
21.648024 99.573 171.3698
21.804895 99.561 171.1345
21.962902 99.549 170.8965
22.122054 99.537 170.6558
22.282360 99.524 170.4128
22.443827 99.511 170.1680
22.606464 99.497 169.9219
22.770280 99.484 169.6750
22.935283 99.470 169.4278
23.101481 99.456 169.1804
23.268884 99.442 168.9327
23.437500 99.429 168.6844
23.607338 99.416 168.4354
23.778406 99.404 168.1851
23.950714 99.391 167.9333
24.124271 99.379 167.6800
24.299086 99.368 167.4254
24.475167 99.356 167.1700
24.652524 99.344 166.9146
24.831166 99.333 166.6599
25.011103 99.321 166.4067
25.192344 99.310 166.1558
25.374898 99.299 165.9075
25.558775 99.288 165.6619
25.743984 99.277 165.4189
25.930536 99.266 165.1780
26.118439 99.256 164.9390
26.307704 99.246 164.7014
26.498341 99.236 164.4651
26.690359 99.226 164.2300
26.883768 99.215 163.9964
27.078579 99.204 163.7647
27.274801 99.193 163.5352
27.472446 99.181 163.3085
27.671522 99.169 163.0848
27.872042 99.156 162.8641
28.074014 99.143 162.6464
28.277450 99.130 162.4312
28.482360 99.116 162.2178
28.688755 99.103 162.0055
28.896645 99.088 161.7935
29.106042 99.074 161.5812
29.316957 99.059 161.3679
29.529400 99.043 161.1534
29.743382 99.028 160.9378
29.958915 99.011 160.7214
30.176009 98.994 160.5048
30.394677 98.976 160.2886
30.614929 98.958 160.0733
30.836778 98.940 159.8589
31.060234 98.922 159.6452
31.285309 98.905 159.4314
31.512015 98.888 159.2163
31.740364 98.871 158.9988
31.970368 98.854 158.7782
32.202039 98.838 158.5541
32.435388 98.821 158.3270
32.670428 98.804 158.0977
32.907171 98.787 157.8679
33.145630 98.770 157.6389
33.385817 98.753 157.4118
33.627745 98.735 157.1871
33.871425 98.718 156.9649
34.116871 98.701 156.7445
34.364096 98.685 156.5255
34.613113 98.668 156.3076
34.863934 98.651 156.0909
35.116572 98.633 155.8762
35.371041 98.615 155.6648
35.627354 98.597 155.4578
35.885525 98.579 155.2559
36.145566 98.560 155.0593
36.407492 98.542 154.8672
36.671316 98.523 154.6781
36.937051 98.506 154.4901
37.204712 98.488 154.3015
37.474313 98.471 154.1107
37.745867 98.453 153.9171
38.019389 98.435 153.7203
38.294893 98.416 153.5208
38.572394 98.398 153.3190
38.851905 98.378 153.1155
39.133442 98.358 152.9106
39.417019 98.338 152.7045
39.702651 98.317 152.4975
39.990353 98.296 152.2900
40.280140 98.275 152.0829
40.572026 98.253 151.8770
40.866028 98.231 151.6732
41.162160 98.209 151.4722
41.460438 98.188 151.2737
41.760877 98.166 151.0770
42.063494 98.146 150.8807
42.368303 98.125 150.6837
42.675322 98.105 150.4853
42.984565 98.084 150.2854
43.296048 98.063 150.0849
43.609789 98.042 149.8849
43.925804 98.020 149.6868
44.244108 97.998 149.4915
44.564719 97.975 149.2994
44.887654 97.952 149.1105
45.212928 97.929 148.9243
45.540560 97.905 148.7404
45.870565 97.882 148.5580
46.202962 97.859 148.3765
46.537768 97.835 148.1953
46.875000 97.812 148.0137
47.214676 97.788 147.8318
47.556813 97.764 147.6498
47.901429 97.740 147.4685
48.248542 97.716 147.2887
48.598171 97.692 147.1111
48.950334 97.668 146.9357
49.305048 97.644 146.7620
49.662333 97.620 146.5892
50.022206 97.597 146.4165
50.384688 97.574 146.2433
50.749796 97.550 146.0698
51.117550 97.527 145.8960
51.487969 97.503 145.7225
51.861072 97.479 145.5501
52.236879 97.455 145.3798
52.615409 97.430 145.2128
52.996681 97.404 145.0500
53.380717 97.379 144.8915
53.767536 97.353 144.7372
54.157158 97.328 144.5859
54.549603 97.303 144.4368
54.944892 97.278 144.2883
55.343045 97.254 144.1395
55.744084 97.231 143.9893
56.148028 97.207 143.8368
56.554900 97.184 143.6816
56.964720 97.161 143.5240
57.377510 97.138 143.3644
57.793291 97.115 143.2034
58.212085 97.092 143.0413
58.633914 97.070 142.8785
59.058799 97.047 142.7155
59.486764 97.024 142.5525
59.917829 97.001 142.3900
60.352019 96.979 142.2280
60.789354 96.956 142.0670
61.229859 96.933 141.9076
61.673556 96.910 141.7508
62.120468 96.887 141.5975
62.570618 96.865 141.4476
63.024031 96.842 141.3002
63.480729 96.820 141.1540
63.940736 96.799 141.0077
64.404077 96.777 140.8609
