* Measurement data measured by REW V5.31.3
* Source: EXCL: Microphone (USB Sound Device        ), no input selected, R, volume: 0.390
* Format: 256k Log Swept Sine, 1 sweep at -12.0 dBFS with no timing reference
* Dated: Jul 23, 2025 12:09:43 AM
* REW Settings:
*  C-weighting compensation: Off
*  Target level: 75.0 dB
* Note: Mangird Tea L
* Measurement: L Mangird Tea
* Smoothing: 1/12 octave
* Frequency Step: 96 ppo
* Start Frequency: 0.36621094 Hz
*
* Freq(Hz) SPL(dB) Phase(degrees)
0.366211 94.711 -60.1897
0.368865 94.719 -60.2497
0.371538 94.731 -60.3394
0.374230 94.746 -60.4516
0.376942 94.763 -60.5801
0.379673 94.781 -60.7206
0.382424 94.800 -60.8699
0.385196 94.819 -61.0263
0.387987 94.839 -61.1888
0.390798 94.858 -61.3567
0.393630 94.878 -61.5298
0.396483 94.899 -61.7078
0.399356 94.919 -61.8908
0.402250 94.940 -62.0786
0.405165 94.960 -62.2713
0.408101 94.981 -62.4688
0.411058 95.002 -62.6711
0.414037 95.023 -62.8783
0.417037 95.045 -63.0903
0.420059 95.066 -63.3071
0.423103 95.088 -63.5287
0.426169 95.110 -63.7551
0.429257 95.132 -63.9863
0.432368 95.154 -64.2223
0.435501 95.176 -64.4630
0.438656 95.198 -64.7084
0.441835 95.221 -64.9585
0.445037 95.244 -65.2132
0.448262 95.267 -65.4726
0.451510 95.290 -65.7366
0.454782 95.313 -66.0051
0.458077 95.336 -66.2781
0.461397 95.360 -66.5556
0.464740 95.384 -66.8375
0.468108 95.408 -67.1237
0.471500 95.432 -67.4142
0.474917 95.456 -67.7090
0.478358 95.481 -68.0079
0.481825 95.505 -68.3109
0.485316 95.530 -68.6180
0.488833 95.555 -68.9290
0.492375 95.580 -69.2440
0.495943 95.606 -69.5627
0.499537 95.631 -69.8851
0.503157 95.657 -70.2112
0.506803 95.683 -70.5409
0.510475 95.709 -70.8740
0.514175 95.735 -71.2105
0.517900 95.762 -71.5502
0.521653 95.788 -71.8931
0.525434 95.815 -72.2391
0.529241 95.842 -72.5880
0.533076 95.869 -72.9398
0.536939 95.897 -73.2943
0.540830 95.925 -73.6515
0.544749 95.952 -74.0112
0.548696 95.980 -74.3732
0.552673 96.009 -74.7376
0.556677 96.037 -75.1041
0.560711 96.066 -75.4727
0.564774 96.095 -75.8432
0.568867 96.124 -76.2156
0.572989 96.153 -76.5895
0.577141 96.183 -76.9651
0.581324 96.212 -77.3421
0.585536 96.242 -77.7204
0.589779 96.272 -78.0998
0.594053 96.303 -78.4804
0.598358 96.333 -78.8618
0.602694 96.364 -79.2441
0.607061 96.395 -79.6270
0.611460 96.427 -80.0105
0.615891 96.458 -80.3945
0.620354 96.490 -80.7787
0.624849 96.522 -81.1631
0.629377 96.554 -81.5476
0.633938 96.586 -81.9321
0.638532 96.619 -82.3164
0.643159 96.652 -82.7003
0.647819 96.685 -83.0839
0.652514 96.718 -83.4670
0.657242 96.752 -83.8495
0.662005 96.786 -84.2312
0.666802 96.820 -84.6122
0.671634 96.854 -84.9921
0.676501 96.889 -85.3711
0.681403 96.924 -85.7489
0.686341 96.959 -86.1255
0.691314 96.994 -86.5009
0.696324 97.030 -86.8748
0.701370 97.065 -87.2474
0.706452 97.101 -87.6187
0.711571 97.137 -87.9886
0.716728 97.172 -88.3574
0.721921 97.207 -88.7256
0.727153 97.241 -89.0936
0.732422 97.275 -89.4622
0.737729 97.306 -89.8324
0.743075 97.337 -90.2051
0.748460 97.367 -90.5812
0.753883 97.395 -90.9610
0.759346 97.424 -91.3448
0.764849 97.452 -91.7329
0.770391 97.480 -92.1251
0.775974 97.507 -92.5215
0.781597 97.535 -92.9220
0.787261 97.562 -93.3263
0.792966 97.590 -93.7344
0.798712 97.617 -94.1461
0.804500 97.644 -94.5612
0.810329 97.671 -94.9796
0.816201 97.698 -95.4011
0.822116 97.724 -95.8255
0.828073 97.751 -96.2526
0.834074 97.777 -96.6822
0.840118 97.803 -97.1142
0.846206 97.829 -97.5483
0.852338 97.855 -97.9844
0.858514 97.880 -98.4223
0.864735 97.906 -98.8617
0.871001 97.931 -99.3024
0.877313 97.956 -99.7443
0.883670 97.981 -100.1871
0.890074 98.006 -100.6307
0.896524 98.030 -101.0747
0.903020 98.054 -101.5190
0.909564 98.078 -101.9634
0.916155 98.102 -102.4077
0.922794 98.126 -102.8516
0.929481 98.149 -103.2950
0.936216 98.172 -103.7375
0.943000 98.194 -104.1790
0.949834 98.217 -104.6193
0.956717 98.239 -105.0581
0.963649 98.261 -105.4953
0.970632 98.283 -105.9305
0.977666 98.304 -106.3637
0.984750 98.325 -106.7944
0.991886 98.345 -107.2227
0.999074 98.366 -107.6481
1.006314 98.386 -108.0705
1.013606 98.405 -108.4898
1.020951 98.425 -108.9055
1.028349 98.443 -109.3176
1.035801 98.462 -109.7259
1.043307 98.480 -110.1301
1.050867 98.498 -110.5300
1.058482 98.515 -110.9256
1.066152 98.532 -111.3168
1.073878 98.549 -111.7036
1.081660 98.565 -112.0864
1.089498 98.580 -112.4657
1.097393 98.595 -112.8422
1.105345 98.610 -113.2170
1.113355 98.624 -113.5913
1.121423 98.637 -113.9660
1.129549 98.650 -114.3419
1.137734 98.662 -114.7195
1.145979 98.674 -115.0992
1.154283 98.684 -115.4810
1.162647 98.695 -115.8651
1.171072 98.704 -116.2515
1.179558 98.713 -116.6403
1.188106 98.721 -117.0313
1.196715 98.729 -117.4245
1.205387 98.736 -117.8198
1.214122 98.742 -118.2171
1.222920 98.748 -118.6162
1.231782 98.753 -119.0171
1.240708 98.757 -119.4196
1.249699 98.760 -119.8233
1.258754 98.763 -120.2283
1.267876 98.765 -120.6342
1.277063 98.767 -121.0406
1.286318 98.767 -121.4475
1.295639 98.767 -121.8543
1.305027 98.767 -122.2608
1.314484 98.765 -122.6666
1.324009 98.763 -123.0713
1.333604 98.760 -123.4743
1.343268 98.757 -123.8753
1.353002 98.752 -124.2737
1.362806 98.747 -124.6689
1.372681 98.742 -125.0603
1.382628 98.736 -125.4473
1.392647 98.728 -125.8292
1.402739 98.721 -126.2054
1.412904 98.712 -126.5752
1.423142 98.703 -126.9380
1.433455 98.693 -127.2933
1.443843 98.683 -127.6408
1.454305 98.671 -127.9805
1.464844 98.658 -128.3127
1.475459 98.645 -128.6382
1.486150 98.630 -128.9576
1.496920 98.614 -129.2719
1.507767 98.597 -129.5814
1.518693 98.578 -129.8865
1.529698 98.558 -130.1875
1.540783 98.537 -130.4843
1.551948 98.515 -130.7770
1.563194 98.491 -131.0654
1.574521 98.466 -131.3495
1.585931 98.440 -131.6290
1.597423 98.412 -131.9038
1.608999 98.384 -132.1736
1.620658 98.354 -132.4383
1.632402 98.324 -132.6975
1.644232 98.293 -132.9509
1.656146 98.260 -133.1983
1.668147 98.227 -133.4393
1.680235 98.194 -133.6735
1.692411 98.159 -133.9005
1.704675 98.124 -134.1200
1.717028 98.089 -134.3314
1.729470 98.053 -134.5342
1.742003 98.016 -134.7280
1.754626 97.979 -134.9121
1.767341 97.942 -135.0861
1.780147 97.905 -135.2491
1.793047 97.868 -135.4006
1.806040 97.830 -135.5398
1.819128 97.792 -135.6659
1.832310 97.753 -135.7782
1.845587 97.714 -135.8758
1.858961 97.673 -135.9581
1.872432 97.631 -136.0247
1.886001 97.587 -136.0752
1.899667 97.542 -136.1094
1.913433 97.496 -136.1273
1.927299 97.448 -136.1287
1.941265 97.399 -136.1137
1.955332 97.350 -136.0823
1.969501 97.300 -136.0346
1.983773 97.250 -135.9706
1.998148 97.199 -135.8905
2.012627 97.149 -135.7945
2.027212 97.099 -135.6826
2.041902 97.049 -135.5551
2.056698 97.001 -135.4124
2.071602 96.954 -135.2546
2.086614 96.908 -135.0823
2.101734 96.864 -134.8957
2.116964 96.823 -134.6952
2.132304 96.784 -134.4811
2.147756 96.748 -134.2533
2.163320 96.714 -134.0113
2.178996 96.684 -133.7543
2.194786 96.657 -133.4806
2.210690 96.633 -133.1880
2.226710 96.611 -132.8744
2.242845 96.593 -132.5380
2.259098 96.576 -132.1783
2.275468 96.562 -131.7954
2.291957 96.550 -131.3902
2.308566 96.541 -130.9642
2.325295 96.534 -130.5193
2.342145 96.530 -130.0577
2.359117 96.528 -129.5819
2.376212 96.529 -129.0946
2.393431 96.533 -128.5987
2.410775 96.539 -128.0971
2.428244 96.548 -127.5930
2.445840 96.561 -127.0895
2.463564 96.577 -126.5899
2.481416 96.596 -126.0970
2.499397 96.618 -125.6134
2.517509 96.644 -125.1414
2.535752 96.675 -124.6819
2.554127 96.709 -124.2350
2.572635 96.748 -123.7998
2.591277 96.792 -123.3745
2.610055 96.841 -122.9578
2.628968 96.895 -122.5491
2.648019 96.955 -122.1486
2.667208 97.018 -121.7572
2.686535 97.087 -121.3765
2.706003 97.159 -121.0080
2.725612 97.234 -120.6538
2.745363 97.313 -120.3156
2.765257 97.393 -119.9953
2.785295 97.476 -119.6947
2.805478 97.560 -119.4155
2.825808 97.645 -119.1594
2.846285 97.730 -118.9277
2.866910 97.814 -118.7216
2.887685 97.899 -118.5422
2.908611 97.983 -118.3900
2.929688 98.066 -118.2651
2.950917 98.150 -118.1671
2.972301 98.234 -118.0954
2.993839 98.319 -118.0488
3.015534 98.404 -118.0263
3.037386 98.491 -118.0267
3.059396 98.578 -118.0488
3.081565 98.665 -118.0915
3.103896 98.753 -118.1535
3.126388 98.839 -118.2339
3.149043 98.926 -118.3314
3.171862 99.011 -118.4452
3.194847 99.094 -118.5745
3.217998 99.176 -118.7188
3.241317 99.255 -118.8780
3.264805 99.332 -119.0524
3.288463 99.406 -119.2428
3.312293 99.478 -119.4503
3.336295 99.547 -119.6759
3.360471 99.614 -119.9200
3.384822 99.679 -120.1822
3.409350 99.742 -120.4611
3.434056 99.802 -120.7551
3.458940 99.860 -121.0620
3.484005 99.916 -121.3793
3.509252 99.970 -121.7047
3.534681 100.021 -122.0359
3.560295 100.071 -122.3707
3.586094 100.117 -122.7075
3.612081 100.161 -123.0453
3.638255 100.203 -123.3840
3.664620 100.242 -123.7244
3.691175 100.278 -124.0679
3.717923 100.311 -124.4159
3.744864 100.341 -124.7692
3.772001 100.368 -125.1276
3.799335 100.393 -125.4903
3.826866 100.414 -125.8557
3.854597 100.434 -126.2217
3.882529 100.451 -126.5862
3.910664 100.466 -126.9467
3.939002 100.479 -127.3010
3.967546 100.490 -127.6474
3.996296 100.500 -127.9844
4.025255 100.508 -128.3117
4.054423 100.513 -128.6295
4.083804 100.517 -128.9384
4.113396 100.518 -129.2393
4.143204 100.518 -129.5326
4.173227 100.515 -129.8184
4.203468 100.511 -130.0966
4.233928 100.506 -130.3665
4.264609 100.499 -130.6277
4.295512 100.493 -130.8791
4.326639 100.485 -131.1199
4.357992 100.478 -131.3490
4.389572 100.471 -131.5657
4.421380 100.464 -131.7693
4.453419 100.457 -131.9596
4.485691 100.449 -132.1370
4.518196 100.442 -132.3024
4.550936 100.434 -132.4572
4.583914 100.427 -132.6028
4.617131 100.421 -132.7408
4.650589 100.415 -132.8729
4.684289 100.411 -133.0001
4.718233 100.408 -133.1232
4.752424 100.407 -133.2424
4.786862 100.408 -133.3575
4.821549 100.410 -133.4682
4.856488 100.414 -133.5746
4.891680 100.419 -133.6780
4.927127 100.426 -133.7801
4.962831 100.434 -133.8831
4.998794 100.444 -133.9896
5.035017 100.455 -134.1021
5.071503 100.467 -134.2225
5.108253 100.481 -134.3524
5.145270 100.496 -134.4924
5.182555 100.512 -134.6425
5.220110 100.530 -134.8028
5.257937 100.549 -134.9732
5.296038 100.569 -135.1541
5.334415 100.589 -135.3464
5.373071 100.609 -135.5508
5.412006 100.629 -135.7684
5.451224 100.649 -136.0002
5.490725 100.669 -136.2471
5.530514 100.688 -136.5094
5.570590 100.706 -136.7872
5.610957 100.723 -137.0796
5.651616 100.740 -137.3856
5.692570 100.756 -137.7037
5.733821 100.770 -138.0325
5.775370 100.782 -138.3708
5.817221 100.793 -138.7179
5.859375 100.801 -139.0734
5.901834 100.808 -139.4373
5.944602 100.812 -139.8094
5.987679 100.814 -140.1887
6.031068 100.814 -140.5736
6.074771 100.812 -140.9619
6.118792 100.808 -141.3512
6.163131 100.802 -141.7396
6.207792 100.793 -142.1253
6.252776 100.783 -142.5076
6.298086 100.770 -142.8860
6.343725 100.755 -143.2602
6.389694 100.739 -143.6292
6.435996 100.721 -143.9919
6.482634 100.701 -144.3467
6.529610 100.681 -144.6920
6.576926 100.660 -145.0266
6.624585 100.638 -145.3494
6.672590 100.615 -145.6603
6.720942 100.592 -145.9594
6.769645 100.569 -146.2474
6.818700 100.547 -146.5247
6.868111 100.524 -146.7921
6.917881 100.503 -147.0497
6.968010 100.483 -147.2978
7.018504 100.464 -147.5367
7.069362 100.447 -147.7670
7.120590 100.431 -147.9903
7.172189 100.416 -148.2083
7.224161 100.404 -148.4232
7.276511 100.393 -148.6369
7.329239 100.384 -148.8508
7.382350 100.377 -149.0660
7.435845 100.372 -149.2834
7.489729 100.369 -149.5040
7.544002 100.367 -149.7295
7.598669 100.367 -149.9614
7.653732 100.368 -150.2013
7.709194 100.369 -150.4502
7.765058 100.372 -150.7086
7.821327 100.376 -150.9766
7.878004 100.379 -151.2539
7.935091 100.383 -151.5403
7.992592 100.387 -151.8356
8.050510 100.391 -152.1393
8.108847 100.394 -152.4512
8.167607 100.396 -152.7704
8.226793 100.397 -153.0959
8.286408 100.398 -153.4260
8.346454 100.397 -153.7590
8.406936 100.395 -154.0934
8.467856 100.393 -154.4281
8.529218 100.389 -154.7618
8.591024 100.383 -155.0935
8.653278 100.377 -155.4217
8.715983 100.371 -155.7449
8.779143 100.363 -156.0618
8.842760 100.355 -156.3715
8.906839 100.347 -156.6734
8.971381 100.338 -156.9673
9.036392 100.329 -157.2531
9.101873 100.321 -157.5306
9.167829 100.314 -157.8000
9.234263 100.307 -158.0614
9.301178 100.300 -158.3156
9.368578 100.295 -158.5634
9.436467 100.291 -158.8062
9.504847 100.288 -159.0452
9.573723 100.286 -159.2813
9.643099 100.286 -159.5156
9.712976 100.286 -159.7493
9.783361 100.288 -159.9835
9.854255 100.291 -160.2195
9.925663 100.294 -160.4583
9.997588 100.298 -160.7005
10.070035 100.303 -160.9465
10.143007 100.308 -161.1966
10.216507 100.313 -161.4510
10.290540 100.318 -161.7097
10.365109 100.323 -161.9726
10.440219 100.327 -162.2391
10.515873 100.331 -162.5086
10.592076 100.335 -162.7804
10.668830 100.337 -163.0538
10.746141 100.339 -163.3280
10.824012 100.340 -163.6023
10.902447 100.340 -163.8760
10.981451 100.340 -164.1482
11.061027 100.339 -164.4183
11.141180 100.337 -164.6861
11.221913 100.335 -164.9511
11.303232 100.333 -165.2133
11.385140 100.330 -165.4724
11.467641 100.327 -165.7287
11.550741 100.323 -165.9822
11.634442 100.320 -166.2333
11.718750 100.316 -166.4824
11.803669 100.312 -166.7299
11.889203 100.309 -166.9761
11.975357 100.305 -167.2215
12.062136 100.301 -167.4664
12.149543 100.297 -167.7113
12.237583 100.293 -167.9564
12.326262 100.289 -168.2019
12.415583 100.284 -168.4479
12.505552 100.280 -168.6947
12.596172 100.275 -168.9422
12.687449 100.270 -169.1906
12.779387 100.265 -169.4400
12.871992 100.260 -169.6904
12.965268 100.254 -169.9420
13.059220 100.249 -170.1949
13.153852 100.243 -170.4494
13.249170 100.238 -170.7058
13.345179 100.232 -170.9641
13.441884 100.226 -171.2248
13.539289 100.220 -171.4881
13.637401 100.215 -171.7541
13.736223 100.208 -172.0231
13.835761 100.202 -172.2949
13.936021 100.196 -172.5696
14.037007 100.189 -172.8469
14.138725 100.182 -173.1265
14.241180 100.174 -173.4080
14.344377 100.167 -173.6909
14.448323 100.159 -173.9746
14.553021 100.150 -174.2587
14.658478 100.142 -174.5427
14.764700 100.133 -174.8261
14.871691 100.125 -175.1088
14.979457 100.116 -175.3906
15.088005 100.108 -175.6716
15.197339 100.101 -175.9521
15.307465 100.093 -176.2325
15.418389 100.087 -176.5133
15.530117 100.080 -176.7951
15.642655 100.075 -177.0785
15.756008 100.070 -177.3641
15.870182 100.065 -177.6522
15.985184 100.060 -177.9431
16.101019 100.056 -178.2366
16.217694 100.052 -178.5327
16.335214 100.047 -178.8307
16.453586 100.043 -179.1299
16.572815 100.038 -179.4295
16.692909 100.032 -179.7284
16.813872 100.027 179.9743
16.935713 100.021 179.6796
17.058436 100.015 179.3884
17.182048 100.009 179.1011
17.306556 100.003 178.8182
17.431967 99.997 178.5397
17.558286 99.991 178.2653
17.685521 99.986 177.9947
17.813677 99.980 177.7273
17.942762 99.976 177.4623
18.072783 99.971 177.1990
18.203746 99.967 176.9367
18.335658 99.963 176.6748
18.468526 99.960 176.4130
18.602356 99.956 176.1510
18.737156 99.951 175.8887
18.872934 99.947 175.6263
19.009695 99.942 175.3640
19.147447 99.936 175.1021
19.286197 99.930 174.8410
19.425953 99.923 174.5811
19.566721 99.916 174.3226
19.708510 99.908 174.0657
19.851326 99.899 173.8105
19.995177 99.890 173.5572
20.140070 99.881 173.3056
20.286013 99.871 173.0554
20.433014 99.860 172.8066
20.581080 99.849 172.5587
20.730219 99.838 172.3115
20.880439 99.827 172.0645
21.031747 99.815 171.8172
21.184152 99.803 171.5694
21.337661 99.790 171.3205
21.492282 99.778 171.0703
21.648024 99.765 170.8184
21.804895 99.752 170.5648
21.962902 99.738 170.3094
22.122054 99.724 170.0524
22.282360 99.709 169.7940
22.443827 99.695 169.5346
22.606464 99.680 169.2746
22.770280 99.665 169.0143
22.935283 99.649 168.7540
23.101481 99.634 168.4939
23.268884 99.619 168.2338
23.437500 99.604 167.9738
23.607338 99.590 167.7133
23.778406 99.575 167.4520
23.950714 99.561 167.1895
24.124271 99.548 166.9256
24.299086 99.535 166.6600
24.475167 99.521 166.3928
24.652524 99.508 166.1243
24.831166 99.495 165.8552
25.011103 99.482 165.5861
25.192344 99.469 165.3180
25.374898 99.455 165.0518
25.558775 99.442 164.7883
25.743984 99.428 164.5283
25.930536 99.414 164.2721
26.118439 99.401 164.0198
26.307704 99.387 163.7709
26.498341 99.374 163.5250
26.690359 99.361 163.2813
26.883768 99.348 163.0389
27.078579 99.335 162.7972
27.274801 99.322 162.5559
27.472446 99.309 162.3151
27.671522 99.295 162.0755
27.872042 99.280 161.8378
28.074014 99.264 161.6031
28.277450 99.248 161.3721
28.482360 99.232 161.1452
28.688755 99.215 160.9222
28.896645 99.198 160.7019
29.106042 99.181 160.4829
29.316957 99.164 160.2635
29.529400 99.147 160.0423
29.743382 99.129 159.8184
29.958915 99.111 159.5920
30.176009 99.092 159.3642
30.394677 99.073 159.1365
30.614929 99.052 158.9108
30.836778 99.031 158.6881
31.060234 99.011 158.4686
31.285309 98.990 158.2512
31.512015 98.970 158.0338
31.740364 98.951 157.8140
31.970368 98.933 157.5897
32.202039 98.914 157.3600
32.435388 98.895 157.1254
32.670428 98.876 156.8879
32.907171 98.855 156.6507
33.145630 98.834 156.4165
33.385817 98.813 156.1874
33.627745 98.792 155.9638
33.871425 98.772 155.7443
34.116871 98.753 155.5263
34.364096 98.734 155.3069
34.613113 98.716 155.0839
34.863934 98.697 154.8571
35.116572 98.678 154.6279
35.371041 98.657 154.3994
35.627354 98.636 154.1754
35.885525 98.613 153.9592
36.145566 98.590 153.7524
36.407492 98.567 153.5543
36.671316 98.546 153.3621
36.937051 98.525 153.1716
37.204712 98.505 152.9786
37.474313 98.485 152.7798
37.745867 98.465 152.5739
38.019389 98.445 152.3622
38.294893 98.422 152.1476
38.572394 98.399 151.9344
38.851905 98.374 151.7263
39.133442 98.348 151.5254
39.417019 98.323 151.3317
39.702651 98.299 151.1428
39.990353 98.276 150.9547
40.280140 98.253 150.7628
40.572026 98.232 150.5638
40.866028 98.210 150.3561
41.162160 98.187 150.1412
41.460438 98.163 149.9227
41.760877 98.138 149.7056
42.063494 98.111 149.4947
42.368303 98.083 149.2935
42.675322 98.056 149.1028
42.984565 98.029 148.9212
43.296048 98.003 148.7449
43.609789 97.979 148.5695
43.925804 97.956 148.3904
44.244108 97.933 148.2050
44.564719 97.910 148.0119
44.887654 97.886 147.8123
45.212928 97.861 147.6088
45.540560 97.834 147.4048
45.870565 97.806 147.2044
46.202962 97.777 147.0107
46.537768 97.747 146.8263
46.875000 97.716 146.6517
47.214676 97.687 146.4860
47.556813 97.658 146.3264
47.901429 97.631 146.1690
48.248542 97.605 146.0098
48.598171 97.580 145.8452
48.950334 97.555 145.6732
49.305048 97.530 145.4938
49.662333 97.504 145.3085
50.022206 97.477 145.1205
50.384688 97.449 144.9338
50.749796 97.419 144.7524
51.117550 97.388 144.5800
51.487969 97.356 144.4185
51.861072 97.324 144.2686
52.236879 97.293 144.1289
52.615409 97.263 143.9971
52.996681 97.234 143.8699
53.380717 97.207 143.7441
53.767536 97.180 143.6169
54.157158 97.155 143.4858
54.549603 97.131 143.3488
54.944892 97.108 143.2036
55.343045 97.085 143.0488
55.744084 97.063 142.8836
56.148028 97.039 142.7087
56.554900 97.015 142.5262
56.964720 96.989 142.3391
57.377510 96.962 142.1504
57.793291 96.934 141.9632
58.212085 96.904 141.7800
58.633914 96.873 141.6028
59.058799 96.841 141.4336
59.486764 96.809 141.2733
59.917829 96.777 141.1219
60.352019 96.744 140.9789
60.789354 96.712 140.8434
61.229859 96.680 140.7146
61.673556 96.649 140.5915
62.120468 96.619 140.4730
62.570618 96.590 140.3573
63.024031 96.561 140.2427
63.480729 96.534 140.1279
