* Measurement data measured by REW V5.31.3
* Source: EXCL: Microphone (USB Sound Device        ), MICROPHONE (Master Volume), R, volume: 0.390
* Format: 256k Log Swept Sine, 1 sweep at -1.0 dBFS with no timing reference
* Dated: Jul 4, 2025 12:19:40 AM
* REW Settings:
*  C-weighting compensation: Off
*  Target level: 75.0 dB
* Note: Moondrop Rays AAA L
* Measurement: L Moondrop Rays AAA L
* Smoothing: 1/12 octave
* Frequency Step: 96 ppo
* Start Frequency: 0.36621094 Hz
*
* Freq(Hz) SPL(dB) Phase(degrees)
0.366211 93.440 -68.1111
0.368865 93.450 -68.1746
0.371538 93.464 -68.2694
0.374230 93.483 -68.3879
0.376942 93.503 -68.5236
0.379673 93.525 -68.6718
0.382424 93.548 -68.8293
0.385196 93.571 -68.9941
0.387987 93.595 -69.1653
0.390798 93.619 -69.3420
0.393630 93.644 -69.5241
0.396483 93.668 -69.7112
0.399356 93.693 -69.9034
0.402250 93.718 -70.1005
0.405165 93.743 -70.3025
0.408101 93.768 -70.5095
0.411058 93.794 -70.7213
0.414037 93.820 -70.9381
0.417037 93.846 -71.1597
0.420059 93.872 -71.3861
0.423103 93.898 -71.6174
0.426169 93.924 -71.8534
0.429257 93.951 -72.0943
0.432368 93.978 -72.3398
0.435501 94.005 -72.5901
0.438656 94.032 -72.8450
0.441835 94.060 -73.1045
0.445037 94.087 -73.3686
0.448262 94.115 -73.6372
0.451510 94.143 -73.9103
0.454782 94.171 -74.1878
0.458077 94.200 -74.4696
0.461397 94.228 -74.7557
0.464740 94.257 -75.0461
0.468108 94.286 -75.3406
0.471500 94.316 -75.6392
0.474917 94.345 -75.9418
0.478358 94.375 -76.2483
0.481825 94.405 -76.5587
0.485316 94.435 -76.8729
0.488833 94.465 -77.1907
0.492375 94.496 -77.5121
0.495943 94.526 -77.8370
0.499537 94.557 -78.1653
0.503157 94.589 -78.4969
0.506803 94.620 -78.8317
0.510475 94.652 -79.1696
0.514175 94.684 -79.5105
0.517900 94.716 -79.8542
0.521653 94.748 -80.2008
0.525434 94.781 -80.5500
0.529241 94.814 -80.9017
0.533076 94.847 -81.2559
0.536939 94.880 -81.6124
0.540830 94.914 -81.9711
0.544749 94.948 -82.3318
0.548696 94.982 -82.6946
0.552673 95.016 -83.0592
0.556677 95.051 -83.4255
0.560711 95.085 -83.7934
0.564774 95.120 -84.1628
0.568867 95.156 -84.5335
0.572989 95.191 -84.9055
0.577141 95.227 -85.2786
0.581324 95.263 -85.6527
0.585536 95.300 -86.0277
0.589779 95.336 -86.4035
0.594053 95.373 -86.7798
0.598358 95.410 -87.1568
0.602694 95.448 -87.5341
0.607061 95.485 -87.9117
0.611460 95.523 -88.2896
0.615891 95.562 -88.6675
0.620354 95.600 -89.0453
0.624849 95.639 -89.4231
0.629377 95.678 -89.8006
0.633938 95.717 -90.1778
0.638532 95.757 -90.5545
0.643159 95.797 -90.9307
0.647819 95.837 -91.3063
0.652514 95.878 -91.6812
0.657242 95.919 -92.0553
0.662005 95.960 -92.4286
0.666802 96.001 -92.8008
0.671634 96.043 -93.1721
0.676501 96.085 -93.5422
0.681403 96.127 -93.9112
0.686341 96.170 -94.2790
0.691314 96.212 -94.6455
0.696324 96.256 -95.0107
0.701370 96.299 -95.3746
0.706452 96.342 -95.7373
0.711571 96.385 -96.0988
0.716728 96.428 -96.4594
0.721921 96.471 -96.8195
0.727153 96.512 -97.1797
0.732422 96.551 -97.5407
0.737729 96.589 -97.9035
0.743075 96.625 -98.2690
0.748460 96.659 -98.6380
0.753883 96.693 -99.0108
0.759346 96.726 -99.3879
0.764849 96.758 -99.7693
0.770391 96.790 -100.1550
0.775974 96.821 -100.5449
0.781597 96.853 -100.9389
0.787261 96.884 -101.3369
0.792966 96.914 -101.7387
0.798712 96.945 -102.1442
0.804500 96.975 -102.5531
0.810329 97.005 -102.9654
0.816201 97.035 -103.3808
0.822116 97.064 -103.7991
0.828073 97.094 -104.2201
0.834074 97.123 -104.6438
0.840118 97.151 -105.0697
0.846206 97.180 -105.4979
0.852338 97.208 -105.9279
0.858514 97.236 -106.3598
0.864735 97.263 -106.7932
0.871001 97.290 -107.2279
0.877313 97.317 -107.6638
0.883670 97.344 -108.1006
0.890074 97.370 -108.5382
0.896524 97.396 -108.9762
0.903020 97.422 -109.4145
0.909564 97.447 -109.8529
0.916155 97.472 -110.2911
0.922794 97.497 -110.7290
0.929481 97.521 -111.1664
0.936216 97.545 -111.6029
0.943000 97.568 -112.0385
0.949834 97.591 -112.4728
0.956717 97.614 -112.9057
0.963649 97.637 -113.3370
0.970632 97.659 -113.7664
0.977666 97.680 -114.1937
0.984750 97.701 -114.6187
0.991886 97.722 -115.0413
0.999074 97.743 -115.4611
1.006314 97.763 -115.8780
1.013606 97.782 -116.2918
1.020951 97.801 -116.7022
1.028349 97.820 -117.1091
1.035801 97.838 -117.5122
1.043307 97.856 -117.9115
1.050867 97.873 -118.3066
1.058482 97.890 -118.6976
1.066152 97.907 -119.0844
1.073878 97.923 -119.4671
1.081660 97.938 -119.8460
1.089498 97.953 -120.2219
1.097393 97.967 -120.5955
1.105345 97.981 -120.9682
1.113355 97.994 -121.3412
1.121423 98.007 -121.7155
1.129549 98.018 -122.0921
1.137734 98.029 -122.4714
1.145979 98.040 -122.8539
1.154283 98.049 -123.2397
1.162647 98.058 -123.6289
1.171072 98.066 -124.0214
1.179558 98.073 -124.4173
1.188106 98.079 -124.8165
1.196715 98.085 -125.2189
1.205387 98.089 -125.6243
1.214122 98.093 -126.0327
1.222920 98.096 -126.4438
1.231782 98.098 -126.8574
1.240708 98.099 -127.2734
1.249699 98.100 -127.6914
1.258754 98.099 -128.1113
1.267876 98.098 -128.5327
1.277063 98.096 -128.9552
1.286318 98.093 -129.3786
1.295639 98.089 -129.8023
1.305027 98.084 -130.2261
1.314484 98.078 -130.6494
1.324009 98.072 -131.0716
1.333604 98.064 -131.4923
1.343268 98.056 -131.9108
1.353002 98.046 -132.3265
1.362806 98.036 -132.7387
1.372681 98.025 -133.1467
1.382628 98.013 -133.5497
1.392647 97.999 -133.9469
1.402739 97.985 -134.3374
1.412904 97.970 -134.7206
1.423142 97.954 -135.0955
1.433455 97.938 -135.4618
1.443843 97.919 -135.8190
1.454305 97.900 -136.1671
1.464844 97.880 -136.5067
1.475459 97.858 -136.8387
1.486150 97.835 -137.1641
1.496920 97.810 -137.4838
1.507767 97.784 -137.7985
1.518693 97.756 -138.1088
1.529698 97.726 -138.4147
1.540783 97.694 -138.7164
1.551948 97.661 -139.0138
1.563194 97.627 -139.3068
1.574521 97.590 -139.5952
1.585931 97.553 -139.8788
1.597423 97.514 -140.1572
1.608999 97.473 -140.4303
1.620658 97.431 -140.6976
1.632402 97.388 -140.9587
1.644232 97.343 -141.2133
1.656146 97.298 -141.4610
1.668147 97.251 -141.7012
1.680235 97.203 -141.9333
1.692411 97.154 -142.1569
1.704675 97.105 -142.3713
1.717028 97.054 -142.5759
1.729470 97.003 -142.7699
1.742003 96.951 -142.9526
1.754626 96.898 -143.1231
1.767341 96.845 -143.2807
1.780147 96.791 -143.4244
1.793047 96.737 -143.5533
1.806040 96.682 -143.6662
1.819128 96.627 -143.7623
1.832310 96.570 -143.8404
1.845587 96.511 -143.8997
1.858961 96.451 -143.9391
1.872432 96.388 -143.9582
1.886001 96.323 -143.9564
1.899667 96.256 -143.9331
1.913433 96.186 -143.8882
1.927299 96.115 -143.8212
1.941265 96.042 -143.7320
1.955332 95.967 -143.6203
1.969501 95.892 -143.4859
1.983773 95.816 -143.3286
1.998148 95.739 -143.1483
2.012627 95.663 -142.9449
2.027212 95.587 -142.7183
2.041902 95.513 -142.4686
2.056698 95.439 -142.1959
2.071602 95.368 -141.9004
2.086614 95.299 -141.5824
2.101734 95.233 -141.2421
2.116964 95.170 -140.8800
2.132304 95.112 -140.4963
2.147756 95.057 -140.0909
2.163320 95.008 -139.6634
2.178996 94.963 -139.2124
2.194786 94.923 -138.7359
2.210690 94.887 -138.2310
2.226710 94.856 -137.6950
2.242845 94.829 -137.1257
2.259098 94.806 -136.5226
2.275468 94.787 -135.8858
2.291957 94.772 -135.2172
2.308566 94.760 -134.5190
2.325295 94.753 -133.7943
2.342145 94.749 -133.0466
2.359117 94.749 -132.2800
2.376212 94.753 -131.4987
2.393431 94.761 -130.7073
2.410775 94.773 -129.9107
2.428244 94.789 -129.1139
2.445840 94.810 -128.3219
2.463564 94.836 -127.5395
2.481416 94.866 -126.7716
2.499397 94.901 -126.0222
2.517509 94.941 -125.2947
2.535752 94.987 -124.5911
2.554127 95.039 -123.9120
2.572635 95.097 -123.2565
2.591277 95.163 -122.6230
2.610055 95.236 -122.0099
2.628968 95.316 -121.4166
2.648019 95.403 -120.8435
2.667208 95.498 -120.2918
2.686535 95.598 -119.7629
2.706003 95.704 -119.2588
2.725612 95.814 -118.7813
2.745363 95.929 -118.3320
2.765257 96.046 -117.9128
2.785295 96.165 -117.5249
2.805478 96.285 -117.1698
2.825808 96.406 -116.8487
2.846285 96.525 -116.5624
2.866910 96.644 -116.3119
2.887685 96.761 -116.0976
2.908611 96.875 -115.9199
2.929688 96.988 -115.7788
2.950917 97.100 -115.6738
2.972301 97.211 -115.6038
2.993839 97.322 -115.5675
3.015534 97.432 -115.5633
3.037386 97.543 -115.5891
3.059396 97.653 -115.6430
3.081565 97.763 -115.7228
3.103896 97.872 -115.8264
3.126388 97.980 -115.9519
3.149043 98.086 -116.0972
3.171862 98.191 -116.2607
3.194847 98.293 -116.4409
3.217998 98.392 -116.6368
3.241317 98.488 -116.8479
3.264805 98.581 -117.0744
3.288463 98.670 -117.3175
3.312293 98.756 -117.5784
3.336295 98.839 -117.8588
3.360471 98.917 -118.1593
3.384822 98.993 -118.4794
3.409350 99.066 -118.8177
3.434056 99.135 -119.1719
3.458940 99.201 -119.5393
3.484005 99.264 -119.9169
3.509252 99.325 -120.3016
3.534681 99.382 -120.6903
3.560295 99.437 -121.0806
3.586094 99.488 -121.4700
3.612081 99.537 -121.8574
3.638255 99.583 -122.2424
3.664620 99.626 -122.6259
3.691175 99.665 -123.0098
3.717923 99.700 -123.3956
3.744864 99.733 -123.7847
3.772001 99.761 -124.1769
3.799335 99.787 -124.5714
3.826866 99.809 -124.9664
3.854597 99.829 -125.3599
3.882529 99.846 -125.7491
3.910664 99.861 -126.1315
3.939002 99.873 -126.5044
3.967546 99.884 -126.8658
3.996296 99.893 -127.2139
4.025255 99.900 -127.5480
4.054423 99.906 -127.8683
4.083804 99.909 -128.1755
4.113396 99.909 -128.4706
4.143204 99.908 -128.7540
4.173227 99.905 -129.0263
4.203468 99.900 -129.2876
4.233928 99.894 -129.5375
4.264609 99.887 -129.7758
4.295512 99.881 -130.0016
4.326639 99.874 -130.2143
4.357992 99.868 -130.4127
4.389572 99.863 -130.5960
4.421380 99.858 -130.7633
4.453419 99.853 -130.9142
4.485691 99.849 -131.0493
4.518196 99.846 -131.1698
4.550936 99.843 -131.2775
4.583914 99.841 -131.3747
4.617131 99.840 -131.4639
4.650589 99.841 -131.5473
4.684289 99.843 -131.6269
4.718233 99.848 -131.7041
4.752424 99.855 -131.7793
4.786862 99.865 -131.8524
4.821549 99.877 -131.9231
4.856488 99.892 -131.9917
4.891680 99.908 -132.0595
4.927127 99.927 -132.1287
4.962831 99.948 -132.2019
4.998794 99.970 -132.2824
5.035017 99.994 -132.3731
5.071503 100.020 -132.4766
5.108253 100.046 -132.5946
5.145270 100.075 -132.7281
5.182555 100.104 -132.8771
5.220110 100.136 -133.0413
5.257937 100.168 -133.2206
5.296038 100.201 -133.4150
5.334415 100.234 -133.6249
5.373071 100.268 -133.8511
5.412006 100.301 -134.0942
5.451224 100.333 -134.3551
5.490725 100.364 -134.6348
5.530514 100.394 -134.9336
5.570590 100.422 -135.2513
5.610957 100.450 -135.5871
5.651616 100.476 -135.9391
5.692570 100.500 -136.3055
5.733821 100.522 -136.6841
5.775370 100.543 -137.0730
5.817221 100.560 -137.4711
5.859375 100.575 -137.8779
5.901834 100.587 -138.2932
5.944602 100.596 -138.7168
5.987679 100.603 -139.1477
6.031068 100.606 -139.5838
6.074771 100.607 -140.0227
6.118792 100.606 -140.4613
6.163131 100.602 -140.8971
6.207792 100.595 -141.3283
6.252776 100.586 -141.7536
6.298086 100.574 -142.1728
6.343725 100.560 -142.5854
6.389694 100.544 -142.9907
6.435996 100.526 -143.3874
6.482634 100.506 -143.7740
6.529610 100.486 -144.1488
6.576926 100.465 -144.5103
6.624585 100.443 -144.8577
6.672590 100.420 -145.1906
6.720942 100.397 -145.5096
6.769645 100.375 -145.8156
6.818700 100.352 -146.1095
6.868111 100.331 -146.3925
6.917881 100.310 -146.6652
6.968010 100.292 -146.9281
7.018504 100.274 -147.1817
7.069362 100.259 -147.4270
7.120590 100.245 -147.6658
7.172189 100.234 -147.9004
7.224161 100.224 -148.1336
7.276511 100.216 -148.3679
7.329239 100.210 -148.6051
7.382350 100.207 -148.8464
7.435845 100.205 -149.0930
7.489729 100.206 -149.3462
7.544002 100.208 -149.6074
7.598669 100.211 -149.8786
7.653732 100.215 -150.1612
7.709194 100.220 -150.4566
7.765058 100.225 -150.7652
7.821327 100.231 -151.0870
7.878004 100.237 -151.4213
7.935091 100.242 -151.7676
7.992592 100.247 -152.1253
8.050510 100.251 -152.4939
8.108847 100.253 -152.8727
8.167607 100.255 -153.2608
8.226793 100.254 -153.6567
8.286408 100.253 -154.0583
8.346454 100.249 -154.4634
8.406936 100.244 -154.8703
8.467856 100.237 -155.2773
8.529218 100.228 -155.6832
8.591024 100.218 -156.0865
8.653278 100.206 -156.4856
8.715983 100.193 -156.8787
8.779143 100.179 -157.2643
8.842760 100.163 -157.6411
8.906839 100.147 -158.0087
8.971381 100.131 -158.3667
9.036392 100.114 -158.7150
9.101873 100.097 -159.0536
9.167829 100.081 -159.3824
9.234263 100.065 -159.7019
9.301178 100.050 -160.0126
9.368578 100.036 -160.3159
9.436467 100.022 -160.6129
9.504847 100.010 -160.9052
9.573723 99.999 -161.1940
9.643099 99.989 -161.4802
9.712976 99.980 -161.7653
9.783361 99.972 -162.0504
9.854255 99.965 -162.3371
9.925663 99.959 -162.6262
9.997588 99.953 -162.9185
10.070035 99.948 -163.2143
10.143007 99.943 -163.5139
10.216507 99.938 -163.8175
10.290540 99.932 -164.1250
10.365109 99.927 -164.4361
10.440219 99.920 -164.7502
10.515873 99.913 -165.0667
10.592076 99.906 -165.3845
10.668830 99.897 -165.7031
10.746141 99.888 -166.0215
10.824012 99.878 -166.3390
10.902447 99.867 -166.6548
10.981451 99.855 -166.9682
11.061027 99.842 -167.2785
11.141180 99.829 -167.5854
11.221913 99.815 -167.8888
11.303232 99.801 -168.1884
11.385140 99.787 -168.4843
11.467641 99.772 -168.7766
11.550741 99.757 -169.0655
11.634442 99.742 -169.3515
11.718750 99.726 -169.6348
11.803669 99.711 -169.9159
11.889203 99.695 -170.1950
11.975357 99.679 -170.4724
12.062136 99.663 -170.7483
12.149543 99.646 -171.0229
12.237583 99.630 -171.2963
12.326262 99.613 -171.5684
12.415583 99.595 -171.8392
12.505552 99.577 -172.1084
12.596172 99.559 -172.3762
12.687449 99.541 -172.6423
12.779387 99.523 -172.9069
12.871992 99.504 -173.1698
12.965268 99.485 -173.4314
13.059220 99.466 -173.6918
13.153852 99.447 -173.9515
13.249170 99.428 -174.2109
13.345179 99.410 -174.4704
13.441884 99.391 -174.7306
13.539289 99.372 -174.9919
13.637401 99.353 -175.2547
13.736223 99.334 -175.5193
13.835761 99.315 -175.7857
13.936021 99.295 -176.0538
14.037007 99.275 -176.3234
14.138725 99.254 -176.5939
14.241180 99.233 -176.8647
14.344377 99.212 -177.1348
14.448323 99.189 -177.4034
14.553021 99.166 -177.6696
14.658478 99.143 -177.9325
14.764700 99.119 -178.1915
14.871691 99.095 -178.4460
14.979457 99.071 -178.6958
15.088005 99.048 -178.9409
15.197339 99.024 -179.1816
15.307465 99.001 -179.4184
15.418389 98.979 -179.6520
15.530117 98.957 -179.8834
15.642655 98.936 179.8867
15.756008 98.915 179.6575
15.870182 98.895 179.4283
15.985184 98.875 179.1988
16.101019 98.856 178.9688
16.217694 98.836 178.7388
16.335214 98.816 178.5092
16.453586 98.796 178.2809
16.572815 98.775 178.0549
16.692909 98.754 177.8324
16.813872 98.732 177.6145
16.935713 98.710 177.4023
17.058436 98.688 177.1965
17.182048 98.666 176.9977
17.306556 98.644 176.8061
17.431967 98.622 176.6217
17.558286 98.600 176.4441
17.685521 98.579 176.2728
17.813677 98.558 176.1071
17.942762 98.537 175.9464
18.072783 98.516 175.7901
18.203746 98.496 175.6378
18.335658 98.476 175.4892
18.468526 98.455 175.3445
18.602356 98.435 175.2036
18.737156 98.414 175.0670
18.872934 98.393 174.9348
19.009695 98.371 174.8076
19.147447 98.350 174.6854
19.286197 98.328 174.5684
19.425953 98.305 174.4564
19.566721 98.283 174.3494
19.708510 98.261 174.2469
19.851326 98.238 174.1488
19.995177 98.215 174.0546
20.140070 98.192 173.9641
20.286013 98.169 173.8772
20.433014 98.145 173.7938
20.581080 98.121 173.7139
20.730219 98.097 173.6377
20.880439 98.072 173.5649
21.031747 98.048 173.4957
21.184152 98.023 173.4295
21.337661 97.999 173.3662
21.492282 97.974 173.3051
21.648024 97.950 173.2457
21.804895 97.926 173.1875
21.962902 97.901 173.1302
22.122054 97.877 173.0739
22.282360 97.853 173.0183
22.443827 97.828 172.9641
22.606464 97.804 172.9117
22.770280 97.779 172.8616
22.935283 97.755 172.8144
23.101481 97.731 172.7702
23.268884 97.707 172.7291
23.437500 97.685 172.6909
23.607338 97.662 172.6549
23.778406 97.641 172.6207
23.950714 97.620 172.5875
24.124271 97.600 172.5550
24.299086 97.581 172.5229
24.475167 97.562 172.4911
24.652524 97.543 172.4602
24.831166 97.525 172.4307
25.011103 97.508 172.4033
25.192344 97.490 172.3787
25.374898 97.474 172.3576
25.558775 97.457 172.3403
25.743984 97.441 172.3273
25.930536 97.426 172.3184
26.118439 97.411 172.3138
26.307704 97.397 172.3134
26.498341 97.383 172.3168
26.690359 97.370 172.3240
26.883768 97.358 172.3348
27.078579 97.345 172.3488
27.274801 97.334 172.3658
27.472446 97.323 172.3855
27.671522 97.312 172.4075
27.872042 97.301 172.4318
28.074014 97.290 172.4580
28.277450 97.280 172.4862
28.482360 97.270 172.5164
28.688755 97.260 172.5486
28.896645 97.249 172.5825
29.106042 97.240 172.6178
29.316957 97.230 172.6542
29.529400 97.220 172.6910
29.743382 97.211 172.7278
29.958915 97.202 172.7642
30.176009 97.193 172.7997
30.394677 97.184 172.8343
30.614929 97.176 172.8681
30.836778 97.167 172.9011
31.060234 97.159 172.9333
31.285309 97.152 172.9643
31.512015 97.144 172.9937
31.740364 97.138 173.0210
31.970368 97.132 173.0458
32.202039 97.126 173.0679
32.435388 97.121 173.0874
32.670428 97.116 173.1046
32.907171 97.112 173.1201
33.145630 97.108 173.1344
33.385817 97.104 173.1479
33.627745 97.101 173.1608
33.871425 97.099 173.1728
34.116871 97.097 173.1838
34.364096 97.096 173.1936
34.613113 97.096 173.2018
34.863934 97.096 173.2085
35.116572 97.096 173.2137
35.371041 97.097 173.2176
35.627354 97.098 173.2203
35.885525 97.099 173.2220
36.145566 97.100 173.2231
36.407492 97.102 173.2236
36.671316 97.103 173.2239
36.937051 97.104 173.2241
37.204712 97.106 173.2242
37.474313 97.107 173.2240
37.745867 97.109 173.2231
38.019389 97.111 173.2210
38.294893 97.113 173.2171
38.572394 97.115 173.2109
38.851905 97.118 173.2019
39.133442 97.120 173.1899
39.417019 97.122 173.1752
39.702651 97.124 173.1577
39.990353 97.127 173.1378
40.280140 97.129 173.1156
40.572026 97.131 173.0912
40.866028 97.134 173.0645
41.162160 97.137 173.0349
41.460438 97.140 173.0023
41.760877 97.143 172.9661
42.063494 97.146 172.9265
42.368303 97.149 172.8839
42.675322 97.153 172.8386
42.984565 97.156 172.7914
43.296048 97.159 172.7424
43.609789 97.162 172.6914
43.925804 97.166 172.6381
44.244108 97.170 172.5818
44.564719 97.173 172.5220
44.887654 97.177 172.4586
45.212928 97.180 172.3918
45.540560 97.183 172.3220
45.870565 97.186 172.2496
46.202962 97.189 172.1751
46.537768 97.191 172.0988
46.875000 97.193 172.0209
47.214676 97.195 171.9415
47.556813 97.197 171.8605
47.901429 97.199 171.7779
48.248542 97.201 171.6935
48.598171 97.202 171.6072
48.950334 97.204 171.5190
49.305048 97.205 171.4288
49.662333 97.207 171.3368
50.022206 97.208 171.2431
50.384688 97.208 171.1480
50.749796 97.209 171.0519
51.117550 97.209 170.9549
51.487969 97.209 170.8569
51.861072 97.209 170.7577
52.236879 97.208 170.6569
52.615409 97.207 170.5542
52.996681 97.206 170.4495
53.380717 97.205 170.3428
53.767536 97.203 170.2343
54.157158 97.201 170.1240
54.549603 97.198 170.0121
54.944892 97.196 169.8986
55.343045 97.193 169.7831
55.744084 97.190 169.6656
56.148028 97.187 169.5461
56.554900 97.184 169.4248
56.964720 97.181 169.3018
57.377510 97.177 169.1776
57.793291 97.173 169.0523
58.212085 97.168 168.9263
58.633914 97.164 168.7999
59.058799 97.158 168.6739
59.486764 97.153 168.5487
59.917829 97.147 168.4248
60.352019 97.140 168.3019
60.789354 97.134 168.1797
61.229859 97.127 168.0574
61.673556 97.120 167.9347
62.120468 97.112 167.8115
62.570618 97.105 167.6879
63.024031 97.097 167.5636
63.480729 97.089 167.4383
63.940736 97.081 167.3116
64.404077 97.073 167.1834
64.870776 97.064 167.0541
65.340856 97.056 166.9244
65.814343 97.047 166.7949
66.291261 97.038 166.6658
66.771635 97.029 166.5370
67.255489 97.020 166.4082
67.742850 97.011 166.2794
68.233743 97.001 166.1509
68.728193 96.991 166.0231
69.226226 96.981 165.8964
69.727867 96.970 165.7706
70.233144 96.959 165.6454
70.742083 96.948 165.5203
71.254709 96.936 165.3949
71.771050 96.924 165.2687
72.291132 96.912 165.1418
72.814984 96.900 165.0141
73.342631 96.887 164.8859
73.874102 96.874 164.7574
74.409424 96.861 164.6285
74.948626 96.848 164.4989
75.491734 96.835 164.3685
76.038779 96.821 164.2375
76.589787 96.807 164.1065
77.144788 96.793 163.9759
77.703811 96.778 163.8463
78.266885 96.762 163.7180
78.834039 96.746 163.5908
79.405303 96.730 163.4647
79.980706 96.714 163.3391
