* Measurement data measured by REW V5.31.3
* Source: EXCL: Microphone (USB Sound Device        ), MICROPHONE (Master Volume), R, volume: 0.390
* Format: 256k Log Swept Sine, 1 sweep at -12.0 dBFS with no timing reference
* Dated: Jul 21, 2025 9:46:53 PM
* REW Settings:
*  C-weighting compensation: Off
*  Target level: 75.0 dB
* Note: Moondrop Kadenz NozL
* Measurement: L Moondrop Kadenz L
* Smoothing: 1/12 octave
* Frequency Step: 96 ppo
* Start Frequency: 0.36621094 Hz
*
* Freq(Hz) SPL(dB) Phase(degrees)
0.366211 93.875 158.7023
0.368865 93.869 158.6801
0.371538 93.860 158.6468
0.374230 93.850 158.6050
0.376942 93.837 158.5567
0.379673 93.824 158.5037
0.382424 93.811 158.4470
0.385196 93.797 158.3872
0.387987 93.782 158.3246
0.390798 93.768 158.2594
0.393630 93.753 158.1918
0.396483 93.738 158.1219
0.399356 93.724 158.0494
0.402250 93.709 157.9746
0.405165 93.694 157.8973
0.408101 93.678 157.8176
0.411058 93.663 157.7354
0.414037 93.648 157.6507
0.417037 93.632 157.5635
0.420059 93.617 157.4737
0.423103 93.601 157.3814
0.426169 93.585 157.2865
0.429257 93.569 157.1889
0.432368 93.553 157.0887
0.435501 93.537 156.9859
0.438656 93.520 156.8803
0.441835 93.504 156.7721
0.445037 93.488 156.6611
0.448262 93.471 156.5474
0.451510 93.454 156.4309
0.454782 93.437 156.3116
0.458077 93.420 156.1895
0.461397 93.403 156.0646
0.464740 93.386 155.9369
0.468108 93.368 155.8063
0.471500 93.351 155.6728
0.474917 93.333 155.5364
0.478358 93.315 155.3971
0.481825 93.297 155.2549
0.485316 93.279 155.1098
0.488833 93.261 154.9617
0.492375 93.243 154.8107
0.495943 93.224 154.6568
0.499537 93.206 154.4998
0.503157 93.187 154.3399
0.506803 93.168 154.1770
0.510475 93.149 154.0112
0.514175 93.130 153.8423
0.517900 93.111 153.6705
0.521653 93.091 153.4957
0.525434 93.072 153.3179
0.529241 93.052 153.1372
0.533076 93.032 152.9535
0.536939 93.012 152.7669
0.540830 92.992 152.5773
0.544749 92.972 152.3849
0.548696 92.952 152.1895
0.552673 92.931 151.9913
0.556677 92.910 151.7902
0.560711 92.890 151.5863
0.564774 92.869 151.3795
0.568867 92.847 151.1701
0.572989 92.826 150.9579
0.577141 92.805 150.7430
0.581324 92.783 150.5255
0.585536 92.761 150.3054
0.589779 92.739 150.0828
0.594053 92.717 149.8577
0.598358 92.695 149.6302
0.602694 92.672 149.4004
0.607061 92.650 149.1682
0.611460 92.627 148.9339
0.615891 92.604 148.6975
0.620354 92.581 148.4590
0.624849 92.558 148.2186
0.629377 92.535 147.9764
0.633938 92.511 147.7324
0.638532 92.487 147.4869
0.643159 92.463 147.2398
0.647819 92.439 146.9914
0.652514 92.415 146.7417
0.657242 92.391 146.4910
0.662005 92.366 146.2393
0.666802 92.341 145.9868
0.671634 92.316 145.7338
0.676501 92.291 145.4803
0.681403 92.266 145.2265
0.686341 92.240 144.9727
0.691314 92.214 144.7190
0.696324 92.188 144.4656
0.701370 92.162 144.2128
0.706452 92.135 143.9605
0.711571 92.108 143.7090
0.716728 92.080 143.4582
0.721921 92.051 143.2078
0.727153 92.020 142.9575
0.732422 91.988 142.7064
0.737729 91.953 142.4537
0.743075 91.916 142.1982
0.748460 91.878 141.9393
0.753883 91.838 141.6761
0.759346 91.797 141.4082
0.764849 91.755 141.1352
0.770391 91.713 140.8570
0.775974 91.670 140.5733
0.781597 91.627 140.2842
0.787261 91.583 139.9893
0.792966 91.539 139.6888
0.798712 91.494 139.3826
0.804500 91.448 139.0705
0.810329 91.402 138.7525
0.816201 91.355 138.4286
0.822116 91.307 138.0988
0.828073 91.259 137.7630
0.834074 91.210 137.4212
0.840118 91.161 137.0733
0.846206 91.110 136.7194
0.852338 91.059 136.3593
0.858514 91.007 135.9932
0.864735 90.954 135.6210
0.871001 90.900 135.2427
0.877313 90.845 134.8584
0.883670 90.789 134.4680
0.890074 90.732 134.0717
0.896524 90.674 133.6694
0.903020 90.614 133.2613
0.909564 90.554 132.8474
0.916155 90.492 132.4279
0.922794 90.429 132.0028
0.929481 90.365 131.5722
0.936216 90.300 131.1364
0.943000 90.233 130.6955
0.949834 90.164 130.2497
0.956717 90.094 129.7992
0.963649 90.023 129.3443
0.970632 89.949 128.8852
0.977666 89.874 128.4223
0.984750 89.798 127.9558
0.991886 89.719 127.4863
0.999074 89.639 127.0140
1.006314 89.556 126.5394
1.013606 89.472 126.0629
1.020951 89.385 125.5853
1.028349 89.297 125.1068
1.035801 89.206 124.6283
1.043307 89.113 124.1504
1.050867 89.017 123.6737
1.058482 88.919 123.1989
1.066152 88.818 122.7268
1.073878 88.715 122.2579
1.081660 88.609 121.7928
1.089498 88.501 121.3317
1.097393 88.391 120.8746
1.105345 88.278 120.4211
1.113355 88.164 119.9706
1.121423 88.048 119.5224
1.129549 87.930 119.0760
1.137734 87.810 118.6306
1.145979 87.689 118.1858
1.154283 87.566 117.7411
1.162647 87.442 117.2961
1.171072 87.316 116.8504
1.179558 87.187 116.4035
1.188106 87.056 115.9551
1.196715 86.924 115.5047
1.205387 86.788 115.0518
1.214122 86.650 114.5960
1.222920 86.510 114.1367
1.231782 86.366 113.6733
1.240708 86.219 113.2054
1.249699 86.069 112.7323
1.258754 85.916 112.2534
1.267876 85.759 111.7679
1.277063 85.598 111.2752
1.286318 85.433 110.7746
1.295639 85.263 110.2651
1.305027 85.089 109.7459
1.314484 84.911 109.2162
1.324009 84.727 108.6750
1.333604 84.539 108.1212
1.343268 84.345 107.5538
1.353002 84.145 106.9717
1.362806 83.939 106.3736
1.372681 83.727 105.7585
1.382628 83.509 105.1250
1.392647 83.283 104.4719
1.402739 83.051 103.7978
1.412904 82.810 103.1017
1.423142 82.562 102.3822
1.433455 82.304 101.6386
1.443843 82.036 100.8701
1.454305 81.756 100.0763
1.464844 81.461 99.2570
1.475459 81.150 98.4120
1.486150 80.819 97.5407
1.496920 80.467 96.6417
1.507767 80.092 95.7126
1.518693 79.695 94.7502
1.529698 79.276 93.7500
1.540783 78.836 92.7067
1.551948 78.375 91.6138
1.563194 77.897 90.4636
1.574521 77.402 89.2469
1.585931 76.893 87.9527
1.597423 76.372 86.5677
1.608999 75.842 85.0759
1.620658 75.304 83.4576
1.632402 74.763 81.6889
1.644232 74.219 79.7402
1.656146 73.678 77.5747
1.668147 73.142 75.1465
1.680235 72.614 72.3980
1.692411 72.098 69.2571
1.704675 71.599 65.6343
1.717028 71.120 61.4197
1.729470 70.667 56.4838
1.742003 70.243 50.6841
1.754626 69.855 43.8860
1.767341 69.508 36.0070
1.780147 69.208 27.0844
1.793047 68.961 17.3448
1.806040 68.772 7.2155
1.819128 68.647 -2.7724
1.832310 68.591 -12.1502
1.845587 68.606 -20.6338
1.858961 68.692 -28.1327
1.872432 68.849 -34.6883
1.886001 69.075 -40.4037
1.899667 69.364 -45.3986
1.913433 69.712 -49.7860
1.927299 70.113 -53.6638
1.941265 70.561 -57.1135
1.955332 71.051 -60.2017
1.969501 71.576 -62.9823
1.983773 72.129 -65.4989
1.998148 72.705 -67.7867
2.012627 73.297 -69.8741
2.027212 73.898 -71.7845
2.041902 74.502 -73.5369
2.056698 75.103 -75.1469
2.071602 75.695 -76.6273
2.086614 76.271 -77.9892
2.101734 76.825 -79.2416
2.116964 77.353 -80.3928
2.132304 77.849 -81.4505
2.147756 78.309 -82.4227
2.163320 78.730 -83.3183
2.178996 79.112 -84.1478
2.194786 79.457 -84.9234
2.210690 79.765 -85.6588
2.226710 80.043 -86.3666
2.242845 80.293 -87.0568
2.259098 80.519 -87.7359
2.275468 80.724 -88.4073
2.291957 80.908 -89.0720
2.308566 81.075 -89.7295
2.325295 81.224 -90.3781
2.342145 81.359 -91.0157
2.359117 81.480 -91.6395
2.376212 81.588 -92.2465
2.393431 81.686 -92.8336
2.410775 81.775 -93.3973
2.428244 81.856 -93.9342
2.445840 81.932 -94.4406
2.463564 82.003 -94.9129
2.481416 82.071 -95.3479
2.499397 82.138 -95.7427
2.517509 82.205 -96.0952
2.535752 82.271 -96.4048
2.554127 82.337 -96.6724
2.572635 82.400 -96.9009
2.591277 82.460 -97.0942
2.610055 82.515 -97.2562
2.628968 82.563 -97.3900
2.648019 82.605 -97.4976
2.667208 82.640 -97.5802
2.686535 82.669 -97.6378
2.706003 82.692 -97.6704
2.725612 82.710 -97.6770
2.745363 82.724 -97.6568
2.765257 82.735 -97.6087
2.785295 82.745 -97.5313
2.805478 82.754 -97.4232
2.825808 82.764 -97.2830
2.846285 82.776 -97.1090
2.866910 82.790 -96.8997
2.887685 82.807 -96.6531
2.908611 82.827 -96.3673
2.929688 82.851 -96.0403
2.950917 82.877 -95.6702
2.972301 82.905 -95.2560
2.993839 82.935 -94.7978
3.015534 82.965 -94.2971
3.037386 82.997 -93.7567
3.059396 83.030 -93.1801
3.081565 83.064 -92.5718
3.103896 83.101 -91.9368
3.126388 83.141 -91.2805
3.149043 83.185 -90.6088
3.171862 83.232 -89.9273
3.194847 83.285 -89.2417
3.217998 83.344 -88.5570
3.241317 83.410 -87.8771
3.264805 83.483 -87.2041
3.288463 83.563 -86.5381
3.312293 83.652 -85.8776
3.336295 83.749 -85.2207
3.360471 83.854 -84.5668
3.384822 83.966 -83.9171
3.409350 84.086 -83.2754
3.434056 84.211 -82.6465
3.458940 84.342 -82.0363
3.484005 84.477 -81.4510
3.509252 84.615 -80.8969
3.534681 84.756 -80.3796
3.560295 84.897 -79.9046
3.586094 85.040 -79.4759
3.612081 85.182 -79.0966
3.638255 85.325 -78.7680
3.664620 85.467 -78.4896
3.691175 85.610 -78.2594
3.717923 85.754 -78.0744
3.744864 85.899 -77.9316
3.772001 86.044 -77.8281
3.799335 86.190 -77.7613
3.826866 86.336 -77.7293
3.854597 86.481 -77.7302
3.882529 86.624 -77.7626
3.910664 86.764 -77.8253
3.939002 86.901 -77.9176
3.967546 87.034 -78.0392
3.996296 87.163 -78.1902
4.025255 87.287 -78.3713
4.054423 87.406 -78.5830
4.083804 87.520 -78.8252
4.113396 87.630 -79.0969
4.143204 87.736 -79.3957
4.173227 87.837 -79.7181
4.203468 87.934 -80.0604
4.233928 88.027 -80.4185
4.264609 88.115 -80.7886
4.295512 88.198 -81.1675
4.326639 88.276 -81.5529
4.357992 88.350 -81.9436
4.389572 88.419 -82.3401
4.421380 88.482 -82.7438
4.453419 88.540 -83.1562
4.485691 88.592 -83.5776
4.518196 88.639 -84.0070
4.550936 88.681 -84.4417
4.583914 88.718 -84.8781
4.617131 88.751 -85.3121
4.650589 88.780 -85.7394
4.684289 88.805 -86.1562
4.718233 88.826 -86.5595
4.752424 88.843 -86.9479
4.786862 88.857 -87.3213
4.821549 88.866 -87.6806
4.856488 88.872 -88.0266
4.891680 88.874 -88.3597
4.927127 88.873 -88.6795
4.962831 88.869 -88.9848
4.998794 88.863 -89.2741
5.035017 88.856 -89.5453
5.071503 88.848 -89.7964
5.108253 88.840 -90.0257
5.145270 88.831 -90.2318
5.182555 88.823 -90.4143
5.220110 88.814 -90.5739
5.257937 88.804 -90.7125
5.296038 88.796 -90.8323
5.334415 88.788 -90.9363
5.373071 88.782 -91.0274
5.412006 88.779 -91.1079
5.451224 88.778 -91.1795
5.490725 88.781 -91.2429
5.530514 88.787 -91.2985
5.570590 88.796 -91.3468
5.610957 88.810 -91.3897
5.651616 88.826 -91.4305
5.692570 88.846 -91.4736
5.733821 88.869 -91.5241
5.775370 88.895 -91.5869
5.817221 88.925 -91.6659
5.859375 88.957 -91.7636
5.901834 88.994 -91.8812
5.944602 89.033 -92.0193
5.987679 89.076 -92.1787
6.031068 89.121 -92.3606
6.074771 89.168 -92.5669
6.118792 89.216 -92.7999
6.163131 89.265 -93.0619
6.207792 89.314 -93.3546
6.252776 89.364 -93.6789
6.298086 89.413 -94.0349
6.343725 89.462 -94.4212
6.389694 89.511 -94.8360
6.435996 89.558 -95.2770
6.482634 89.604 -95.7420
6.529610 89.648 -96.2295
6.576926 89.690 -96.7384
6.624585 89.730 -97.2681
6.672590 89.767 -97.8179
6.720942 89.801 -98.3859
6.769645 89.833 -98.9692
6.818700 89.862 -99.5639
6.868111 89.889 -100.1663
6.917881 89.913 -100.7731
6.968010 89.934 -101.3821
7.018504 89.953 -101.9922
7.069362 89.969 -102.6022
7.120590 89.984 -103.2103
7.172189 89.996 -103.8140
7.224161 90.007 -104.4103
7.276511 90.017 -104.9965
7.329239 90.027 -105.5703
7.382350 90.036 -106.1305
7.435845 90.045 -106.6769
7.489729 90.054 -107.2093
7.544002 90.064 -107.7279
7.598669 90.075 -108.2326
7.653732 90.088 -108.7233
7.709194 90.103 -109.1997
7.765058 90.120 -109.6623
7.821327 90.140 -110.1121
7.878004 90.163 -110.5510
7.935091 90.189 -110.9813
7.992592 90.219 -111.4053
8.050510 90.251 -111.8250
8.108847 90.287 -112.2416
8.167607 90.327 -112.6566
8.226793 90.370 -113.0715
8.286408 90.415 -113.4883
8.346454 90.464 -113.9092
8.406936 90.515 -114.3358
8.467856 90.569 -114.7694
8.529218 90.624 -115.2103
8.591024 90.681 -115.6586
8.653278 90.740 -116.1140
8.715983 90.799 -116.5765
8.779143 90.859 -117.0457
8.842760 90.919 -117.5211
8.906839 90.979 -118.0017
8.971381 91.038 -118.4860
9.036392 91.097 -118.9721
9.101873 91.155 -119.4579
9.167829 91.212 -119.9419
9.234263 91.268 -120.4225
9.301178 91.323 -120.8981
9.368578 91.376 -121.3671
9.436467 91.429 -121.8274
9.504847 91.480 -122.2774
9.573723 91.531 -122.7158
9.643099 91.580 -123.1417
9.712976 91.629 -123.5546
9.783361 91.677 -123.9539
9.854255 91.725 -124.3392
9.925663 91.773 -124.7103
9.997588 91.820 -125.0676
10.070035 91.868 -125.4115
10.143007 91.915 -125.7430
10.216507 91.963 -126.0628
10.290540 92.010 -126.3719
10.365109 92.058 -126.6713
10.440219 92.106 -126.9619
10.515873 92.154 -127.2447
10.592076 92.201 -127.5210
10.668830 92.249 -127.7915
10.746141 92.296 -128.0569
10.824012 92.342 -128.3177
10.902447 92.388 -128.5743
10.981451 92.433 -128.8271
11.061027 92.476 -129.0763
11.141180 92.519 -129.3218
11.221913 92.561 -129.5636
11.303232 92.601 -129.8014
11.385140 92.639 -130.0353
11.467641 92.677 -130.2650
11.550741 92.713 -130.4906
11.634442 92.747 -130.7120
11.718750 92.781 -130.9294
11.803669 92.813 -131.1430
11.889203 92.843 -131.3531
11.975357 92.873 -131.5603
12.062136 92.901 -131.7652
12.149543 92.928 -131.9683
12.237583 92.955 -132.1705
12.326262 92.979 -132.3723
12.415583 93.003 -132.5745
12.505552 93.026 -132.7778
12.596172 93.047 -132.9826
12.687449 93.067 -133.1894
12.779387 93.085 -133.3984
12.871992 93.102 -133.6100
12.965268 93.118 -133.8241
13.059220 93.132 -134.0408
13.153852 93.145 -134.2600
13.249170 93.157 -134.4816
13.345179 93.168 -134.7057
13.441884 93.177 -134.9322
13.539289 93.185 -135.1614
13.637401 93.193 -135.3935
13.736223 93.200 -135.6289
13.835761 93.207 -135.8683
13.936021 93.213 -136.1123
14.037007 93.219 -136.3620
14.138725 93.224 -136.6180
14.241180 93.230 -136.8813
14.344377 93.236 -137.1528
14.448323 93.241 -137.4330
14.553021 93.247 -137.7225
14.658478 93.252 -138.0214
14.764700 93.257 -138.3298
14.871691 93.262 -138.6472
14.979457 93.267 -138.9730
15.088005 93.271 -139.3063
15.197339 93.275 -139.6461
15.307465 93.279 -139.9911
15.418389 93.283 -140.3403
15.530117 93.287 -140.6923
15.642655 93.292 -141.0461
15.756008 93.296 -141.4010
15.870182 93.302 -141.7562
15.985184 93.308 -142.1114
16.101019 93.316 -142.4665
16.217694 93.325 -142.8215
16.335214 93.335 -143.1767
16.453586 93.347 -143.5323
16.572815 93.361 -143.8887
16.692909 93.375 -144.2460
16.813872 93.391 -144.6042
16.935713 93.408 -144.9631
17.058436 93.426 -145.3222
17.182048 93.445 -145.6809
17.306556 93.465 -146.0381
17.431967 93.485 -146.3929
17.558286 93.505 -146.7440
17.685521 93.526 -147.0901
17.813677 93.546 -147.4302
17.942762 93.567 -147.7630
18.072783 93.588 -148.0879
18.203746 93.609 -148.4039
18.335658 93.630 -148.7107
18.468526 93.651 -149.0078
18.602356 93.672 -149.2951
18.737156 93.693 -149.5724
18.872934 93.714 -149.8400
19.009695 93.734 -150.0979
19.147447 93.754 -150.3464
19.286197 93.773 -150.5857
19.425953 93.793 -150.8165
19.566721 93.811 -151.0391
19.708510 93.829 -151.2542
19.851326 93.846 -151.4626
19.995177 93.862 -151.6650
20.140070 93.878 -151.8625
20.286013 93.892 -152.0558
20.433014 93.906 -152.2457
20.581080 93.918 -152.4330
20.730219 93.929 -152.6182
20.880439 93.939 -152.8018
21.031747 93.947 -152.9843
21.184152 93.954 -153.1658
21.337661 93.960 -153.3469
21.492282 93.964 -153.5279
21.648024 93.967 -153.7096
21.804895 93.970 -153.8928
21.962902 93.972 -154.0787
22.122054 93.973 -154.2684
22.282360 93.973 -154.4633
22.443827 93.973 -154.6644
22.606464 93.972 -154.8729
22.770280 93.971 -155.0892
22.935283 93.969 -155.3136
23.101481 93.967 -155.5458
23.268884 93.964 -155.7853
23.437500 93.960 -156.0312
23.607338 93.956 -156.2824
23.778406 93.952 -156.5381
23.950714 93.949 -156.7974
24.124271 93.945 -157.0597
24.299086 93.942 -157.3248
24.475167 93.940 -157.5924
24.652524 93.939 -157.8626
24.831166 93.939 -158.1353
25.011103 93.940 -158.4102
25.192344 93.942 -158.6871
25.374898 93.945 -158.9653
25.558775 93.948 -159.2438
25.743984 93.953 -159.5218
25.930536 93.958 -159.7980
26.118439 93.964 -160.0714
26.307704 93.970 -160.3408
26.498341 93.977 -160.6053
26.690359 93.984 -160.8639
26.883768 93.991 -161.1158
27.078579 93.999 -161.3602
27.274801 94.006 -161.5968
27.472446 94.014 -161.8251
27.671522 94.022 -162.0452
27.872042 94.030 -162.2573
28.074014 94.038 -162.4622
28.277450 94.045 -162.6608
28.482360 94.052 -162.8541
28.688755 94.059 -163.0432
28.896645 94.065 -163.2291
29.106042 94.070 -163.4123
29.316957 94.074 -163.5933
29.529400 94.077 -163.7725
29.743382 94.079 -163.9502
29.958915 94.080 -164.1266
30.176009 94.080 -164.3026
30.394677 94.079 -164.4790
30.614929 94.077 -164.6569
30.836778 94.075 -164.8372
31.060234 94.072 -165.0210
31.285309 94.068 -165.2087
31.512015 94.064 -165.4005
31.740364 94.059 -165.5962
31.970368 94.054 -165.7955
32.202039 94.048 -165.9980
32.435388 94.043 -166.2035
32.670428 94.038 -166.4121
32.907171 94.034 -166.6239
33.145630 94.030 -166.8396
33.385817 94.026 -167.0593
33.627745 94.023 -167.2832
33.871425 94.021 -167.5107
34.116871 94.018 -167.7407
34.364096 94.016 -167.9718
34.613113 94.014 -168.2020
34.863934 94.012 -168.4295
35.116572 94.010 -168.6525
35.371041 94.008 -168.8699
35.627354 94.006 -169.0812
35.885525 94.004 -169.2866
36.145566 94.003 -169.4868
36.407492 94.002 -169.6826
36.671316 94.000 -169.8749
36.937051 93.999 -170.0641
37.204712 93.997 -170.2503
37.474313 93.995 -170.4332
37.745867 93.992 -170.6130
38.019389 93.989 -170.7896
38.294893 93.985 -170.9637
38.572394 93.980 -171.1365
38.851905 93.975 -171.3089
39.133442 93.970 -171.4820
39.417019 93.964 -171.6562
39.702651 93.958 -171.8317
39.990353 93.951 -172.0081
40.280140 93.944 -172.1852
40.572026 93.937 -172.3628
40.866028 93.930 -172.5414
41.162160 93.922 -172.7215
41.460438 93.915 -172.9035
41.760877 93.908 -173.0874
42.063494 93.901 -173.2727
42.368303 93.894 -173.4580
42.675322 93.886 -173.6419
42.984565 93.879 -173.8234
43.296048 93.872 -174.0018
43.609789 93.865 -174.1775
43.925804 93.858 -174.3513
44.244108 93.852 -174.5243
44.564719 93.845 -174.6973
44.887654 93.839 -174.8702
45.212928 93.832 -175.0426
45.540560 93.824 -175.2137
45.870565 93.816 -175.3828
46.202962 93.808 -175.5498
46.537768 93.799 -175.7148
46.875000 93.790 -175.8783
47.214676 93.781 -176.0405
47.556813 93.771 -176.2014
47.901429 93.762 -176.3608
48.248542 93.752 -176.5187
48.598171 93.742 -176.6754
48.950334 93.733 -176.8315
49.305048 93.724 -176.9875
49.662333 93.715 -177.1439
50.022206 93.706 -177.3007
50.384688 93.698 -177.4575
50.749796 93.689 -177.6140
51.117550 93.680 -177.7696
51.487969 93.671 -177.9236
51.861072 93.661 -178.0751
52.236879 93.651 -178.2232
52.615409 93.641 -178.3668
52.996681 93.631 -178.5058
53.380717 93.620 -178.6405
53.767536 93.610 -178.7722
54.157158 93.601 -178.9028
54.549603 93.592 -179.0347
54.944892 93.583 -179.1700
55.343045 93.575 -179.3103
55.744084 93.566 -179.4561
56.148028 93.558 -179.6070
56.554900 93.548 -179.7617
56.964720 93.539 -179.9185
57.377510 93.529 179.9240
57.793291 93.518 179.7664
58.212085 93.508 179.6090
58.633914 93.497 179.4521
59.058799 93.485 179.2960
59.486764 93.474 179.1415
59.917829 93.462 178.9892
60.352019 93.449 178.8395
60.789354 93.436 178.6926
61.229859 93.422 178.5480
61.673556 93.408 178.4056
62.120468 93.394 178.2645
62.570618 93.379 178.1245
63.024031 93.363 177.9855
63.480729 93.347 177.8481
63.940736 93.331 177.7125
64.404077 93.314 177.5782
64.870776 93.298 177.4445
65.340856 93.281 177.3107
65.814343 93.264 177.1775
66.291261 93.247 177.0460
66.771635 93.230 176.9175
67.255489 93.212 176.7931
67.742850 93.194 176.6735
68.233743 93.175 176.5601
68.728193 93.156 176.4542
69.226226 93.137 176.3575
69.727867 93.118 176.2710
70.233144 93.099 176.1957
70.742083 93.081 176.1317
71.254709 93.064 176.0782
71.771050 93.049 176.0322
72.291132 93.036 175.9885
72.814984 93.026 175.9419
73.342631 93.017 175.8880
73.874102 93.010 175.8247
74.409424 93.004 175.7513
74.948626 92.998 175.6675
75.491734 92.992 175.5740
76.038779 92.987 175.4714
76.589787 92.981 175.3611
77.144788 92.975 175.2443
77.703811 92.968 175.1218
78.266885 92.960 174.9936
78.834039 92.952 174.8587
79.405303 92.944 174.7158
79.980706 92.934 174.5648
80.560280 92.924 174.4072
81.144053 92.911 174.2448
81.732056 92.898 174.0789
82.324320 92.882 173.9102
82.920876 92.865 173.7399
83.521755 92.846 173.5709
84.126988 92.825 173.4072
84.736607 92.803 173.2521
85.350643 92.778 173.1077
85.969129 92.753 172.9752
