* Measurement data measured by REW V5.31.3
* Source: EXCL: Microphone (USB Sound Device        ), MICROPHONE (Master Volume), R, volume: 0.390
* Format: 256k Log Swept Sine, 1 sweep at -1.0 dBFS with no timing reference
* Dated: Jul 4, 2025 12:19:05 AM
* REW Settings:
*  C-weighting compensation: Off
*  Target level: 75.0 dB
* Note: Moondrop Rays FPS1 L
* Measurement: L Moondrop Rays FPS1 L
* Smoothing: 1/12 octave
* Frequency Step: 96 ppo
* Start Frequency: 0.36621094 Hz
*
* Freq(Hz) SPL(dB) Phase(degrees)
0.366211 85.970 -138.8446
0.368865 85.982 -138.8222
0.371538 86.000 -138.7889
0.374230 86.022 -138.7472
0.376942 86.047 -138.6994
0.379673 86.074 -138.6473
0.382424 86.102 -138.5919
0.385196 86.130 -138.5338
0.387987 86.159 -138.4736
0.390798 86.189 -138.4115
0.393630 86.218 -138.3474
0.396483 86.248 -138.2816
0.399356 86.278 -138.2141
0.402250 86.309 -138.1448
0.405165 86.339 -138.0739
0.408101 86.370 -138.0013
0.411058 86.401 -137.9270
0.414037 86.433 -137.8511
0.417037 86.464 -137.7736
0.420059 86.496 -137.6944
0.423103 86.528 -137.6137
0.426169 86.560 -137.5314
0.429257 86.593 -137.4475
0.432368 86.625 -137.3622
0.435501 86.658 -137.2753
0.438656 86.691 -137.1869
0.441835 86.725 -137.0970
0.445037 86.758 -137.0058
0.448262 86.792 -136.9131
0.451510 86.826 -136.8190
0.454782 86.861 -136.7236
0.458077 86.895 -136.6269
0.461397 86.930 -136.5289
0.464740 86.965 -136.4297
0.468108 87.001 -136.3292
0.471500 87.036 -136.2276
0.474917 87.072 -136.1248
0.478358 87.109 -136.0209
0.481825 87.145 -135.9159
0.485316 87.182 -135.8100
0.488833 87.219 -135.7030
0.492375 87.256 -135.5951
0.495943 87.293 -135.4863
0.499537 87.331 -135.3766
0.503157 87.369 -135.2661
0.506803 87.407 -135.1549
0.510475 87.446 -135.0429
0.514175 87.485 -134.9303
0.517900 87.524 -134.8171
0.521653 87.563 -134.7033
0.525434 87.603 -134.5890
0.529241 87.643 -134.4742
0.533076 87.684 -134.3591
0.536939 87.724 -134.2435
0.540830 87.765 -134.1277
0.544749 87.806 -134.0116
0.548696 87.848 -133.8954
0.552673 87.889 -133.7790
0.556677 87.932 -133.6626
0.560711 87.974 -133.5461
0.564774 88.017 -133.4297
0.568867 88.060 -133.3134
0.572989 88.103 -133.1973
0.577141 88.147 -133.0814
0.581324 88.191 -132.9658
0.585536 88.235 -132.8505
0.589779 88.279 -132.7357
0.594053 88.324 -132.6214
0.598358 88.370 -132.5076
0.602694 88.415 -132.3945
0.607061 88.461 -132.2820
0.611460 88.507 -132.1703
0.615891 88.554 -132.0594
0.620354 88.601 -131.9494
0.624849 88.648 -131.8404
0.629377 88.696 -131.7324
0.633938 88.744 -131.6255
0.638532 88.792 -131.5197
0.643159 88.840 -131.4152
0.647819 88.889 -131.3121
0.652514 88.939 -131.2103
0.657242 88.989 -131.1099
0.662005 89.039 -131.0112
0.666802 89.089 -130.9140
0.671634 89.140 -130.8185
0.676501 89.191 -130.7247
0.681403 89.242 -130.6329
0.686341 89.294 -130.5429
0.691314 89.347 -130.4549
0.696324 89.399 -130.3690
0.701370 89.452 -130.2852
0.706452 89.505 -130.2036
0.711571 89.558 -130.1242
0.716728 89.611 -130.0469
0.721921 89.664 -129.9718
0.727153 89.716 -129.8986
0.732422 89.768 -129.8271
0.737729 89.818 -129.7570
0.743075 89.867 -129.6881
0.748460 89.916 -129.6199
0.753883 89.964 -129.5525
0.759346 90.011 -129.4856
0.764849 90.059 -129.4193
0.770391 90.106 -129.3535
0.775974 90.154 -129.2881
0.781597 90.201 -129.2234
0.787261 90.248 -129.1591
0.792966 90.296 -129.0956
0.798712 90.343 -129.0326
0.804500 90.390 -128.9703
0.810329 90.438 -128.9087
0.816201 90.485 -128.8479
0.822116 90.533 -128.7879
0.828073 90.580 -128.7288
0.834074 90.627 -128.6705
0.840118 90.675 -128.6131
0.846206 90.722 -128.5567
0.852338 90.770 -128.5013
0.858514 90.817 -128.4470
0.864735 90.865 -128.3937
0.871001 90.912 -128.3416
0.877313 90.960 -128.2906
0.883670 91.007 -128.2408
0.890074 91.055 -128.1923
0.896524 91.102 -128.1450
0.903020 91.150 -128.0991
0.909564 91.198 -128.0546
0.916155 91.245 -128.0114
0.922794 91.293 -127.9698
0.929481 91.340 -127.9296
0.936216 91.388 -127.8910
0.943000 91.436 -127.8540
0.949834 91.483 -127.8186
0.956717 91.531 -127.7849
0.963649 91.579 -127.7529
0.970632 91.627 -127.7227
0.977666 91.674 -127.6943
0.984750 91.722 -127.6677
0.991886 91.770 -127.6432
0.999074 91.818 -127.6205
1.006314 91.866 -127.5999
1.013606 91.914 -127.5813
1.020951 91.962 -127.5649
1.028349 92.010 -127.5507
1.035801 92.058 -127.5386
1.043307 92.106 -127.5289
1.050867 92.154 -127.5215
1.058482 92.202 -127.5166
1.066152 92.251 -127.5141
1.073878 92.299 -127.5142
1.081660 92.347 -127.5168
1.089498 92.396 -127.5221
1.097393 92.444 -127.5302
1.105345 92.492 -127.5410
1.113355 92.541 -127.5546
1.121423 92.589 -127.5711
1.129549 92.637 -127.5903
1.137734 92.685 -127.6123
1.145979 92.732 -127.6371
1.154283 92.780 -127.6645
1.162647 92.827 -127.6945
1.171072 92.874 -127.7271
1.179558 92.921 -127.7622
1.188106 92.968 -127.7998
1.196715 93.015 -127.8397
1.205387 93.061 -127.8819
1.214122 93.107 -127.9263
1.222920 93.154 -127.9729
1.231782 93.200 -128.0215
1.240708 93.245 -128.0722
1.249699 93.291 -128.1248
1.258754 93.337 -128.1793
1.267876 93.382 -128.2355
1.277063 93.427 -128.2934
1.286318 93.472 -128.3528
1.295639 93.517 -128.4138
1.305027 93.562 -128.4762
1.314484 93.607 -128.5400
1.324009 93.651 -128.6049
1.333604 93.696 -128.6710
1.343268 93.740 -128.7382
1.353002 93.785 -128.8062
1.362806 93.829 -128.8751
1.372681 93.873 -128.9446
1.382628 93.917 -129.0148
1.392647 93.961 -129.0855
1.402739 94.006 -129.1566
1.412904 94.050 -129.2279
1.423142 94.094 -129.2995
1.433455 94.138 -129.3713
1.443843 94.182 -129.4432
1.454305 94.225 -129.5154
1.464844 94.269 -129.5879
1.475459 94.313 -129.6609
1.486150 94.356 -129.7348
1.496920 94.400 -129.8095
1.507767 94.442 -129.8854
1.518693 94.485 -129.9624
1.529698 94.528 -130.0406
1.540783 94.570 -130.1200
1.551948 94.612 -130.2007
1.563194 94.653 -130.2827
1.574521 94.694 -130.3659
1.585931 94.735 -130.4504
1.597423 94.776 -130.5362
1.608999 94.817 -130.6232
1.620658 94.857 -130.7114
1.632402 94.897 -130.8009
1.644232 94.936 -130.8916
1.656146 94.976 -130.9836
1.668147 95.015 -131.0768
1.680235 95.054 -131.1712
1.692411 95.093 -131.2668
1.704675 95.132 -131.3636
1.717028 95.170 -131.4617
1.729470 95.209 -131.5609
1.742003 95.247 -131.6614
1.754626 95.285 -131.7630
1.767341 95.323 -131.8659
1.780147 95.360 -131.9700
1.793047 95.398 -132.0755
1.806040 95.436 -132.1823
1.819128 95.473 -132.2905
1.832310 95.510 -132.4003
1.845587 95.547 -132.5118
1.858961 95.584 -132.6252
1.872432 95.620 -132.7405
1.886001 95.656 -132.8577
1.899667 95.692 -132.9770
1.913433 95.727 -133.0982
1.927299 95.762 -133.2213
1.941265 95.797 -133.3462
1.955332 95.831 -133.4728
1.969501 95.865 -133.6011
1.983773 95.899 -133.7310
1.998148 95.932 -133.8624
2.012627 95.965 -133.9951
2.027212 95.998 -134.1291
2.041902 96.030 -134.2643
2.056698 96.062 -134.4006
2.071602 96.094 -134.5378
2.086614 96.126 -134.6759
2.101734 96.157 -134.8147
2.116964 96.189 -134.9542
2.132304 96.220 -135.0942
2.147756 96.251 -135.2347
2.163320 96.282 -135.3757
2.178996 96.312 -135.5172
2.194786 96.343 -135.6592
2.210690 96.373 -135.8020
2.226710 96.403 -135.9457
2.242845 96.433 -136.0905
2.259098 96.462 -136.2365
2.275468 96.491 -136.3837
2.291957 96.519 -136.5322
2.308566 96.547 -136.6819
2.325295 96.575 -136.8329
2.342145 96.602 -136.9851
2.359117 96.629 -137.1384
2.376212 96.656 -137.2930
2.393431 96.682 -137.4485
2.410775 96.709 -137.6051
2.428244 96.734 -137.7627
2.445840 96.760 -137.9212
2.463564 96.786 -138.0806
2.481416 96.811 -138.2408
2.499397 96.836 -138.4018
2.517509 96.861 -138.5634
2.535752 96.886 -138.7258
2.554127 96.910 -138.8889
2.572635 96.935 -139.0528
2.591277 96.959 -139.2175
2.610055 96.982 -139.3830
2.628968 97.006 -139.5495
2.648019 97.029 -139.7171
2.667208 97.052 -139.8858
2.686535 97.074 -140.0556
2.706003 97.097 -140.2267
2.725612 97.118 -140.3992
2.745363 97.140 -140.5730
2.765257 97.161 -140.7483
2.785295 97.182 -140.9251
2.805478 97.203 -141.1035
2.825808 97.224 -141.2836
2.846285 97.244 -141.4654
2.866910 97.264 -141.6490
2.887685 97.284 -141.8346
2.908611 97.304 -142.0220
2.929688 97.324 -142.2115
2.950917 97.343 -142.4030
2.972301 97.362 -142.5965
2.993839 97.381 -142.7922
3.015534 97.400 -142.9900
3.037386 97.418 -143.1900
3.059396 97.436 -143.3922
3.081565 97.453 -143.5966
3.103896 97.471 -143.8032
3.126388 97.488 -144.0121
3.149043 97.505 -144.2232
3.171862 97.521 -144.4366
3.194847 97.537 -144.6524
3.217998 97.553 -144.8705
3.241317 97.569 -145.0910
3.264805 97.584 -145.3139
3.288463 97.599 -145.5392
3.312293 97.614 -145.7672
3.336295 97.628 -145.9978
3.360471 97.642 -146.2311
3.384822 97.656 -146.4672
3.409350 97.670 -146.7061
3.434056 97.683 -146.9479
3.458940 97.695 -147.1927
3.484005 97.708 -147.4404
3.509252 97.719 -147.6913
3.534681 97.731 -147.9452
3.560295 97.742 -148.2024
3.586094 97.752 -148.4629
3.612081 97.762 -148.7269
3.638255 97.772 -148.9945
3.664620 97.781 -149.2660
3.691175 97.790 -149.5416
3.717923 97.798 -149.8213
3.744864 97.806 -150.1053
3.772001 97.813 -150.3934
3.799335 97.819 -150.6857
3.826866 97.825 -150.9818
3.854597 97.831 -151.2815
3.882529 97.835 -151.5846
3.910664 97.840 -151.8909
3.939002 97.843 -152.2002
3.967546 97.846 -152.5124
3.996296 97.848 -152.8276
4.025255 97.850 -153.1458
4.054423 97.851 -153.4672
4.083804 97.851 -153.7921
4.113396 97.850 -154.1207
4.143204 97.849 -154.4528
4.173227 97.847 -154.7885
4.203468 97.844 -155.1274
4.233928 97.841 -155.4693
4.264609 97.837 -155.8139
4.295512 97.832 -156.1609
4.326639 97.826 -156.5100
4.357992 97.819 -156.8612
4.389572 97.812 -157.2146
4.421380 97.804 -157.5703
4.453419 97.795 -157.9285
4.485691 97.786 -158.2893
4.518196 97.775 -158.6527
4.550936 97.764 -159.0184
4.583914 97.752 -159.3863
4.617131 97.739 -159.7558
4.650589 97.725 -160.1266
4.684289 97.711 -160.4984
4.718233 97.696 -160.8707
4.752424 97.681 -161.2435
4.786862 97.665 -161.6168
4.821549 97.648 -161.9906
4.856488 97.630 -162.3652
4.891680 97.612 -162.7404
4.927127 97.593 -163.1164
4.962831 97.574 -163.4928
4.998794 97.554 -163.8697
5.035017 97.534 -164.2467
5.071503 97.513 -164.6236
5.108253 97.492 -165.0004
5.145270 97.471 -165.3767
5.182555 97.449 -165.7527
5.220110 97.427 -166.1284
5.257937 97.404 -166.5039
5.296038 97.382 -166.8794
5.334415 97.359 -167.2549
5.373071 97.336 -167.6306
5.412006 97.312 -168.0066
5.451224 97.289 -168.3828
5.490725 97.266 -168.7593
5.530514 97.243 -169.1361
5.570590 97.219 -169.5130
5.610957 97.196 -169.8902
5.651616 97.173 -170.2679
5.692570 97.150 -170.6462
5.733821 97.126 -171.0254
5.775370 97.103 -171.4058
5.817221 97.080 -171.7874
5.859375 97.058 -172.1705
5.901834 97.035 -172.5551
5.944602 97.013 -172.9411
5.987679 96.990 -173.3286
6.031068 96.968 -173.7175
6.074771 96.946 -174.1082
6.118792 96.924 -174.5007
6.163131 96.902 -174.8953
6.207792 96.880 -175.2920
6.252776 96.858 -175.6909
6.298086 96.836 -176.0921
6.343725 96.814 -176.4952
6.389694 96.792 -176.9002
6.435996 96.770 -177.3068
6.482634 96.748 -177.7147
6.529610 96.725 -178.1238
6.576926 96.703 -178.5338
6.624585 96.680 -178.9446
6.672590 96.657 -179.3561
6.720942 96.634 -179.7680
6.769645 96.610 179.8201
6.818700 96.587 179.4086
6.868111 96.563 178.9982
6.917881 96.538 178.5891
6.968010 96.514 178.1819
7.018504 96.489 177.7767
7.069362 96.464 177.3739
7.120590 96.438 176.9738
7.172189 96.412 176.5769
7.224161 96.386 176.1837
7.276511 96.360 175.7947
7.329239 96.334 175.4104
7.382350 96.307 175.0310
7.435845 96.281 174.6568
7.489729 96.254 174.2879
7.544002 96.227 173.9245
7.598669 96.201 173.5667
7.653732 96.174 173.2147
7.709194 96.148 172.8685
7.765058 96.122 172.5285
7.821327 96.096 172.1945
7.878004 96.070 171.8663
7.935091 96.044 171.5438
7.992592 96.019 171.2268
8.050510 95.994 170.9150
8.108847 95.970 170.6085
8.167607 95.945 170.3070
8.226793 95.921 170.0104
8.286408 95.897 169.7184
8.346454 95.873 169.4308
8.406936 95.850 169.1471
8.467856 95.826 168.8673
8.529218 95.802 168.5914
8.591024 95.779 168.3192
8.653278 95.755 168.0508
8.715983 95.731 167.7862
8.779143 95.707 167.5253
8.842760 95.682 167.2683
8.906839 95.657 167.0153
8.971381 95.632 166.7665
9.036392 95.606 166.5223
9.101873 95.579 166.2831
9.167829 95.551 166.0491
9.234263 95.523 165.8207
9.301178 95.494 165.5982
9.368578 95.465 165.3820
9.436467 95.434 165.1725
9.504847 95.403 164.9701
9.573723 95.371 164.7750
9.643099 95.338 164.5875
9.712976 95.304 164.4077
9.783361 95.270 164.2357
9.854255 95.235 164.0715
9.925663 95.200 163.9151
9.997588 95.163 163.7664
10.070035 95.127 163.6253
10.143007 95.090 163.4913
10.216507 95.052 163.3641
10.290540 95.014 163.2432
10.365109 94.975 163.1283
10.440219 94.936 163.0190
10.515873 94.897 162.9146
10.592076 94.857 162.8146
10.668830 94.816 162.7188
10.746141 94.775 162.6264
10.824012 94.733 162.5374
10.902447 94.691 162.4514
10.981451 94.648 162.3681
11.061027 94.603 162.2873
11.141180 94.558 162.2089
11.221913 94.512 162.1331
11.303232 94.465 162.0597
11.385140 94.417 161.9890
11.467641 94.368 161.9209
11.550741 94.318 161.8557
11.634442 94.267 161.7935
11.718750 94.215 161.7343
11.803669 94.162 161.6785
11.889203 94.108 161.6258
11.975357 94.053 161.5764
12.062136 93.997 161.5300
12.149543 93.941 161.4865
12.237583 93.884 161.4457
12.326262 93.827 161.4073
12.415583 93.769 161.3709
12.505552 93.711 161.3361
12.596172 93.652 161.3024
12.687449 93.593 161.2695
12.779387 93.534 161.2369
12.871992 93.474 161.2043
12.965268 93.415 161.1714
13.059220 93.354 161.1381
13.153852 93.294 161.1040
13.249170 93.234 161.0693
13.345179 93.173 161.0339
13.441884 93.112 160.9979
13.539289 93.051 160.9615
13.637401 92.990 160.9250
13.736223 92.929 160.8887
13.835761 92.868 160.8527
13.936021 92.807 160.8174
14.037007 92.746 160.7832
14.138725 92.685 160.7503
14.241180 92.625 160.7190
14.344377 92.565 160.6895
14.448323 92.506 160.6622
14.553021 92.447 160.6373
14.658478 92.389 160.6151
14.764700 92.332 160.5959
14.871691 92.275 160.5801
14.979457 92.220 160.5681
15.088005 92.165 160.5602
15.197339 92.111 160.5569
15.307465 92.058 160.5588
15.418389 92.006 160.5661
15.530117 91.955 160.5793
15.642655 91.906 160.5988
15.756008 91.858 160.6250
15.870182 91.810 160.6580
15.985184 91.765 160.6980
16.101019 91.720 160.7452
16.217694 91.676 160.7996
16.335214 91.634 160.8615
16.453586 91.593 160.9311
16.572815 91.553 161.0085
16.692909 91.513 161.0942
16.813872 91.474 161.1888
16.935713 91.436 161.2931
17.058436 91.398 161.4078
17.182048 91.361 161.5342
17.306556 91.323 161.6732
17.431967 91.286 161.8259
17.558286 91.249 161.9933
17.685521 91.213 162.1763
17.813677 91.176 162.3754
17.942762 91.140 162.5908
18.072783 91.105 162.8222
18.203746 91.070 163.0693
18.335658 91.036 163.3311
18.468526 91.003 163.6065
18.602356 90.970 163.8941
18.737156 90.938 164.1925
18.872934 90.907 164.5004
19.009695 90.875 164.8166
19.147447 90.844 165.1400
19.286197 90.813 165.4699
19.425953 90.782 165.8060
19.566721 90.750 166.1481
19.708510 90.718 166.4960
19.851326 90.685 166.8499
19.995177 90.652 167.2097
20.140070 90.618 167.5752
20.286013 90.584 167.9462
20.433014 90.550 168.3221
20.581080 90.516 168.7022
20.730219 90.481 169.0853
20.880439 90.447 169.4705
21.031747 90.412 169.8565
21.184152 90.378 170.2423
21.337661 90.344 170.6270
21.492282 90.310 171.0097
21.648024 90.277 171.3898
21.804895 90.243 171.7668
21.962902 90.211 172.1405
22.122054 90.178 172.5106
22.282360 90.147 172.8770
22.443827 90.116 173.2395
22.606464 90.087 173.5980
22.770280 90.058 173.9525
22.935283 90.031 174.3027
23.101481 90.005 174.6489
23.268884 89.981 174.9911
23.437500 89.959 175.3294
23.607338 89.939 175.6642
23.778406 89.920 175.9958
23.950714 89.904 176.3245
24.124271 89.890 176.6505
24.299086 89.879 176.9741
24.475167 89.870 177.2954
24.652524 89.864 177.6144
24.831166 89.860 177.9314
25.011103 89.859 178.2465
25.192344 89.860 178.5602
25.374898 89.863 178.8731
25.558775 89.868 179.1861
25.743984 89.875 179.5002
25.930536 89.884 179.8167
26.118439 89.895 -179.8634
26.307704 89.907 -179.5390
26.498341 89.920 -179.2093
26.690359 89.935 -178.8739
26.883768 89.952 -178.5327
27.078579 89.969 -178.1859
27.274801 89.988 -177.8340
27.472446 90.007 -177.4775
27.671522 90.028 -177.1173
27.872042 90.049 -176.7538
28.074014 90.071 -176.3878
28.277450 90.093 -176.0196
28.482360 90.115 -175.6497
28.688755 90.137 -175.2788
28.896645 90.159 -174.9075
29.106042 90.181 -174.5368
29.316957 90.204 -174.1680
29.529400 90.227 -173.8025
29.743382 90.249 -173.4420
29.958915 90.272 -173.0881
30.176009 90.295 -172.7423
30.394677 90.318 -172.4059
30.614929 90.341 -172.0795
30.836778 90.364 -171.7635
31.060234 90.386 -171.4578
31.285309 90.409 -171.1623
31.512015 90.432 -170.8766
31.740364 90.455 -170.6003
31.970368 90.478 -170.3333
32.202039 90.503 -170.0756
32.435388 90.528 -169.8274
32.670428 90.555 -169.5888
32.907171 90.582 -169.3597
33.145630 90.611 -169.1399
33.385817 90.640 -168.9290
33.627745 90.671 -168.7262
33.871425 90.703 -168.5306
34.116871 90.737 -168.3412
34.364096 90.771 -168.1572
34.613113 90.806 -167.9777
34.863934 90.842 -167.8020
35.116572 90.880 -167.6296
35.371041 90.918 -167.4599
35.627354 90.956 -167.2924
35.885525 90.996 -167.1270
36.145566 91.035 -166.9632
36.407492 91.075 -166.8007
36.671316 91.115 -166.6394
36.937051 91.155 -166.4794
37.204712 91.194 -166.3207
37.474313 91.234 -166.1637
37.745867 91.273 -166.0087
38.019389 91.312 -165.8560
38.294893 91.351 -165.7061
38.572394 91.389 -165.5594
38.851905 91.427 -165.4165
39.133442 91.465 -165.2783
39.417019 91.503 -165.1459
39.702651 91.541 -165.0209
39.990353 91.579 -164.9044
40.280140 91.617 -164.7974
40.572026 91.654 -164.6999
40.866028 91.691 -164.6109
41.162160 91.727 -164.5287
41.460438 91.763 -164.4512
41.760877 91.798 -164.3767
42.063494 91.834 -164.3043
42.368303 91.870 -164.2344
42.675322 91.907 -164.1682
42.984565 91.945 -164.1074
43.296048 91.983 -164.0534
43.609789 92.022 -164.0066
43.925804 92.060 -163.9666
44.244108 92.099 -163.9321
44.564719 92.137 -163.9015
44.887654 92.174 -163.8739
45.212928 92.212 -163.8487
45.540560 92.249 -163.8262
45.870565 92.287 -163.8069
46.202962 92.324 -163.7914
46.537768 92.361 -163.7800
46.875000 92.397 -163.7726
47.214676 92.434 -163.7694
47.556813 92.470 -163.7701
47.901429 92.505 -163.7749
48.248542 92.541 -163.7838
48.598171 92.576 -163.7965
48.950334 92.611 -163.8129
49.305048 92.646 -163.8322
49.662333 92.680 -163.8542
50.022206 92.714 -163.8788
50.384688 92.748 -163.9062
50.749796 92.782 -163.9366
51.117550 92.815 -163.9699
51.487969 92.848 -164.0055
51.861072 92.880 -164.0429
52.236879 92.912 -164.0818
52.615409 92.944 -164.1226
52.996681 92.975 -164.1662
53.380717 93.006 -164.2136
53.767536 93.037 -164.2654
54.157158 93.067 -164.3216
54.549603 93.096 -164.3813
54.944892 93.125 -164.4438
55.343045 93.153 -164.5087
55.744084 93.182 -164.5763
56.148028 93.210 -164.6479
56.554900 93.239 -164.7246
56.964720 93.267 -164.8065
57.377510 93.295 -164.8931
57.793291 93.323 -164.9826
58.212085 93.350 -165.0730
58.633914 93.377 -165.1628
59.058799 93.404 -165.2514
59.486764 93.430 -165.3391
59.917829 93.456 -165.4263
60.352019 93.483 -165.5140
60.789354 93.508 -165.6027
61.229859 93.534 -165.6930
61.673556 93.558 -165.7853
62.120468 93.582 -165.8795
62.570618 93.606 -165.9757
63.024031 93.629 -166.0739
63.480729 93.651 -166.1742
63.940736 93.673 -166.2772
64.404077 93.695 -166.3831
64.870776 93.716 -166.4921
65.340856 93.737 -166.6040
65.814343 93.759 -166.7184
66.291261 93.780 -166.8349
66.771635 93.801 -166.9530
67.255489 93.822 -167.0723
67.742850 93.843 -167.1924
68.233743 93.863 -167.3130
68.728193 93.883 -167.4338
69.226226 93.903 -167.5549
69.727867 93.923 -167.6764
70.233144 93.942 -167.7988
70.742083 93.960 -167.9223
71.254709 93.978 -168.0468
71.771050 93.995 -168.1718
72.291132 94.011 -168.2974
72.814984 94.028 -168.4240
73.342631 94.044 -168.5523
73.874102 94.060 -168.6827
74.409424 94.075 -168.8151
74.948626 94.091 -168.9493
75.491734 94.106 -169.0850
76.038779 94.121 -169.2224
76.589787 94.136 -169.3616
77.144788 94.151 -169.5020
77.703811 94.165 -169.6429
78.266885 94.178 -169.7837
78.834039 94.191 -169.9242
