* Measurement data measured by REW V5.31.3
* Source: EXCL: Microphone (USB Sound Device        ), MICROPHONE (Master Volume), R, volume: 0.390
* Format: 256k Log Swept Sine, 1 sweep at -12.0 dBFS with no timing reference
* Dated: Jul 21, 2025 9:49:01 PM
* REW Settings:
*  C-weighting compensation: Off
*  Target level: 75.0 dB
* Note: L Moondrop Kadenz M
* Measurement: L Moondrop Kadenz M
* Smoothing: 1/12 octave
* Frequency Step: 96 ppo
* Start Frequency: 0.36621094 Hz
*
* Freq(Hz) SPL(dB) Phase(degrees)
0.366211 93.880 158.6458
0.368865 93.874 158.6236
0.371538 93.865 158.5903
0.374230 93.854 158.5484
0.376942 93.842 158.5001
0.379673 93.829 158.4471
0.382424 93.815 158.3903
0.385196 93.801 158.3303
0.387987 93.787 158.2677
0.390798 93.772 158.2025
0.393630 93.757 158.1348
0.396483 93.742 158.0647
0.399356 93.727 157.9921
0.402250 93.712 157.9172
0.405165 93.697 157.8398
0.408101 93.682 157.7600
0.411058 93.667 157.6776
0.414037 93.651 157.5928
0.417037 93.635 157.5054
0.420059 93.620 157.4155
0.423103 93.604 157.3230
0.426169 93.588 157.2279
0.429257 93.572 157.1301
0.432368 93.556 157.0298
0.435501 93.539 156.9267
0.438656 93.523 156.8209
0.441835 93.506 156.7125
0.445037 93.490 156.6013
0.448262 93.473 156.4873
0.451510 93.456 156.3706
0.454782 93.439 156.2511
0.458077 93.422 156.1287
0.461397 93.404 156.0036
0.464740 93.387 155.8755
0.468108 93.370 155.7446
0.471500 93.352 155.6109
0.474917 93.334 155.4742
0.478358 93.316 155.3346
0.481825 93.298 155.1921
0.485316 93.280 155.0466
0.488833 93.262 154.8982
0.492375 93.243 154.7468
0.495943 93.225 154.5925
0.499537 93.206 154.4352
0.503157 93.187 154.2749
0.506803 93.168 154.1116
0.510475 93.149 153.9454
0.514175 93.130 153.7761
0.517900 93.110 153.6039
0.521653 93.091 153.4287
0.525434 93.071 153.2505
0.529241 93.051 153.0693
0.533076 93.031 152.8852
0.536939 93.011 152.6981
0.540830 92.991 152.5080
0.544749 92.970 152.3151
0.548696 92.950 152.1192
0.552673 92.929 151.9204
0.556677 92.908 151.7188
0.560711 92.887 151.5144
0.564774 92.866 151.3071
0.568867 92.845 151.0971
0.572989 92.823 150.8844
0.577141 92.802 150.6689
0.581324 92.780 150.4509
0.585536 92.758 150.2302
0.589779 92.736 150.0070
0.594053 92.714 149.7813
0.598358 92.691 149.5532
0.602694 92.669 149.3227
0.607061 92.646 149.0900
0.611460 92.623 148.8551
0.615891 92.600 148.6180
0.620354 92.577 148.3789
0.624849 92.553 148.1379
0.629377 92.530 147.8950
0.633938 92.506 147.6504
0.638532 92.482 147.4042
0.643159 92.458 147.1565
0.647819 92.434 146.9074
0.652514 92.409 146.6571
0.657242 92.385 146.4057
0.662005 92.360 146.1534
0.666802 92.335 145.9003
0.671634 92.310 145.6466
0.676501 92.284 145.3925
0.681403 92.259 145.1381
0.686341 92.233 144.8837
0.691314 92.207 144.6294
0.696324 92.181 144.3755
0.701370 92.155 144.1221
0.706452 92.128 143.8693
0.711571 92.100 143.6172
0.716728 92.072 143.3659
0.721921 92.043 143.1150
0.727153 92.012 142.8642
0.732422 91.979 142.6126
0.737729 91.944 142.3594
0.743075 91.907 142.1036
0.748460 91.868 141.8441
0.753883 91.828 141.5805
0.759346 91.787 141.3121
0.764849 91.745 141.0386
0.770391 91.702 140.7599
0.775974 91.659 140.4757
0.781597 91.616 140.1859
0.787261 91.571 139.8905
0.792966 91.527 139.5894
0.798712 91.481 139.2825
0.804500 91.435 138.9698
0.810329 91.389 138.6512
0.816201 91.342 138.3266
0.822116 91.294 137.9961
0.828073 91.245 137.6596
0.834074 91.196 137.3170
0.840118 91.146 136.9683
0.846206 91.095 136.6135
0.852338 91.043 136.2526
0.858514 90.991 135.8856
0.864735 90.938 135.5125
0.871001 90.883 135.1332
0.877313 90.828 134.7479
0.883670 90.771 134.3565
0.890074 90.714 133.9591
0.896524 90.656 133.5557
0.903020 90.596 133.1464
0.909564 90.535 132.7314
0.916155 90.473 132.3106
0.922794 90.410 131.8842
0.929481 90.345 131.4523
0.936216 90.279 131.0152
0.943000 90.211 130.5729
0.949834 90.142 130.1256
0.956717 90.071 129.6737
0.963649 89.999 129.2173
0.970632 89.925 128.7567
0.977666 89.850 128.2922
0.984750 89.772 127.8242
0.991886 89.693 127.3530
0.999074 89.612 126.8790
1.006314 89.528 126.4028
1.013606 89.443 125.9247
1.020951 89.356 125.4453
1.028349 89.266 124.9652
1.035801 89.174 124.4851
1.043307 89.080 124.0054
1.050867 88.983 123.5271
1.058482 88.883 123.0507
1.066152 88.782 122.5770
1.073878 88.677 122.1066
1.081660 88.570 121.6400
1.089498 88.460 121.1775
1.097393 88.348 120.7190
1.105345 88.234 120.2643
1.113355 88.117 119.8126
1.121423 87.999 119.3633
1.129549 87.879 118.9158
1.137734 87.757 118.4695
1.145979 87.633 118.0237
1.154283 87.507 117.5782
1.162647 87.380 117.1324
1.171072 87.250 116.6859
1.179558 87.118 116.2383
1.188106 86.983 115.7893
1.196715 86.847 115.3382
1.205387 86.707 114.8847
1.214122 86.565 114.4283
1.222920 86.420 113.9684
1.231782 86.273 113.5046
1.240708 86.122 113.0361
1.249699 85.967 112.5625
1.258754 85.809 112.0830
1.267876 85.648 111.5969
1.277063 85.483 111.1036
1.286318 85.313 110.6023
1.295639 85.140 110.0920
1.305027 84.962 109.5721
1.314484 84.780 109.0414
1.324009 84.592 108.4991
1.333604 84.400 107.9441
1.343268 84.203 107.3753
1.353002 84.000 106.7915
1.362806 83.791 106.1916
1.372681 83.577 105.5743
1.382628 83.356 104.9382
1.392647 83.129 104.2821
1.402739 82.895 103.6047
1.412904 82.654 102.9047
1.423142 82.405 102.1808
1.433455 82.148 101.4322
1.443843 81.880 100.6579
1.454305 81.601 99.8577
1.464844 81.309 99.0312
1.475459 81.000 98.1783
1.486150 80.673 97.2982
1.496920 80.325 96.3894
1.507767 79.956 95.4494
1.518693 79.564 94.4747
1.529698 79.151 93.4606
1.540783 78.717 92.4013
1.551948 78.265 91.2900
1.563194 77.795 90.1182
1.574521 77.309 88.8761
1.585931 76.809 87.5514
1.597423 76.298 86.1296
1.608999 75.778 84.5931
1.620658 75.252 82.9198
1.632402 74.721 81.0829
1.644232 74.190 79.0488
1.656146 73.661 76.7753
1.668147 73.136 74.2093
1.680235 72.621 71.2837
1.692411 72.118 67.9136
1.704675 71.632 63.9928
1.717028 71.166 59.3907
1.729470 70.725 53.9550
1.742003 70.314 47.5240
1.754626 69.938 39.9614
1.767341 69.602 31.2228
1.780147 69.313 21.4469
1.793047 69.076 11.0171
1.806040 68.897 0.5099
1.819128 68.781 -9.4874
1.832310 68.733 -18.5664
1.845587 68.755 -26.5644
1.858961 68.848 -33.5056
1.872432 69.011 -39.5076
1.886001 69.241 -44.7132
1.899667 69.534 -49.2573
1.913433 69.886 -53.2545
1.927299 70.290 -56.7984
1.941265 70.741 -59.9638
1.955332 71.233 -62.8101
1.969501 71.759 -65.3848
1.983773 72.314 -67.7257
1.998148 72.891 -69.8632
2.012627 73.483 -71.8218
2.027212 74.085 -73.6214
2.041902 74.689 -75.2782
2.056698 75.290 -76.8055
2.071602 75.881 -78.2143
2.086614 76.456 -79.5140
2.101734 77.010 -80.7123
2.116964 77.537 -81.8165
2.132304 78.031 -82.8332
2.147756 78.490 -83.7697
2.163320 78.910 -84.6340
2.178996 79.291 -85.4361
2.194786 79.633 -86.1879
2.210690 79.940 -86.9022
2.226710 80.215 -87.5916
2.242845 80.462 -88.2655
2.259098 80.685 -88.9303
2.275468 80.886 -89.5892
2.291957 81.067 -90.2429
2.308566 81.229 -90.8909
2.325295 81.374 -91.5313
2.342145 81.504 -92.1618
2.359117 81.620 -92.7796
2.376212 81.723 -93.3817
2.393431 81.816 -93.9647
2.410775 81.899 -94.5251
2.428244 81.974 -95.0593
2.445840 82.044 -95.5635
2.463564 82.109 -96.0343
2.481416 82.172 -96.4680
2.499397 82.233 -96.8618
2.517509 82.294 -97.2135
2.535752 82.355 -97.5224
2.554127 82.415 -97.7896
2.572635 82.473 -98.0176
2.591277 82.528 -98.2106
2.610055 82.577 -98.3723
2.628968 82.621 -98.5060
2.648019 82.657 -98.6136
2.667208 82.687 -98.6961
2.686535 82.710 -98.7536
2.706003 82.728 -98.7857
2.725612 82.741 -98.7917
2.745363 82.749 -98.7703
2.765257 82.756 -98.7204
2.785295 82.760 -98.6405
2.805478 82.764 -98.5291
2.825808 82.769 -98.3844
2.846285 82.775 -98.2048
2.866910 82.783 -97.9884
2.887685 82.795 -97.7333
2.908611 82.810 -97.4374
2.929688 82.829 -97.0984
2.950917 82.850 -96.7145
2.972301 82.873 -96.2845
2.993839 82.897 -95.8086
3.015534 82.922 -95.2883
3.037386 82.948 -94.7261
3.059396 82.976 -94.1257
3.081565 83.005 -93.4918
3.103896 83.037 -92.8293
3.126388 83.072 -92.1438
3.149043 83.111 -91.4414
3.171862 83.154 -90.7279
3.194847 83.203 -90.0093
3.217998 83.258 -89.2908
3.241317 83.320 -88.5764
3.264805 83.390 -87.8685
3.288463 83.468 -87.1673
3.312293 83.555 -86.4715
3.336295 83.650 -85.7790
3.360471 83.754 -85.0894
3.384822 83.866 -84.4042
3.409350 83.985 -83.7271
3.434056 84.110 -83.0635
3.458940 84.242 -82.4195
3.484005 84.377 -81.8014
3.509252 84.516 -81.2159
3.534681 84.658 -80.6690
3.560295 84.801 -80.1660
3.586094 84.945 -79.7114
3.612081 85.089 -79.3082
3.638255 85.233 -78.9578
3.664620 85.377 -78.6597
3.691175 85.521 -78.4117
3.717923 85.666 -78.2108
3.744864 85.813 -78.0537
3.772001 85.960 -77.9376
3.799335 86.108 -77.8597
3.826866 86.256 -77.8180
3.854597 86.403 -77.8105
3.882529 86.547 -77.8357
3.910664 86.690 -77.8924
3.939002 86.829 -77.9797
3.967546 86.963 -78.0974
3.996296 87.094 -78.2455
4.025255 87.219 -78.4248
4.054423 87.339 -78.6356
4.083804 87.455 -78.8781
4.113396 87.566 -79.1509
4.143204 87.672 -79.4516
4.173227 87.774 -79.7768
4.203468 87.872 -80.1225
4.233928 87.965 -80.4846
4.264609 88.053 -80.8590
4.295512 88.137 -81.2426
4.326639 88.216 -81.6328
4.357992 88.289 -82.0286
4.389572 88.358 -82.4305
4.421380 88.421 -82.8398
4.453419 88.478 -83.2581
4.485691 88.530 -83.6858
4.518196 88.577 -84.1218
4.550936 88.618 -84.5634
4.583914 88.654 -85.0069
4.617131 88.686 -85.4481
4.650589 88.714 -85.8826
4.684289 88.738 -86.3063
4.718233 88.758 -86.7165
4.752424 88.774 -87.1115
4.786862 88.785 -87.4913
4.821549 88.793 -87.8567
4.856488 88.797 -88.2088
4.891680 88.797 -88.5477
4.927127 88.794 -88.8731
4.962831 88.788 -89.1838
4.998794 88.780 -89.4781
5.035017 88.771 -89.7540
5.071503 88.761 -90.0094
5.108253 88.750 -90.2423
5.145270 88.739 -90.4514
5.182555 88.728 -90.6364
5.220110 88.716 -90.7978
5.257937 88.704 -90.9375
5.296038 88.693 -91.0580
5.334415 88.683 -91.1620
5.373071 88.674 -91.2526
5.412006 88.668 -91.3320
5.451224 88.664 -91.4021
5.490725 88.664 -91.4636
5.530514 88.668 -91.5166
5.570590 88.675 -91.5620
5.610957 88.686 -91.6013
5.651616 88.699 -91.6382
5.692570 88.717 -91.6772
5.733821 88.737 -91.7234
5.775370 88.761 -91.7818
5.817221 88.789 -91.8565
5.859375 88.820 -91.9500
5.901834 88.854 -92.0636
5.944602 88.891 -92.1979
5.987679 88.932 -92.3537
6.031068 88.975 -92.5322
6.074771 89.020 -92.7355
6.118792 89.067 -92.9658
6.163131 89.114 -93.2255
6.207792 89.162 -93.5164
6.252776 89.209 -93.8394
6.298086 89.257 -94.1945
6.343725 89.304 -94.5805
6.389694 89.351 -94.9954
6.435996 89.397 -95.4368
6.482634 89.441 -95.9025
6.529610 89.484 -96.3910
6.576926 89.524 -96.9011
6.624585 89.562 -97.4323
6.672590 89.597 -97.9837
6.720942 89.630 -98.5534
6.769645 89.659 -99.1385
6.818700 89.687 -99.7352
6.868111 89.712 -100.3394
6.917881 89.734 -100.9479
6.968010 89.753 -101.5585
7.018504 89.770 -102.1699
7.069362 89.785 -102.7810
7.120590 89.797 -103.3900
7.172189 89.808 -103.9944
7.224161 89.818 -104.5913
7.276511 89.826 -105.1777
7.329239 89.834 -105.7515
7.382350 89.842 -106.3116
7.435845 89.850 -106.8575
7.489729 89.858 -107.3895
7.544002 89.867 -107.9076
7.598669 89.878 -108.4119
7.653732 89.890 -108.9024
7.709194 89.905 -109.3791
7.765058 89.922 -109.8422
7.821327 89.942 -110.2930
7.878004 89.965 -110.7336
7.935091 89.992 -111.1662
7.992592 90.021 -111.5935
8.050510 90.055 -112.0174
8.108847 90.092 -112.4394
8.167607 90.132 -112.8608
8.226793 90.176 -113.2833
8.286408 90.222 -113.7087
8.346454 90.272 -114.1393
8.406936 90.324 -114.5767
8.467856 90.378 -115.0220
8.529218 90.434 -115.4756
8.591024 90.492 -115.9373
8.653278 90.551 -116.4067
8.715983 90.611 -116.8836
8.779143 90.671 -117.3674
8.842760 90.731 -117.8574
8.906839 90.790 -118.3526
8.971381 90.849 -118.8511
9.036392 90.907 -119.3507
9.101873 90.965 -119.8494
9.167829 91.021 -120.3451
9.234263 91.075 -120.8363
9.301178 91.129 -121.3212
9.368578 91.181 -121.7980
9.436467 91.232 -122.2646
9.504847 91.282 -122.7191
9.573723 91.331 -123.1601
9.643099 91.379 -123.5869
9.712976 91.426 -123.9987
9.783361 91.473 -124.3953
9.854255 91.519 -124.7761
9.925663 91.566 -125.1413
9.997588 91.612 -125.4910
10.070035 91.659 -125.8260
10.143007 91.705 -126.1474
10.216507 91.753 -126.4564
10.290540 91.800 -126.7541
10.365109 91.848 -127.0415
10.440219 91.896 -127.3199
10.515873 91.944 -127.5906
10.592076 91.993 -127.8550
10.668830 92.041 -128.1141
10.746141 92.089 -128.3687
10.824012 92.136 -128.6195
10.902447 92.183 -128.8669
10.981451 92.229 -129.1115
11.061027 92.274 -129.3534
11.141180 92.318 -129.5927
11.221913 92.361 -129.8293
11.303232 92.402 -130.0629
11.385140 92.442 -130.2934
11.467641 92.481 -130.5206
11.550741 92.518 -130.7444
11.634442 92.553 -130.9647
11.718750 92.587 -131.1816
11.803669 92.620 -131.3951
11.889203 92.651 -131.6056
11.975357 92.681 -131.8135
12.062136 92.710 -132.0192
12.149543 92.737 -132.2234
12.237583 92.763 -132.4267
12.326262 92.787 -132.6296
12.415583 92.811 -132.8330
12.505552 92.833 -133.0372
12.596172 92.853 -133.2429
12.687449 92.872 -133.4503
12.779387 92.890 -133.6597
12.871992 92.906 -133.8712
12.965268 92.921 -134.0848
13.059220 92.934 -134.3004
13.153852 92.945 -134.5179
13.249170 92.956 -134.7372
13.345179 92.964 -134.9581
13.441884 92.972 -135.1807
13.539289 92.979 -135.4051
13.637401 92.985 -135.6315
13.736223 92.991 -135.8606
13.835761 92.996 -136.0929
13.936021 93.000 -136.3293
14.037007 93.005 -136.5708
14.138725 93.010 -136.8185
14.241180 93.014 -137.0734
14.344377 93.019 -137.3365
14.448323 93.024 -137.6088
14.553021 93.029 -137.8909
14.658478 93.034 -138.1832
14.764700 93.039 -138.4859
14.871691 93.043 -138.7987
14.979457 93.048 -139.1210
15.088005 93.052 -139.4520
15.197339 93.056 -139.7906
15.307465 93.060 -140.1356
15.418389 93.063 -140.4856
15.530117 93.067 -140.8393
15.642655 93.071 -141.1956
15.756008 93.075 -141.5533
15.870182 93.080 -141.9116
15.985184 93.086 -142.2699
16.101019 93.093 -142.6281
16.217694 93.101 -142.9859
16.335214 93.111 -143.3435
16.453586 93.121 -143.7010
16.572815 93.134 -144.0587
16.692909 93.147 -144.4166
16.813872 93.162 -144.7748
16.935713 93.178 -145.1329
17.058436 93.196 -145.4904
17.182048 93.214 -145.8466
17.306556 93.232 -146.2005
17.431967 93.251 -146.5509
17.558286 93.271 -146.8967
17.685521 93.291 -147.2366
17.813677 93.311 -147.5693
17.942762 93.332 -147.8940
18.072783 93.352 -148.2097
18.203746 93.373 -148.5159
18.335658 93.394 -148.8122
18.468526 93.416 -149.0985
18.602356 93.437 -149.3750
18.737156 93.459 -149.6418
18.872934 93.481 -149.8993
19.009695 93.502 -150.1479
19.147447 93.524 -150.3881
19.286197 93.544 -150.6203
19.425953 93.565 -150.8451
19.566721 93.585 -151.0629
19.708510 93.604 -151.2744
19.851326 93.622 -151.4799
19.995177 93.639 -151.6803
20.140070 93.655 -151.8760
20.286013 93.670 -152.0676
20.433014 93.684 -152.2558
20.581080 93.697 -152.4410
20.730219 93.708 -152.6238
20.880439 93.717 -152.8046
21.031747 93.726 -152.9837
21.184152 93.732 -153.1617
21.337661 93.738 -153.3389
21.492282 93.742 -153.5161
21.648024 93.745 -153.6941
21.804895 93.748 -153.8736
21.962902 93.749 -154.0560
22.122054 93.749 -154.2423
22.282360 93.749 -154.4336
22.443827 93.748 -154.6311
22.606464 93.747 -154.8354
22.770280 93.745 -155.0472
22.935283 93.742 -155.2665
23.101481 93.739 -155.4931
23.268884 93.735 -155.7265
23.437500 93.731 -155.9661
23.607338 93.727 -156.2111
23.778406 93.723 -156.4609
23.950714 93.719 -156.7149
24.124271 93.716 -156.9729
24.299086 93.713 -157.2346
24.475167 93.711 -157.5000
24.652524 93.710 -157.7689
24.831166 93.710 -158.0410
25.011103 93.711 -158.3159
25.192344 93.713 -158.5927
25.374898 93.716 -158.8704
25.558775 93.719 -159.1478
25.743984 93.724 -159.4238
25.930536 93.729 -159.6971
26.118439 93.735 -159.9668
26.307704 93.741 -160.2319
26.498341 93.749 -160.4917
26.690359 93.756 -160.7458
26.883768 93.765 -160.9937
27.078579 93.773 -161.2348
27.274801 93.782 -161.4688
27.472446 93.790 -161.6952
27.671522 93.799 -161.9138
27.872042 93.807 -162.1244
28.074014 93.815 -162.3273
28.277450 93.823 -162.5228
28.482360 93.830 -162.7115
28.688755 93.837 -162.8945
28.896645 93.843 -163.0725
29.106042 93.848 -163.2466
29.316957 93.852 -163.4177
29.529400 93.856 -163.5867
29.743382 93.858 -163.7544
29.958915 93.860 -163.9216
30.176009 93.861 -164.0892
30.394677 93.860 -164.2582
30.614929 93.859 -164.4294
30.836778 93.857 -164.6036
31.060234 93.855 -164.7814
31.285309 93.851 -164.9632
31.512015 93.847 -165.1494
31.740364 93.843 -165.3401
31.970368 93.838 -165.5354
32.202039 93.833 -165.7356
32.435388 93.829 -165.9408
32.670428 93.824 -166.1509
32.907171 93.819 -166.3658
33.145630 93.815 -166.5847
33.385817 93.811 -166.8070
33.627745 93.806 -167.0312
33.871425 93.803 -167.2561
34.116871 93.799 -167.4803
34.364096 93.796 -167.7028
34.613113 93.794 -167.9228
34.863934 93.792 -168.1402
35.116572 93.791 -168.3548
35.371041 93.790 -168.5667
35.627354 93.790 -168.7758
35.885525 93.790 -168.9819
36.145566 93.789 -169.1844
36.407492 93.789 -169.3824
36.671316 93.788 -169.5753
36.937051 93.786 -169.7625
37.204712 93.785 -169.9439
37.474313 93.782 -170.1202
37.745867 93.780 -170.2922
38.019389 93.777 -170.4615
38.294893 93.774 -170.6294
38.572394 93.771 -170.7969
38.851905 93.766 -170.9647
39.133442 93.761 -171.1327
39.417019 93.756 -171.3007
39.702651 93.749 -171.4686
39.990353 93.743 -171.6364
40.280140 93.736 -171.8048
40.572026 93.729 -171.9747
40.866028 93.722 -172.1471
41.162160 93.715 -172.3224
41.460438 93.708 -172.5004
41.760877 93.701 -172.6801
42.063494 93.694 -172.8603
42.368303 93.687 -173.0397
42.675322 93.679 -173.2177
42.984565 93.672 -173.3940
43.296048 93.666 -173.5689
43.609789 93.659 -173.7430
43.925804 93.653 -173.9168
44.244108 93.647 -174.0906
44.564719 93.641 -174.2644
44.887654 93.635 -174.4376
45.212928 93.628 -174.6095
45.540560 93.620 -174.7790
45.870565 93.613 -174.9450
46.202962 93.604 -175.1066
46.537768 93.596 -175.2638
46.875000 93.588 -175.4171
47.214676 93.580 -175.5680
47.556813 93.572 -175.7185
47.901429 93.565 -175.8703
48.248542 93.557 -176.0243
48.598171 93.550 -176.1807
48.950334 93.542 -176.3384
49.305048 93.534 -176.4961
49.662333 93.525 -176.6523
50.022206 93.517 -176.8063
50.384688 93.508 -176.9577
50.749796 93.499 -177.1065
51.117550 93.490 -177.2529
51.487969 93.480 -177.3972
51.861072 93.471 -177.5392
52.236879 93.461 -177.6790
52.615409 93.451 -177.8164
52.996681 93.442 -177.9513
53.380717 93.432 -178.0842
53.767536 93.422 -178.2159
54.157158 93.412 -178.3474
54.549603 93.403 -178.4805
54.944892 93.393 -178.6162
55.343045 93.384 -178.7555
55.744084 93.375 -178.8985
56.148028 93.367 -179.0447
56.554900 93.358 -179.1938
56.964720 93.350 -179.3459
57.377510 93.341 -179.5014
57.793291 93.333 -179.6607
58.212085 93.324 -179.8231
58.633914 93.315 -179.9868
59.058799 93.305 179.8510
59.486764 93.294 179.6931
59.917829 93.283 179.5411
60.352019 93.271 179.3951
60.789354 93.258 179.2536
61.229859 93.246 179.1151
61.673556 93.233 178.9787
62.120468 93.219 178.8445
62.570618 93.204 178.7132
63.024031 93.188 178.5860
63.480729 93.171 178.4640
63.940736 93.154 178.3477
64.404077 93.137 178.2369
64.870776 93.120 178.1303
65.340856 93.103 178.0264
65.814343 93.087 177.9236
66.291261 93.072 177.8213
66.771635 93.057 177.7192
67.255489 93.042 177.6180
67.742850 93.028 177.5187
68.233743 93.013 177.4225
68.728193 92.999 177.3309
69.226226 92.986 177.2439
69.727867 92.974 177.1606
70.233144 92.962 177.0787
70.742083 92.952 176.9952
71.254709 92.942 176.9077
71.771050 92.933 176.8143
72.291132 92.924 176.7151
72.814984 92.915 176.6114
73.342631 92.906 176.5048
73.874102 92.897 176.3963
74.409424 92.888 176.2858
74.948626 92.879 176.1723
75.491734 92.871 176.0554
76.038779 92.862 175.9354
76.589787 92.853 175.8133
77.144788 92.844 175.6903
77.703811 92.834 175.5670
78.266885 92.824 175.4426
78.834039 92.814 175.3156
79.405303 92.804 175.1836
79.980706 92.793 175.0453
80.560280 92.780 174.9003
81.144053 92.766 174.7492
81.732056 92.750 174.5940
82.324320 92.731 174.4376
82.920876 92.711 174.2831
83.521755 92.688 174.1326
84.126988 92.665 173.9869
84.736607 92.641 173.8461
85.350643 92.616 173.7111
85.969129 92.590 173.5836
