* Measurement data measured by REW V5.31.3
* Source: EXCL: Microphone (USB Sound Device        ), MICROPHONE (Master Volume), R, volume: 0.390
* Format: 256k Log Swept Sine, 1 sweep at -12.0 dBFS with no timing reference
* Dated: Jul 21, 2025 9:50:46 PM
* REW Settings:
*  C-weighting compensation: Off
*  Target level: 75.0 dB
* Note: L Moondrop Kadenz S
* Measurement: L Moondrop Kadenz S
* Smoothing: 1/12 octave
* Frequency Step: 96 ppo
* Start Frequency: 0.36621094 Hz
*
* Freq(Hz) SPL(dB) Phase(degrees)
0.366211 93.756 159.1012
0.368865 93.750 159.0794
0.371538 93.741 159.0467
0.374230 93.730 159.0057
0.376942 93.718 158.9584
0.379673 93.705 158.9064
0.382424 93.692 158.8507
0.385196 93.678 158.7919
0.387987 93.663 158.7305
0.390798 93.649 158.6666
0.393630 93.634 158.6003
0.396483 93.620 158.5316
0.399356 93.605 158.4606
0.402250 93.590 158.3872
0.405165 93.575 158.3114
0.408101 93.560 158.2332
0.411058 93.545 158.1526
0.414037 93.529 158.0695
0.417037 93.514 157.9839
0.420059 93.498 157.8959
0.423103 93.483 157.8053
0.426169 93.467 157.7122
0.429257 93.451 157.6165
0.432368 93.435 157.5183
0.435501 93.419 157.4174
0.438656 93.403 157.3139
0.441835 93.386 157.2078
0.445037 93.370 157.0990
0.448262 93.353 156.9874
0.451510 93.337 156.8732
0.454782 93.320 156.7563
0.458077 93.303 156.6366
0.461397 93.286 156.5141
0.464740 93.268 156.3889
0.468108 93.251 156.2608
0.471500 93.234 156.1300
0.474917 93.216 155.9963
0.478358 93.198 155.8598
0.481825 93.180 155.7204
0.485316 93.163 155.5781
0.488833 93.144 155.4330
0.492375 93.126 155.2850
0.495943 93.108 155.1341
0.499537 93.089 154.9802
0.503157 93.071 154.8235
0.506803 93.052 154.6639
0.510475 93.033 154.5013
0.514175 93.014 154.3359
0.517900 92.995 154.1675
0.521653 92.975 153.9962
0.525434 92.956 153.8220
0.529241 92.936 153.6449
0.533076 92.917 153.4649
0.536939 92.897 153.2821
0.540830 92.877 153.0963
0.544749 92.857 152.9077
0.548696 92.836 152.7163
0.552673 92.816 152.5221
0.556677 92.795 152.3251
0.560711 92.774 152.1253
0.564774 92.754 151.9228
0.568867 92.732 151.7176
0.572989 92.711 151.5097
0.577141 92.690 151.2992
0.581324 92.668 151.0861
0.585536 92.647 150.8705
0.589779 92.625 150.6525
0.594053 92.603 150.4320
0.598358 92.581 150.2091
0.602694 92.558 149.9839
0.607061 92.536 149.7566
0.611460 92.513 149.5271
0.615891 92.490 149.2955
0.620354 92.467 149.0619
0.624849 92.444 148.8264
0.629377 92.421 148.5892
0.633938 92.398 148.3502
0.638532 92.374 148.1097
0.643159 92.350 147.8677
0.647819 92.326 147.6244
0.652514 92.302 147.3799
0.657242 92.278 147.1343
0.662005 92.253 146.8878
0.666802 92.228 146.6406
0.671634 92.204 146.3927
0.676501 92.179 146.1445
0.681403 92.153 145.8959
0.686341 92.128 145.6474
0.691314 92.102 145.3989
0.696324 92.076 145.1508
0.701370 92.050 144.9032
0.706452 92.023 144.6562
0.711571 91.996 144.4099
0.716728 91.968 144.1642
0.721921 91.939 143.9191
0.727153 91.909 143.6739
0.732422 91.877 143.4280
0.737729 91.842 143.1806
0.743075 91.805 142.9305
0.748460 91.767 142.6769
0.753883 91.727 142.4193
0.759346 91.687 142.1570
0.764849 91.645 141.8898
0.770391 91.603 141.6174
0.775974 91.561 141.3397
0.781597 91.518 141.0567
0.787261 91.474 140.7681
0.792966 91.430 140.4740
0.798712 91.385 140.1743
0.804500 91.339 139.8689
0.810329 91.293 139.5578
0.816201 91.247 139.2409
0.822116 91.199 138.9182
0.828073 91.151 138.5897
0.834074 91.103 138.2553
0.840118 91.053 137.9150
0.846206 91.003 137.5688
0.852338 90.952 137.2167
0.858514 90.900 136.8586
0.864735 90.847 136.4947
0.871001 90.794 136.1248
0.877313 90.739 135.7490
0.883670 90.683 135.3673
0.890074 90.626 134.9799
0.896524 90.569 134.5866
0.903020 90.510 134.1877
0.909564 90.449 133.7832
0.916155 90.388 133.3731
0.922794 90.326 132.9576
0.929481 90.262 132.5369
0.936216 90.196 132.1110
0.943000 90.130 131.6802
0.949834 90.061 131.2446
0.956717 89.992 130.8045
0.963649 89.920 130.3601
0.970632 89.847 129.9116
0.977666 89.773 129.4594
0.984750 89.696 129.0038
0.991886 89.618 128.5451
0.999074 89.538 128.0838
1.006314 89.456 127.6203
1.013606 89.372 127.1550
1.020951 89.286 126.6885
1.028349 89.197 126.2213
1.035801 89.107 125.7540
1.043307 89.014 125.2873
1.050867 88.918 124.8218
1.058482 88.820 124.3582
1.066152 88.720 123.8973
1.073878 88.617 123.4395
1.081660 88.512 122.9854
1.089498 88.404 122.5353
1.097393 88.294 122.0891
1.105345 88.182 121.6466
1.113355 88.068 121.2070
1.121423 87.953 120.7698
1.129549 87.836 120.3344
1.137734 87.717 119.9001
1.145979 87.597 119.4666
1.154283 87.475 119.0333
1.162647 87.352 118.5999
1.171072 87.227 118.1660
1.179558 87.099 117.7311
1.188106 86.970 117.2950
1.196715 86.839 116.8570
1.205387 86.705 116.4169
1.214122 86.568 115.9742
1.222920 86.429 115.5283
1.231782 86.287 115.0788
1.240708 86.142 114.6251
1.249699 85.993 114.1666
1.258754 85.841 113.7028
1.267876 85.686 113.2329
1.277063 85.526 112.7563
1.286318 85.362 112.2722
1.295639 85.194 111.7800
1.305027 85.021 111.2787
1.314484 84.844 110.7675
1.324009 84.661 110.2454
1.333604 84.473 109.7115
1.343268 84.279 109.1648
1.353002 84.080 108.6041
1.362806 83.874 108.0284
1.372681 83.662 107.4364
1.382628 83.443 106.8269
1.392647 83.216 106.1985
1.402739 82.983 105.5502
1.412904 82.741 104.8806
1.423142 82.490 104.1886
1.433455 82.230 103.4732
1.443843 81.959 102.7337
1.454305 81.676 101.9696
1.464844 81.377 101.1808
1.475459 81.061 100.3671
1.486150 80.725 99.5280
1.496920 80.367 98.6621
1.507767 79.986 97.7673
1.518693 79.581 96.8404
1.529698 79.153 95.8772
1.540783 78.704 94.8726
1.551948 78.233 93.8203
1.563194 77.744 92.7130
1.574521 77.238 91.5416
1.585931 76.717 90.2954
1.597423 76.184 88.9617
1.608999 75.641 87.5246
1.620658 75.090 85.9649
1.632402 74.535 84.2591
1.644232 73.978 82.3779
1.656146 73.423 80.2845
1.668147 72.873 77.9329
1.680235 72.331 75.2646
1.692411 71.802 72.2056
1.704675 71.290 68.6624
1.717028 70.799 64.5180
1.729470 70.333 59.6304
1.742003 69.899 53.8372
1.754626 69.501 46.9751
1.767341 69.146 38.9269
1.780147 68.839 29.7015
1.793047 68.586 19.5279
1.806040 68.395 8.8853
1.819128 68.269 -1.6070
1.832310 68.215 -11.3999
1.845587 68.234 -20.1714
1.858961 68.328 -27.8355
1.872432 68.495 -34.4586
1.886001 68.732 -40.1730
1.899667 69.035 -45.1221
1.913433 69.398 -49.4367
1.927299 69.817 -53.2267
1.941265 70.285 -56.5815
1.955332 70.794 -59.5726
1.969501 71.340 -62.2570
1.983773 71.915 -64.6802
1.998148 72.513 -66.8784
2.012627 73.127 -68.8809
2.027212 73.751 -70.7112
2.041902 74.377 -72.3884
2.056698 75.000 -73.9281
2.071602 75.612 -75.3431
2.086614 76.209 -76.6442
2.101734 76.783 -77.8403
2.116964 77.329 -78.9396
2.132304 77.843 -79.9496
2.147756 78.319 -80.8778
2.163320 78.756 -81.7330
2.178996 79.152 -82.5250
2.194786 79.510 -83.2655
2.210690 79.831 -83.9674
2.226710 80.119 -84.6427
2.242845 80.380 -85.3008
2.259098 80.616 -85.9478
2.275468 80.829 -86.5868
2.291957 81.021 -87.2189
2.308566 81.196 -87.8434
2.325295 81.353 -88.4590
2.342145 81.494 -89.0635
2.359117 81.622 -89.6545
2.376212 81.737 -90.2292
2.393431 81.841 -90.7846
2.410775 81.936 -91.3177
2.428244 82.024 -91.8251
2.445840 82.105 -92.3038
2.463564 82.183 -92.7503
2.481416 82.259 -93.1619
2.499397 82.334 -93.5358
2.517509 82.408 -93.8703
2.535752 82.483 -94.1650
2.554127 82.558 -94.4208
2.572635 82.632 -94.6403
2.591277 82.703 -94.8272
2.610055 82.769 -94.9852
2.628968 82.829 -95.1174
2.648019 82.883 -95.2255
2.667208 82.931 -95.3108
2.686535 82.973 -95.3736
2.706003 83.009 -95.4138
2.725612 83.041 -95.4310
2.745363 83.069 -95.4243
2.765257 83.094 -95.3931
2.785295 83.117 -95.3363
2.805478 83.140 -95.2529
2.825808 83.163 -95.1417
2.846285 83.188 -95.0014
2.866910 83.215 -94.8309
2.887685 83.244 -94.6285
2.908611 83.276 -94.3927
2.929688 83.311 -94.1217
2.950917 83.348 -93.8141
2.972301 83.387 -93.4691
2.993839 83.427 -93.0868
3.015534 83.467 -92.6688
3.037386 83.508 -92.2173
3.059396 83.551 -91.7358
3.081565 83.594 -91.2279
3.103896 83.640 -90.6979
3.126388 83.687 -90.1506
3.149043 83.738 -89.5908
3.171862 83.792 -89.0232
3.194847 83.850 -88.4525
3.217998 83.913 -87.8827
3.241317 83.981 -87.3169
3.264805 84.056 -86.7565
3.288463 84.137 -86.2015
3.312293 84.224 -85.6502
3.336295 84.318 -85.1007
3.360471 84.419 -84.5522
3.384822 84.525 -84.0058
3.409350 84.638 -83.4644
3.434056 84.755 -82.9324
3.458940 84.877 -82.4147
3.484005 85.002 -81.9170
3.509252 85.130 -81.4446
3.534681 85.259 -81.0029
3.560295 85.390 -80.5965
3.586094 85.522 -80.2295
3.612081 85.654 -79.9045
3.638255 85.786 -79.6230
3.664620 85.919 -79.3846
3.691175 86.052 -79.1877
3.717923 86.186 -79.0296
3.744864 86.320 -78.9079
3.772001 86.456 -78.8202
3.799335 86.592 -78.7646
3.826866 86.728 -78.7395
3.854597 86.864 -78.7438
3.882529 86.997 -78.7763
3.910664 87.129 -78.8363
3.939002 87.258 -78.9235
3.967546 87.383 -79.0377
3.996296 87.504 -79.1792
4.025255 87.622 -79.3487
4.054423 87.735 -79.5466
4.083804 87.844 -79.7728
4.113396 87.949 -80.0262
4.143204 88.051 -80.3048
4.173227 88.148 -80.6056
4.203468 88.242 -80.9252
4.233928 88.332 -81.2602
4.264609 88.418 -81.6072
4.295512 88.500 -81.9634
4.326639 88.577 -82.3268
4.357992 88.650 -82.6965
4.389572 88.718 -83.0729
4.421380 88.781 -83.4572
4.453419 88.839 -83.8506
4.485691 88.893 -84.2535
4.518196 88.941 -84.6648
4.550936 88.985 -85.0820
4.583914 89.024 -85.5019
4.617131 89.059 -85.9206
4.650589 89.090 -86.3341
4.684289 89.116 -86.7391
4.718233 89.138 -87.1331
4.752424 89.156 -87.5148
4.786862 89.169 -87.8844
4.821549 89.179 -88.2431
4.856488 89.186 -88.5917
4.891680 89.191 -88.9305
4.927127 89.195 -89.2587
4.962831 89.198 -89.5751
4.998794 89.200 -89.8779
5.035017 89.202 -90.1650
5.071503 89.203 -90.4347
5.108253 89.202 -90.6854
5.145270 89.201 -90.9161
5.182555 89.198 -91.1266
5.220110 89.194 -91.3176
5.257937 89.189 -91.4907
5.296038 89.184 -91.6478
5.334415 89.180 -91.7914
5.373071 89.177 -91.9238
5.412006 89.175 -92.0467
5.451224 89.176 -92.1616
5.490725 89.179 -92.2690
5.530514 89.186 -92.3690
5.570590 89.195 -92.4620
5.610957 89.207 -92.5497
5.651616 89.222 -92.6349
5.692570 89.239 -92.7214
5.733821 89.259 -92.8136
5.775370 89.282 -92.9157
5.817221 89.308 -93.0308
5.859375 89.337 -93.1613
5.901834 89.369 -93.3082
5.944602 89.404 -93.4720
5.987679 89.441 -93.6533
6.031068 89.481 -93.8535
6.074771 89.522 -94.0745
6.118792 89.565 -94.3183
6.163131 89.608 -94.5872
6.207792 89.652 -94.8828
6.252776 89.696 -95.2060
6.298086 89.741 -95.5568
6.343725 89.785 -95.9344
6.389694 89.830 -96.3370
6.435996 89.873 -96.7630
6.482634 89.916 -97.2107
6.529610 89.957 -97.6788
6.576926 89.996 -98.1665
6.624585 90.033 -98.6734
6.672590 90.068 -99.1988
6.720942 90.101 -99.7411
6.769645 90.132 -100.2977
6.818700 90.161 -100.8654
6.868111 90.188 -101.4409
6.917881 90.213 -102.0213
6.968010 90.235 -102.6049
7.018504 90.256 -103.1905
7.069362 90.274 -103.7771
7.120590 90.291 -104.3631
7.172189 90.306 -104.9463
7.224161 90.320 -105.5240
7.276511 90.333 -106.0937
7.329239 90.346 -106.6536
7.382350 90.358 -107.2027
7.435845 90.370 -107.7404
7.489729 90.383 -108.2670
7.544002 90.396 -108.7822
7.598669 90.411 -109.2860
7.653732 90.427 -109.7783
7.709194 90.444 -110.2588
7.765058 90.464 -110.7278
7.821327 90.487 -111.1861
7.878004 90.511 -111.6354
7.935091 90.539 -112.0776
7.992592 90.569 -112.5144
8.050510 90.602 -112.9476
8.108847 90.638 -113.3782
8.167607 90.677 -113.8072
8.226793 90.719 -114.2361
8.286408 90.764 -114.6663
8.346454 90.811 -115.0997
8.406936 90.860 -115.5377
8.467856 90.911 -115.9812
8.529218 90.964 -116.4305
8.591024 91.018 -116.8856
8.653278 91.073 -117.3461
8.715983 91.130 -117.8120
8.779143 91.186 -118.2829
8.842760 91.242 -118.7583
8.906839 91.299 -119.2373
8.971381 91.355 -119.7185
9.036392 91.411 -120.2003
9.101873 91.465 -120.6807
9.167829 91.519 -121.1585
9.234263 91.572 -121.6321
9.301178 91.624 -122.1002
9.368578 91.675 -122.5613
9.436467 91.724 -123.0136
9.504847 91.773 -123.4555
9.573723 91.821 -123.8861
9.643099 91.868 -124.3044
9.712976 91.915 -124.7101
9.783361 91.961 -125.1025
9.854255 92.007 -125.4814
9.925663 92.052 -125.8466
9.997588 92.097 -126.1985
10.070035 92.142 -126.5374
10.143007 92.187 -126.8641
10.216507 92.233 -127.1794
10.290540 92.278 -127.4843
10.365109 92.323 -127.7795
10.440219 92.369 -128.0659
10.515873 92.414 -128.3446
10.592076 92.460 -128.6165
10.668830 92.505 -128.8825
10.746141 92.549 -129.1432
10.824012 92.593 -129.3991
10.902447 92.637 -129.6507
10.981451 92.679 -129.8983
11.061027 92.721 -130.1423
11.141180 92.762 -130.3826
11.221913 92.801 -130.6193
11.303232 92.840 -130.8524
11.385140 92.877 -131.0818
11.467641 92.913 -131.3076
11.550741 92.948 -131.5299
11.634442 92.981 -131.7487
11.718750 93.013 -131.9643
11.803669 93.044 -132.1769
11.889203 93.074 -132.3869
11.975357 93.102 -132.5949
12.062136 93.130 -132.8014
12.149543 93.156 -133.0070
12.237583 93.181 -133.2124
12.326262 93.205 -133.4181
12.415583 93.227 -133.6247
12.505552 93.248 -133.8328
12.596172 93.268 -134.0427
12.687449 93.287 -134.2547
12.779387 93.304 -134.4690
12.871992 93.319 -134.6856
12.965268 93.333 -134.9046
13.059220 93.346 -135.1258
13.153852 93.357 -135.3491
13.249170 93.367 -135.5744
13.345179 93.376 -135.8016
13.441884 93.383 -136.0308
13.539289 93.390 -136.2622
13.637401 93.396 -136.4960
13.736223 93.401 -136.7327
13.835761 93.406 -136.9730
13.936021 93.411 -137.2176
14.037007 93.415 -137.4675
14.138725 93.419 -137.7235
14.241180 93.424 -137.9866
14.344377 93.428 -138.2577
14.448323 93.432 -138.5374
14.553021 93.436 -138.8261
14.658478 93.440 -139.1242
14.764700 93.444 -139.4315
14.871691 93.448 -139.7477
14.979457 93.451 -140.0720
15.088005 93.454 -140.4037
15.197339 93.457 -140.7417
15.307465 93.460 -141.0848
15.418389 93.463 -141.4317
15.530117 93.465 -141.7814
15.642655 93.469 -142.1329
15.756008 93.472 -142.4853
15.870182 93.477 -142.8381
15.985184 93.482 -143.1909
16.101019 93.488 -143.5437
16.217694 93.496 -143.8966
16.335214 93.505 -144.2498
16.453586 93.516 -144.6036
16.572815 93.527 -144.9581
16.692909 93.541 -145.3134
16.813872 93.555 -145.6694
16.935713 93.570 -146.0256
17.058436 93.586 -146.3813
17.182048 93.602 -146.7355
17.306556 93.620 -147.0870
17.431967 93.637 -147.4346
17.558286 93.655 -147.7767
17.685521 93.673 -148.1121
17.813677 93.691 -148.4396
17.942762 93.710 -148.7583
18.072783 93.729 -149.0674
18.203746 93.749 -149.3666
18.335658 93.768 -149.6558
18.468526 93.788 -149.9353
18.602356 93.809 -150.2055
18.737156 93.830 -150.4670
18.872934 93.851 -150.7203
19.009695 93.871 -150.9662
19.147447 93.892 -151.2052
19.286197 93.912 -151.4378
19.425953 93.932 -151.6645
19.566721 93.952 -151.8857
19.708510 93.970 -152.1017
19.851326 93.987 -152.3128
19.995177 94.004 -152.5194
20.140070 94.019 -152.7218
20.286013 94.033 -152.9205
20.433014 94.046 -153.1159
20.581080 94.057 -153.3084
20.730219 94.067 -153.4985
20.880439 94.075 -153.6865
21.031747 94.082 -153.8729
21.184152 94.088 -154.0580
21.337661 94.092 -154.2423
21.492282 94.095 -154.4262
21.648024 94.097 -154.6105
21.804895 94.098 -154.7957
21.962902 94.098 -154.9828
22.122054 94.097 -155.1728
22.282360 94.096 -155.3667
22.443827 94.094 -155.5655
22.606464 94.091 -155.7701
22.770280 94.088 -155.9811
22.935283 94.085 -156.1989
23.101481 94.081 -156.4237
23.268884 94.077 -156.6552
23.437500 94.072 -156.8931
23.607338 94.068 -157.1367
23.778406 94.064 -157.3856
23.950714 94.060 -157.6391
24.124271 94.056 -157.8967
24.299086 94.053 -158.1580
24.475167 94.050 -158.4227
24.652524 94.048 -158.6902
24.831166 94.048 -158.9603
25.011103 94.047 -159.2323
25.192344 94.048 -159.5053
25.374898 94.050 -159.7785
25.558775 94.052 -160.0509
25.743984 94.056 -160.3214
25.930536 94.060 -160.5889
26.118439 94.065 -160.8526
26.307704 94.070 -161.1117
26.498341 94.076 -161.3656
26.690359 94.083 -161.6140
26.883768 94.090 -161.8564
27.078579 94.098 -162.0925
27.274801 94.106 -162.3221
27.472446 94.114 -162.5449
27.671522 94.121 -162.7606
27.872042 94.129 -162.9693
28.074014 94.136 -163.1708
28.277450 94.142 -163.3655
28.482360 94.149 -163.5539
28.688755 94.154 -163.7367
28.896645 94.159 -163.9145
29.106042 94.163 -164.0883
29.316957 94.167 -164.2590
29.529400 94.169 -164.4275
29.743382 94.171 -164.5946
29.958915 94.172 -164.7614
30.176009 94.172 -164.9286
30.394677 94.171 -165.0974
30.614929 94.170 -165.2685
30.836778 94.168 -165.4429
31.060234 94.165 -165.6213
31.285309 94.162 -165.8046
31.512015 94.158 -165.9931
31.740364 94.154 -166.1873
31.970368 94.149 -166.3871
32.202039 94.144 -166.5925
32.435388 94.139 -166.8029
32.670428 94.134 -167.0178
32.907171 94.128 -167.2362
33.145630 94.123 -167.4571
33.385817 94.118 -167.6795
33.627745 94.113 -167.9024
33.871425 94.108 -168.1250
34.116871 94.104 -168.3468
34.364096 94.101 -168.5671
34.613113 94.098 -168.7858
34.863934 94.095 -169.0023
35.116572 94.093 -169.2161
35.371041 94.091 -169.4265
35.627354 94.089 -169.6329
35.885525 94.088 -169.8347
36.145566 94.086 -170.0315
36.407492 94.084 -170.2233
36.671316 94.083 -170.4103
36.937051 94.081 -170.5932
37.204712 94.079 -170.7724
37.474313 94.076 -170.9486
37.745867 94.073 -171.1224
38.019389 94.070 -171.2945
38.294893 94.066 -171.4654
38.572394 94.061 -171.6358
38.851905 94.056 -171.8062
39.133442 94.050 -171.9769
39.417019 94.043 -172.1481
39.702651 94.036 -172.3199
39.990353 94.029 -172.4921
40.280140 94.021 -172.6647
40.572026 94.012 -172.8375
40.866028 94.004 -173.0107
41.162160 93.996 -173.1844
41.460438 93.988 -173.3588
41.760877 93.980 -173.5342
42.063494 93.972 -173.7104
42.368303 93.965 -173.8875
42.675322 93.958 -174.0650
42.984565 93.951 -174.2425
43.296048 93.944 -174.4195
43.609789 93.937 -174.5952
43.925804 93.930 -174.7693
44.244108 93.923 -174.9413
44.564719 93.916 -175.1112
44.887654 93.909 -175.2790
45.212928 93.901 -175.4447
45.540560 93.893 -175.6083
45.870565 93.885 -175.7697
46.202962 93.877 -175.9288
46.537768 93.868 -176.0858
46.875000 93.859 -176.2414
47.214676 93.850 -176.3963
47.556813 93.840 -176.5513
47.901429 93.831 -176.7067
48.248542 93.821 -176.8621
48.598171 93.810 -177.0163
48.950334 93.800 -177.1675
49.305048 93.789 -177.3146
49.662333 93.779 -177.4574
50.022206 93.769 -177.5971
50.384688 93.760 -177.7360
50.749796 93.752 -177.8764
51.117550 93.744 -178.0197
51.487969 93.735 -178.1659
51.861072 93.727 -178.3131
52.236879 93.718 -178.4591
52.615409 93.708 -178.6015
52.996681 93.697 -178.7389
53.380717 93.687 -178.8712
53.767536 93.677 -178.9997
54.157158 93.668 -179.1260
54.549603 93.658 -179.2520
54.944892 93.649 -179.3789
55.343045 93.641 -179.5074
55.744084 93.632 -179.6380
56.148028 93.624 -179.7712
56.554900 93.616 -179.9077
56.964720 93.608 179.9521
57.377510 93.600 179.8087
57.793291 93.592 179.6631
58.212085 93.583 179.5171
58.633914 93.575 179.3715
59.058799 93.566 179.2262
59.486764 93.557 179.0801
59.917829 93.547 178.9326
60.352019 93.537 178.7837
60.789354 93.527 178.6348
61.229859 93.515 178.4872
61.673556 93.503 178.3420
62.120468 93.490 178.1995
62.570618 93.477 178.0591
63.024031 93.463 177.9202
63.480729 93.450 177.7820
63.940736 93.436 177.6440
64.404077 93.422 177.5056
64.870776 93.409 177.3671
65.340856 93.395 177.2294
65.814343 93.381 177.0939
66.291261 93.367 176.9612
66.771635 93.353 176.8316
67.255489 93.339 176.7050
67.742850 93.325 176.5811
68.233743 93.311 176.4595
68.728193 93.297 176.3401
69.226226 93.282 176.2229
69.727867 93.267 176.1078
70.233144 93.252 175.9948
70.742083 93.236 175.8833
71.254709 93.221 175.7727
71.771050 93.205 175.6622
72.291132 93.189 175.5514
72.814984 93.173 175.4405
73.342631 93.157 175.3304
73.874102 93.142 175.2223
74.409424 93.126 175.1166
74.948626 93.112 175.0122
75.491734 93.098 174.9072
76.038779 93.085 174.7998
76.589787 93.073 174.6900
77.144788 93.060 174.5789
77.703811 93.048 174.4669
78.266885 93.035 174.3538
78.834039 93.023 174.2386
79.405303 93.011 174.1204
79.980706 92.998 173.9979
80.560280 92.986 173.8698
81.144053 92.973 173.7351
81.732056 92.959 173.5934
82.324320 92.944 173.4452
82.920876 92.927 173.2925
83.521755 92.909 173.1382
84.126988 92.888 172.9863
84.736607 92.866 172.8403
85.350643 92.842 172.7031
85.969129 92.817 172.5764
