* Measurement data measured by REW V5.31.3
* Source: EXCL: Microphone (USB Sound Device        ), MICROPHONE (Master Volume), R, volume: 0.390
* Format: 256k Log Swept Sine, 1 sweep at -15.0 dBFS with no timing reference
* Dated: May 11, 2025 2:50:09 PM
* REW Settings:
*  C-weighting compensation: Off
*  Target level: 75.0 dB
* Note: Moondrop llustrious L
* Measurement: L Moondrop llustrious
* Smoothing: 1/12 octave
* Frequency Step: 96 ppo
* Start Frequency: 0.36621094 Hz
*
* Freq(Hz) SPL(dB) Phase(degrees)
0.366211 94.872 156.3469
0.368865 94.866 156.3224
0.371538 94.858 156.2857
0.374230 94.847 156.2395
0.376942 94.835 156.1864
0.379673 94.822 156.1279
0.382424 94.808 156.0653
0.385196 94.794 155.9992
0.387987 94.780 155.9301
0.390798 94.765 155.8582
0.393630 94.751 155.7835
0.396483 94.736 155.7062
0.399356 94.721 155.6261
0.402250 94.706 155.5434
0.405165 94.691 155.4580
0.408101 94.676 155.3698
0.411058 94.661 155.2789
0.414037 94.645 155.1852
0.417037 94.630 155.0887
0.420059 94.614 154.9893
0.423103 94.599 154.8871
0.426169 94.583 154.7820
0.429257 94.567 154.6740
0.432368 94.551 154.5630
0.435501 94.534 154.4491
0.438656 94.518 154.3322
0.441835 94.502 154.2122
0.445037 94.485 154.0893
0.448262 94.469 153.9633
0.451510 94.452 153.8341
0.454782 94.435 153.7019
0.458077 94.418 153.5666
0.461397 94.401 153.4281
0.464740 94.383 153.2864
0.468108 94.366 153.1416
0.471500 94.349 152.9935
0.474917 94.331 152.8422
0.478358 94.313 152.6877
0.481825 94.295 152.5300
0.485316 94.277 152.3690
0.488833 94.259 152.2047
0.492375 94.241 152.0371
0.495943 94.222 151.8662
0.499537 94.204 151.6920
0.503157 94.185 151.5146
0.506803 94.166 151.3338
0.510475 94.147 151.1496
0.514175 94.128 150.9622
0.517900 94.109 150.7715
0.521653 94.089 150.5774
0.525434 94.070 150.3801
0.529241 94.050 150.1794
0.533076 94.030 149.9755
0.536939 94.011 149.7683
0.540830 93.990 149.5578
0.544749 93.970 149.3442
0.548696 93.950 149.1273
0.552673 93.929 148.9072
0.556677 93.909 148.6839
0.560711 93.888 148.4576
0.564774 93.867 148.2281
0.568867 93.846 147.9956
0.572989 93.824 147.7601
0.577141 93.803 147.5216
0.581324 93.781 147.2802
0.585536 93.760 147.0360
0.589779 93.738 146.7890
0.594053 93.716 146.5393
0.598358 93.693 146.2869
0.602694 93.671 146.0320
0.607061 93.648 145.7746
0.611460 93.626 145.5148
0.615891 93.603 145.2527
0.620354 93.580 144.9884
0.624849 93.556 144.7220
0.629377 93.533 144.4536
0.633938 93.510 144.1834
0.638532 93.486 143.9115
0.643159 93.462 143.6379
0.647819 93.438 143.3630
0.652514 93.414 143.0867
0.657242 93.389 142.8094
0.662005 93.365 142.5311
0.666802 93.340 142.2520
0.671634 93.315 141.9724
0.676501 93.290 141.6923
0.681403 93.264 141.4121
0.686341 93.239 141.1320
0.691314 93.213 140.8521
0.696324 93.187 140.5727
0.701370 93.161 140.2940
0.706452 93.134 140.0161
0.711571 93.107 139.7392
0.716728 93.079 139.4631
0.721921 93.050 139.1877
0.727153 93.019 138.9124
0.732422 92.987 138.6365
0.737729 92.952 138.3589
0.743075 92.915 138.0784
0.748460 92.877 137.7941
0.753883 92.837 137.5052
0.759346 92.797 137.2112
0.764849 92.755 136.9117
0.770391 92.713 136.6065
0.775974 92.670 136.2953
0.781597 92.627 135.9782
0.787261 92.583 135.6549
0.792966 92.539 135.3254
0.798712 92.494 134.9896
0.804500 92.448 134.6475
0.810329 92.402 134.2991
0.816201 92.356 133.9442
0.822116 92.308 133.5829
0.828073 92.260 133.2150
0.834074 92.211 132.8407
0.840118 92.162 132.4598
0.846206 92.111 132.0723
0.852338 92.060 131.6783
0.858514 92.008 131.2777
0.864735 91.955 130.8705
0.871001 91.901 130.4569
0.877313 91.846 130.0367
0.883670 91.791 129.6101
0.890074 91.734 129.1772
0.896524 91.676 128.7379
0.903020 91.617 128.2924
0.909564 91.557 127.8409
0.916155 91.495 127.3833
0.922794 91.432 126.9200
0.929481 91.368 126.4511
0.936216 91.303 125.9767
0.943000 91.236 125.4970
0.949834 91.168 125.0125
0.956717 91.099 124.5232
0.963649 91.027 124.0295
0.970632 90.954 123.5318
0.977666 90.880 123.0304
0.984750 90.803 122.5258
0.991886 90.725 122.0183
0.999074 90.645 121.5086
1.006314 90.563 120.9970
1.013606 90.479 120.4842
1.020951 90.393 119.9709
1.028349 90.305 119.4576
1.035801 90.215 118.9452
1.043307 90.122 118.4344
1.050867 90.027 117.9260
1.058482 89.930 117.4208
1.066152 89.831 116.9197
1.073878 89.729 116.4233
1.081660 89.625 115.9324
1.089498 89.520 115.4471
1.097393 89.414 114.9675
1.105345 89.308 114.4932
1.113355 89.202 114.0235
1.121423 89.098 113.5577
1.129549 88.995 113.0951
1.137734 88.894 112.6350
1.145979 88.795 112.1770
1.154283 88.698 111.7206
1.162647 88.602 111.2654
1.171072 88.506 110.8109
1.179558 88.411 110.3568
1.188106 88.316 109.9027
1.196715 88.221 109.4482
1.205387 88.124 108.9929
1.214122 88.026 108.5364
1.222920 87.926 108.0782
1.231782 87.823 107.6180
1.240708 87.717 107.1551
1.249699 87.607 106.6893
1.258754 87.492 106.2198
1.267876 87.373 105.7463
1.277063 87.247 105.2682
1.286318 87.114 104.7849
1.295639 86.974 104.2958
1.305027 86.826 103.8005
1.314484 86.669 103.2981
1.324009 86.501 102.7881
1.333604 86.324 102.2700
1.343268 86.134 101.7429
1.353002 85.933 101.2063
1.362806 85.718 100.6596
1.372681 85.488 100.1021
1.382628 85.243 99.5332
1.392647 84.982 98.9526
1.402739 84.703 98.3596
1.412904 84.405 97.7542
1.423142 84.087 97.1363
1.433455 83.747 96.5062
1.443843 83.383 95.8649
1.454305 82.991 95.2135
1.464844 82.568 94.5539
1.475459 82.110 93.8884
1.486150 81.612 93.2188
1.496920 81.072 92.5466
1.507767 80.486 91.8725
1.518693 79.856 91.1968
1.529698 79.181 90.5189
1.540783 78.463 89.8380
1.551948 77.704 89.1529
1.563194 76.907 88.4622
1.574521 76.074 87.7639
1.585931 75.209 87.0558
1.597423 74.316 86.3352
1.608999 73.397 85.5989
1.620658 72.459 84.8428
1.632402 71.504 84.0620
1.644232 70.538 83.2504
1.656146 69.567 82.4001
1.668147 68.595 81.5011
1.680235 67.629 80.5401
1.692411 66.677 79.4994
1.704675 65.744 78.3547
1.717028 64.840 77.0717
1.729470 63.974 75.6006
1.742003 63.156 73.8658
1.754626 62.396 71.7478
1.767341 61.708 69.0454
1.780147 61.105 65.3932
1.793047 60.601 60.0575
1.806040 60.210 51.3640
1.819128 59.948 34.9788
1.832310 59.823 1.6385
1.845587 59.845 -41.1891
1.858961 60.013 -66.4791
1.872432 60.323 -79.1522
1.886001 60.768 -86.5539
1.899667 61.335 -91.5445
1.913433 62.011 -95.2661
1.927299 62.782 -98.2389
1.941265 63.633 -100.7285
1.955332 64.550 -102.8835
1.969501 65.519 -104.7932
1.983773 66.528 -106.5142
1.998148 67.563 -108.0843
2.012627 68.612 -109.5296
2.027212 69.665 -110.8688
2.041902 70.710 -112.1156
2.056698 71.736 -113.2804
2.071602 72.734 -114.3712
2.086614 73.694 -115.3945
2.101734 74.607 -116.3558
2.116964 75.465 -117.2604
2.132304 76.261 -118.1139
2.147756 76.990 -118.9229
2.163320 77.649 -119.6961
2.178996 78.236 -120.4450
2.194786 78.754 -121.1838
2.210690 79.208 -121.9282
2.226710 79.605 -122.6929
2.242845 79.950 -123.4881
2.259098 80.249 -124.3190
2.275468 80.505 -125.1866
2.291957 80.722 -126.0886
2.308566 80.903 -127.0209
2.325295 81.050 -127.9781
2.342145 81.166 -128.9542
2.359117 81.254 -129.9430
2.376212 81.317 -130.9381
2.393431 81.357 -131.9331
2.410775 81.378 -132.9214
2.428244 81.384 -133.8968
2.445840 81.377 -134.8530
2.463564 81.361 -135.7843
2.481416 81.340 -136.6858
2.499397 81.316 -137.5537
2.517509 81.294 -138.3868
2.535752 81.273 -139.1867
2.554127 81.254 -139.9593
2.572635 81.237 -140.7143
2.591277 81.219 -141.4637
2.610055 81.197 -142.2188
2.628968 81.169 -142.9878
2.648019 81.133 -143.7758
2.667208 81.086 -144.5846
2.686535 81.029 -145.4135
2.706003 80.960 -146.2600
2.725612 80.879 -147.1200
2.745363 80.784 -147.9880
2.765257 80.676 -148.8572
2.785295 80.552 -149.7196
2.805478 80.413 -150.5659
2.825808 80.259 -151.3861
2.846285 80.086 -152.1692
2.866910 79.895 -152.9043
2.887685 79.684 -153.5816
2.908611 79.449 -154.1934
2.929688 79.189 -154.7357
2.950917 78.899 -155.2081
2.972301 78.577 -155.6122
2.993839 78.222 -155.9496
3.015534 77.834 -156.2198
3.037386 77.417 -156.4195
3.059396 76.974 -156.5421
3.081565 76.509 -156.5779
3.103896 76.031 -156.5134
3.126388 75.544 -156.3312
3.149043 75.058 -156.0090
3.171862 74.580 -155.5190
3.194847 74.121 -154.8268
3.217998 73.688 -153.8895
3.241317 73.291 -152.6542
3.264805 72.937 -151.0556
3.288463 72.632 -149.0132
3.312293 72.378 -146.4307
3.336295 72.173 -143.1984
3.360471 72.015 -139.2049
3.384822 71.902 -134.3574
3.409350 71.830 -128.6160
3.434056 71.798 -122.0385
3.458940 71.803 -114.8209
3.484005 71.843 -107.2989
3.509252 71.919 -99.8860
3.534681 72.028 -92.9690
3.560295 72.172 -86.8182
3.586094 72.350 -81.5587
3.612081 72.566 -77.1967
3.638255 72.821 -73.6642
3.664620 73.120 -70.8599
3.691175 73.466 -68.6748
3.717923 73.857 -67.0063
3.744864 74.291 -65.7636
3.772001 74.760 -64.8691
3.799335 75.254 -64.2571
3.826866 75.764 -63.8732
3.854597 76.277 -63.6727
3.882529 76.783 -63.6198
3.910664 77.272 -63.6867
3.939002 77.735 -63.8530
3.967546 78.164 -64.1051
3.996296 78.557 -64.4363
4.025255 78.910 -64.8448
4.054423 79.224 -65.3320
4.083804 79.504 -65.8982
4.113396 79.750 -66.5392
4.143204 79.968 -67.2460
4.173227 80.159 -68.0055
4.203468 80.327 -68.8026
4.233928 80.474 -69.6218
4.264609 80.602 -70.4485
4.295512 80.714 -71.2708
4.326639 80.810 -72.0804
4.357992 80.893 -72.8742
4.389572 80.961 -73.6549
4.421380 81.014 -74.4293
4.453419 81.053 -75.2054
4.485691 81.075 -75.9881
4.518196 81.080 -76.7765
4.550936 81.070 -77.5647
4.583914 81.044 -78.3426
4.617131 81.003 -79.0969
4.650589 80.949 -79.8131
4.684289 80.880 -80.4770
4.718233 80.798 -81.0768
4.752424 80.703 -81.6042
4.786862 80.593 -82.0560
4.821549 80.469 -82.4319
4.856488 80.330 -82.7326
4.891680 80.178 -82.9568
4.927127 80.015 -83.1010
4.962831 79.843 -83.1586
4.998794 79.665 -83.1207
5.035017 79.485 -82.9757
5.071503 79.304 -82.7106
5.108253 79.124 -82.3115
5.145270 78.945 -81.7650
5.182555 78.769 -81.0606
5.220110 78.595 -80.1937
5.257937 78.425 -79.1671
5.296038 78.262 -77.9915
5.334415 78.112 -76.6842
5.373071 77.979 -75.2682
5.412006 77.868 -73.7690
5.451224 77.784 -72.2117
5.490725 77.731 -70.6181
5.530514 77.711 -69.0069
5.570590 77.723 -67.3967
5.610957 77.765 -65.8106
5.651616 77.834 -64.2770
5.692570 77.924 -62.8272
5.733821 78.031 -61.4916
5.775370 78.151 -60.2966
5.817221 78.280 -59.2614
5.859375 78.418 -58.3965
5.901834 78.562 -57.7039
5.944602 78.713 -57.1786
5.987679 78.868 -56.8114
6.031068 79.023 -56.5915
6.074771 79.177 -56.5080
6.118792 79.324 -56.5517
6.163131 79.461 -56.7156
6.207792 79.585 -56.9952
6.252776 79.695 -57.3874
6.298086 79.791 -57.8877
6.343725 79.873 -58.4871
6.389694 79.940 -59.1719
6.435996 79.992 -59.9254
6.482634 80.030 -60.7307
6.529610 80.052 -61.5738
6.576926 80.058 -62.4460
6.624585 80.049 -63.3437
6.672590 80.023 -64.2656
6.720942 79.982 -65.2084
6.769645 79.925 -66.1638
6.818700 79.855 -67.1198
6.868111 79.772 -68.0617
6.917881 79.677 -68.9761
6.968010 79.570 -69.8528
7.018504 79.452 -70.6865
7.069362 79.323 -71.4744
7.120590 79.187 -72.2139
7.172189 79.044 -72.9008
7.224161 78.898 -73.5288
7.276511 78.751 -74.0899
7.329239 78.606 -74.5766
7.382350 78.463 -74.9845
7.435845 78.326 -75.3138
7.489729 78.195 -75.5709
7.544002 78.075 -75.7668
7.598669 77.968 -75.9142
7.653732 77.877 -76.0257
7.709194 77.806 -76.1116
7.765058 77.754 -76.1818
7.821327 77.723 -76.2490
7.878004 77.711 -76.3306
7.935091 77.720 -76.4474
7.992592 77.747 -76.6199
8.050510 77.792 -76.8646
8.108847 77.855 -77.1917
8.167607 77.933 -77.6063
8.226793 78.025 -78.1106
8.286408 78.127 -78.7062
8.346454 78.237 -79.3946
8.406936 78.352 -80.1759
8.467856 78.470 -81.0474
8.529218 78.589 -82.0024
8.591024 78.709 -83.0303
8.653278 78.828 -84.1179
8.715983 78.944 -85.2525
8.779143 79.056 -86.4232
8.842760 79.163 -87.6205
8.906839 79.265 -88.8350
8.971381 79.362 -90.0545
9.036392 79.454 -91.2651
9.101873 79.541 -92.4532
9.167829 79.623 -93.6075
9.234263 79.701 -94.7202
9.301178 79.776 -95.7846
9.368578 79.848 -96.7938
9.436467 79.918 -97.7406
9.504847 79.989 -98.6187
9.573723 80.060 -99.4242
9.643099 80.132 -100.1560
9.712976 80.207 -100.8156
9.783361 80.287 -101.4057
9.854255 80.371 -101.9295
9.925663 80.460 -102.3909
9.997588 80.556 -102.7949
10.070035 80.657 -103.1486
10.143007 80.765 -103.4603
10.216507 80.879 -103.7384
10.290540 80.998 -103.9903
10.365109 81.121 -104.2222
10.440219 81.249 -104.4396
10.515873 81.380 -104.6478
10.592076 81.512 -104.8514
10.668830 81.645 -105.0534
10.746141 81.778 -105.2553
10.824012 81.909 -105.4571
10.902447 82.039 -105.6579
10.981451 82.165 -105.8565
11.061027 82.288 -106.0514
11.141180 82.408 -106.2405
11.221913 82.523 -106.4212
11.303232 82.634 -106.5910
11.385140 82.740 -106.7477
11.467641 82.843 -106.8900
11.550741 82.942 -107.0171
11.634442 83.037 -107.1285
11.718750 83.128 -107.2244
11.803669 83.217 -107.3054
11.889203 83.302 -107.3729
11.975357 83.385 -107.4288
12.062136 83.464 -107.4751
12.149543 83.541 -107.5138
12.237583 83.615 -107.5468
12.326262 83.685 -107.5757
12.415583 83.752 -107.6017
12.505552 83.816 -107.6259
12.596172 83.875 -107.6485
12.687449 83.931 -107.6692
12.779387 83.982 -107.6873
12.871992 84.029 -107.7022
12.965268 84.072 -107.7127
13.059220 84.111 -107.7182
13.153852 84.147 -107.7179
13.249170 84.180 -107.7117
13.345179 84.210 -107.7002
13.441884 84.238 -107.6852
13.539289 84.265 -107.6688
13.637401 84.290 -107.6541
13.736223 84.316 -107.6451
13.835761 84.341 -107.6462
13.936021 84.365 -107.6624
14.037007 84.390 -107.6982
14.138725 84.414 -107.7578
14.241180 84.437 -107.8450
14.344377 84.459 -107.9624
14.448323 84.480 -108.1115
14.553021 84.497 -108.2921
14.658478 84.512 -108.5033
14.764700 84.524 -108.7426
14.871691 84.532 -109.0066
14.979457 84.537 -109.2912
15.088005 84.538 -109.5920
15.197339 84.537 -109.9047
15.307465 84.534 -110.2257
15.418389 84.529 -110.5517
15.530117 84.525 -110.8811
15.642655 84.522 -111.2134
15.756008 84.520 -111.5495
15.870182 84.522 -111.8916
15.985184 84.528 -112.2427
16.101019 84.538 -112.6067
16.217694 84.552 -112.9876
16.335214 84.571 -113.3887
16.453586 84.594 -113.8127
16.572815 84.621 -114.2608
16.692909 84.650 -114.7328
16.813872 84.683 -115.2267
16.935713 84.717 -115.7390
17.058436 84.752 -116.2646
17.182048 84.788 -116.7979
17.306556 84.825 -117.3323
17.431967 84.863 -117.8618
17.558286 84.902 -118.3805
17.685521 84.943 -118.8837
17.813677 84.986 -119.3680
17.942762 85.033 -119.8314
18.072783 85.082 -120.2735
18.203746 85.135 -120.6949
18.335658 85.191 -121.0974
18.468526 85.250 -121.4831
18.602356 85.313 -121.8543
18.737156 85.378 -122.2129
18.872934 85.444 -122.5601
19.009695 85.512 -122.8962
19.147447 85.579 -123.2209
19.286197 85.646 -123.5331
19.425953 85.712 -123.8311
19.566721 85.777 -124.1132
19.708510 85.839 -124.3777
19.851326 85.900 -124.6235
19.995177 85.958 -124.8501
20.140070 86.015 -125.0577
20.286013 86.070 -125.2470
20.433014 86.122 -125.4194
20.581080 86.173 -125.5768
20.730219 86.221 -125.7210
20.880439 86.267 -125.8542
21.031747 86.310 -125.9780
21.184152 86.351 -126.0944
21.337661 86.389 -126.2051
21.492282 86.425 -126.3118
21.648024 86.457 -126.4162
21.804895 86.488 -126.5206
21.962902 86.516 -126.6270
22.122054 86.541 -126.7377
22.282360 86.565 -126.8550
22.443827 86.586 -126.9808
22.606464 86.604 -127.1169
22.770280 86.621 -127.2642
22.935283 86.636 -127.4235
23.101481 86.648 -127.5950
23.268884 86.659 -127.7785
23.437500 86.668 -127.9740
23.607338 86.677 -128.1815
23.778406 86.685 -128.4014
23.950714 86.694 -128.6344
24.124271 86.703 -128.8816
24.299086 86.713 -129.1439
24.475167 86.724 -129.4221
24.652524 86.736 -129.7163
24.831166 86.749 -130.0259
25.011103 86.764 -130.3494
25.192344 86.780 -130.6844
25.374898 86.797 -131.0282
25.558775 86.816 -131.3773
25.743984 86.836 -131.7289
25.930536 86.858 -132.0801
26.118439 86.883 -132.4288
26.307704 86.910 -132.7733
26.498341 86.939 -133.1127
26.690359 86.971 -133.4461
26.883768 87.005 -133.7729
27.078579 87.040 -134.0926
27.274801 87.078 -134.4045
27.472446 87.116 -134.7077
27.671522 87.155 -135.0015
27.872042 87.194 -135.2850
28.074014 87.233 -135.5573
28.277450 87.271 -135.8175
28.482360 87.308 -136.0647
28.688755 87.344 -136.2980
28.896645 87.378 -136.5167
29.106042 87.411 -136.7204
29.316957 87.442 -136.9093
29.529400 87.472 -137.0847
29.743382 87.500 -137.2487
29.958915 87.527 -137.4045
30.176009 87.554 -137.5560
30.394677 87.579 -137.7070
30.614929 87.602 -137.8613
30.836778 87.624 -138.0215
31.060234 87.644 -138.1891
31.285309 87.662 -138.3648
31.512015 87.678 -138.5482
31.740364 87.692 -138.7386
31.970368 87.704 -138.9354
32.202039 87.715 -139.1381
32.435388 87.726 -139.3469
32.670428 87.736 -139.5622
32.907171 87.747 -139.7847
33.145630 87.758 -140.0149
33.385817 87.770 -140.2532
33.627745 87.784 -140.4996
33.871425 87.798 -140.7539
34.116871 87.813 -141.0155
34.364096 87.830 -141.2833
34.613113 87.848 -141.5555
34.863934 87.866 -141.8301
35.116572 87.886 -142.1043
35.371041 87.906 -142.3754
35.627354 87.926 -142.6412
35.885525 87.948 -142.9002
36.145566 87.971 -143.1520
36.407492 87.994 -143.3970
36.671316 88.017 -143.6362
36.937051 88.041 -143.8701
37.204712 88.064 -144.0990
37.474313 88.087 -144.3219
37.745867 88.108 -144.5376
38.019389 88.128 -144.7446
38.294893 88.146 -144.9421
38.572394 88.164 -145.1304
38.851905 88.181 -145.3111
39.133442 88.197 -145.4865
39.417019 88.213 -145.6598
39.702651 88.228 -145.8340
39.990353 88.243 -146.0115
40.280140 88.258 -146.1940
40.572026 88.271 -146.3820
40.866028 88.284 -146.5752
41.162160 88.296 -146.7725
41.460438 88.307 -146.9724
41.760877 88.317 -147.1738
42.063494 88.328 -147.3754
42.368303 88.338 -147.5766
42.675322 88.348 -147.7769
42.984565 88.359 -147.9763
43.296048 88.371 -148.1745
43.609789 88.383 -148.3716
43.925804 88.396 -148.5675
44.244108 88.409 -148.7623
44.564719 88.422 -148.9559
44.887654 88.435 -149.1481
45.212928 88.448 -149.3385
45.540560 88.462 -149.5268
45.870565 88.475 -149.7130
46.202962 88.487 -149.8973
46.537768 88.500 -150.0802
46.875000 88.512 -150.2623
47.214676 88.524 -150.4439
47.556813 88.536 -150.6252
47.901429 88.547 -150.8061
48.248542 88.558 -150.9869
48.598171 88.569 -151.1680
48.950334 88.580 -151.3494
49.305048 88.591 -151.5309
49.662333 88.601 -151.7120
50.022206 88.611 -151.8914
50.384688 88.621 -152.0682
50.749796 88.631 -152.2420
51.117550 88.641 -152.4129
51.487969 88.652 -152.5811
51.861072 88.662 -152.7466
52.236879 88.672 -152.9090
52.615409 88.682 -153.0678
52.996681 88.692 -153.2233
53.380717 88.702 -153.3761
53.767536 88.712 -153.5279
54.157158 88.723 -153.6803
54.549603 88.733 -153.8347
54.944892 88.743 -153.9916
55.343045 88.754 -154.1516
55.744084 88.765 -154.3152
56.148028 88.776 -154.4834
56.554900 88.788 -154.6570
56.964720 88.800 -154.8370
57.377510 88.812 -155.0236
57.793291 88.824 -155.2164
58.212085 88.835 -155.4134
58.633914 88.846 -155.6114
59.058799 88.855 -155.8059
59.486764 88.863 -155.9924
59.917829 88.871 -156.1681
60.352019 88.879 -156.3331
60.789354 88.887 -156.4901
61.229859 88.896 -156.6423
61.673556 88.904 -156.7921
62.120468 88.912 -156.9404
62.570618 88.919 -157.0879
63.024031 88.927 -157.2356
63.480729 88.933 -157.3853
63.940736 88.939 -157.5379
64.404077 88.945 -157.6934
64.870776 88.951 -157.8506
65.340856 88.956 -158.0087
65.814343 88.962 -158.1677
66.291261 88.967 -158.3283
66.771635 88.974 -158.4910
67.255489 88.980 -158.6551
67.742850 88.986 -158.8193
68.233743 88.992 -158.9817
68.728193 88.998 -159.1402
69.226226 89.003 -159.2933
69.727867 89.009 -159.4409
70.233144 89.014 -159.5837
70.742083 89.019 -159.7231
71.254709 89.024 -159.8603
71.771050 89.029 -159.9958
72.291132 89.033 -160.1301
72.814984 89.038 -160.2644
73.342631 89.043 -160.4003
73.874102 89.048 -160.5395
74.409424 89.053 -160.6826
74.948626 89.059 -160.8292
75.491734 89.063 -160.9782
76.038779 89.068 -161.1283
76.589787 89.073 -161.2786
77.144788 89.078 -161.4281
77.703811 89.082 -161.5764
78.266885 89.087 -161.7231
78.834039 89.091 -161.8683
79.405303 89.096 -162.0125
79.980706 89.101 -162.1564
80.560280 89.105 -162.3005
81.144053 89.109 -162.4454
81.732056 89.113 -162.5911
82.324320 89.116 -162.7375
82.920876 89.118 -162.8837
83.521755 89.119 -163.0285
