* Measurement data measured by REW V5.31.3
* Source: EXCL: Microphone (USB Sound Device        ), MICROPHONE (Master Volume), R, volume: 0.390
* Format: 256k Log Swept Sine, 1 sweep at -15.0 dBFS with no timing reference
* Dated: Jul 9, 2025 12:25:25 AM
* REW Settings:
*  C-weighting compensation: Off
*  Target level: 75.0 dB
* Note: L NC Audio BC2
* Measurement: L NC Audio BC2
* Smoothing: 1/12 octave
* Frequency Step: 96 ppo
* Start Frequency: 0.36621094 Hz
*
* Freq(Hz) SPL(dB) Phase(degrees)
0.366211 90.646 -58.1826
0.368865 90.648 -58.2576
0.371538 90.652 -58.3699
0.374230 90.657 -58.5108
0.376942 90.663 -58.6729
0.379673 90.669 -58.8507
0.382424 90.676 -59.0407
0.385196 90.682 -59.2407
0.387987 90.689 -59.4493
0.390798 90.696 -59.6660
0.393630 90.703 -59.8904
0.396483 90.709 -60.1223
0.399356 90.716 -60.3618
0.402250 90.723 -60.6087
0.405165 90.730 -60.8633
0.408101 90.737 -61.1254
0.411058 90.745 -61.3951
0.414037 90.752 -61.6726
0.417037 90.759 -61.9578
0.420059 90.766 -62.2509
0.423103 90.774 -62.5518
0.426169 90.781 -62.8606
0.429257 90.789 -63.1774
0.432368 90.796 -63.5021
0.435501 90.804 -63.8349
0.438656 90.811 -64.1757
0.441835 90.819 -64.5247
0.445037 90.827 -64.8817
0.448262 90.835 -65.2469
0.451510 90.842 -65.6202
0.454782 90.850 -66.0016
0.458077 90.858 -66.3913
0.461397 90.866 -66.7890
0.464740 90.874 -67.1950
0.468108 90.883 -67.6090
0.471500 90.891 -68.0312
0.474917 90.899 -68.4615
0.478358 90.907 -68.8999
0.481825 90.916 -69.3463
0.485316 90.924 -69.8007
0.488833 90.933 -70.2630
0.492375 90.941 -70.7332
0.495943 90.950 -71.2113
0.499537 90.959 -71.6971
0.503157 90.967 -72.1905
0.506803 90.976 -72.6916
0.510475 90.985 -73.2002
0.514175 90.994 -73.7161
0.517900 91.003 -74.2394
0.521653 91.012 -74.7699
0.525434 91.021 -75.3074
0.529241 91.030 -75.8519
0.533076 91.040 -76.4032
0.536939 91.049 -76.9612
0.540830 91.058 -77.5257
0.544749 91.068 -78.0966
0.548696 91.077 -78.6737
0.552673 91.087 -79.2568
0.556677 91.097 -79.8459
0.560711 91.106 -80.4407
0.564774 91.116 -81.0410
0.568867 91.126 -81.6466
0.572989 91.136 -82.2575
0.577141 91.146 -82.8733
0.581324 91.156 -83.4939
0.585536 91.166 -84.1191
0.589779 91.177 -84.7488
0.594053 91.187 -85.3826
0.598358 91.197 -86.0205
0.602694 91.208 -86.6621
0.607061 91.218 -87.3074
0.611460 91.229 -87.9562
0.615891 91.240 -88.6082
0.620354 91.251 -89.2632
0.624849 91.261 -89.9211
0.629377 91.272 -90.5817
0.633938 91.283 -91.2448
0.638532 91.294 -91.9103
0.643159 91.306 -92.5779
0.647819 91.317 -93.2476
0.652514 91.328 -93.9192
0.657242 91.340 -94.5926
0.662005 91.351 -95.2676
0.666802 91.363 -95.9441
0.671634 91.375 -96.6221
0.676501 91.386 -97.3013
0.681403 91.398 -97.9819
0.686341 91.410 -98.6637
0.691314 91.422 -99.3466
0.696324 91.434 -100.0308
0.701370 91.447 -100.7163
0.706452 91.459 -101.4032
0.711571 91.472 -102.0920
0.716728 91.485 -102.7830
0.721921 91.499 -103.4771
0.727153 91.514 -104.1754
0.732422 91.529 -104.8795
0.737729 91.546 -105.5912
0.743075 91.565 -106.3121
0.748460 91.584 -107.0435
0.753883 91.604 -107.7864
0.759346 91.624 -108.5412
0.764849 91.646 -109.3080
0.770391 91.667 -110.0867
0.775974 91.690 -110.8773
0.781597 91.713 -111.6794
0.787261 91.736 -112.4925
0.792966 91.760 -113.3165
0.798712 91.784 -114.1507
0.804500 91.808 -114.9948
0.810329 91.833 -115.8483
0.816201 91.859 -116.7106
0.822116 91.885 -117.5815
0.828073 91.911 -118.4601
0.834074 91.938 -119.3462
0.840118 91.966 -120.2391
0.846206 91.994 -121.1382
0.852338 92.022 -122.0431
0.858514 92.051 -122.9532
0.864735 92.080 -123.8679
0.871001 92.109 -124.7866
0.877313 92.139 -125.7089
0.883670 92.170 -126.6342
0.890074 92.201 -127.5619
0.896524 92.232 -128.4915
0.903020 92.264 -129.4226
0.909564 92.296 -130.3545
0.916155 92.329 -131.2869
0.922794 92.362 -132.2193
0.929481 92.396 -133.1513
0.936216 92.430 -134.0823
0.943000 92.464 -135.0121
0.949834 92.499 -135.9404
0.956717 92.534 -136.8666
0.963649 92.569 -137.7906
0.970632 92.605 -138.7121
0.977666 92.642 -139.6309
0.984750 92.678 -140.5467
0.991886 92.715 -141.4594
0.999074 92.753 -142.3688
1.006314 92.790 -143.2749
1.013606 92.828 -144.1776
1.020951 92.867 -145.0769
1.028349 92.905 -145.9729
1.035801 92.944 -146.8655
1.043307 92.984 -147.7551
1.050867 93.023 -148.6418
1.058482 93.063 -149.5260
1.066152 93.103 -150.4084
1.073878 93.143 -151.2897
1.081660 93.184 -152.1711
1.089498 93.225 -153.0545
1.097393 93.266 -153.9419
1.105345 93.308 -154.8359
1.113355 93.350 -155.7389
1.121423 93.393 -156.6531
1.129549 93.436 -157.5797
1.137734 93.481 -158.5196
1.145979 93.525 -159.4730
1.154283 93.571 -160.4401
1.162647 93.617 -161.4206
1.171072 93.663 -162.4140
1.179558 93.710 -163.4200
1.188106 93.758 -164.4379
1.196715 93.807 -165.4673
1.205387 93.855 -166.5073
1.214122 93.905 -167.5572
1.222920 93.955 -168.6163
1.231782 94.006 -169.6838
1.240708 94.057 -170.7588
1.249699 94.108 -171.8404
1.258754 94.160 -172.9277
1.267876 94.213 -174.0197
1.277063 94.266 -175.1153
1.286318 94.319 -176.2137
1.295639 94.372 -177.3137
1.305027 94.426 -178.4143
1.314484 94.481 -179.5144
1.324009 94.535 179.3871
1.333604 94.590 178.2911
1.343268 94.645 177.1989
1.353002 94.700 176.1114
1.362806 94.755 175.0297
1.372681 94.810 173.9548
1.382628 94.866 172.8876
1.392647 94.921 171.8291
1.402739 94.977 170.7800
1.412904 95.032 169.7410
1.423142 95.087 168.7122
1.433455 95.143 167.6937
1.443843 95.198 166.6846
1.454305 95.253 165.6833
1.464844 95.308 164.6877
1.475459 95.363 163.6945
1.486150 95.418 162.7009
1.496920 95.473 161.7043
1.507767 95.529 160.7033
1.518693 95.585 159.6969
1.529698 95.641 158.6848
1.540783 95.697 157.6671
1.551948 95.753 156.6440
1.563194 95.810 155.6161
1.574521 95.866 154.5839
1.585931 95.923 153.5481
1.597423 95.980 152.5092
1.608999 96.037 151.4680
1.620658 96.094 150.4251
1.632402 96.151 149.3813
1.644232 96.208 148.3371
1.656146 96.265 147.2933
1.668147 96.322 146.2506
1.680235 96.379 145.2096
1.692411 96.436 144.1711
1.704675 96.492 143.1355
1.717028 96.549 142.1036
1.729470 96.605 141.0759
1.742003 96.661 140.0529
1.754626 96.716 139.0350
1.767341 96.771 138.0224
1.780147 96.826 137.0150
1.793047 96.881 136.0123
1.806040 96.935 135.0133
1.819128 96.988 134.0161
1.832310 97.041 133.0182
1.845587 97.094 132.0166
1.858961 97.146 131.0083
1.872432 97.198 129.9914
1.886001 97.250 128.9646
1.899667 97.301 127.9274
1.913433 97.351 126.8803
1.927299 97.402 125.8237
1.941265 97.452 124.7587
1.955332 97.501 123.6865
1.969501 97.550 122.6083
1.983773 97.598 121.5256
1.998148 97.647 120.4398
2.012627 97.694 119.3524
2.027212 97.741 118.2651
2.041902 97.788 117.1794
2.056698 97.833 116.0970
2.071602 97.879 115.0195
2.086614 97.923 113.9485
2.101734 97.968 112.8855
2.116964 98.011 111.8318
2.132304 98.054 110.7886
2.147756 98.096 109.7563
2.163320 98.137 108.7350
2.178996 98.178 107.7233
2.194786 98.218 106.7192
2.210690 98.256 105.7195
2.226710 98.295 104.7209
2.242845 98.332 103.7206
2.259098 98.368 102.7166
2.275468 98.403 101.7079
2.291957 98.438 100.6944
2.308566 98.471 99.6765
2.325295 98.504 98.6549
2.342145 98.535 97.6307
2.359117 98.566 96.6054
2.376212 98.596 95.5802
2.393431 98.625 94.5568
2.410775 98.653 93.5370
2.428244 98.680 92.5225
2.445840 98.707 91.5151
2.463564 98.732 90.5166
2.481416 98.757 89.5288
2.499397 98.780 88.5530
2.517509 98.803 87.5903
2.535752 98.825 86.6407
2.554127 98.846 85.7035
2.572635 98.866 84.7769
2.591277 98.885 83.8583
2.610055 98.902 82.9453
2.628968 98.918 82.0360
2.648019 98.933 81.1292
2.667208 98.947 80.2240
2.686535 98.960 79.3206
2.706003 98.971 78.4193
2.725612 98.982 77.5208
2.745363 98.991 76.6260
2.765257 98.999 75.7362
2.785295 99.007 74.8526
2.805478 99.014 73.9768
2.825808 99.020 73.1105
2.846285 99.025 72.2552
2.866910 99.030 71.4124
2.887685 99.034 70.5834
2.908611 99.037 69.7689
2.929688 99.040 68.9689
2.950917 99.042 68.1829
2.972301 99.043 67.4098
2.993839 99.043 66.6483
3.015534 99.041 65.8975
3.037386 99.039 65.1566
3.059396 99.036 64.4252
3.081565 99.032 63.7031
3.103896 99.028 62.9902
3.126388 99.023 62.2869
3.149043 99.017 61.5934
3.171862 99.012 60.9103
3.194847 99.007 60.2384
3.217998 99.001 59.5784
3.241317 98.997 58.9315
3.264805 98.992 58.2988
3.288463 98.988 57.6812
3.312293 98.984 57.0797
3.336295 98.980 56.4948
3.360471 98.976 55.9265
3.384822 98.973 55.3745
3.409350 98.969 54.8377
3.434056 98.966 54.3150
3.458940 98.963 53.8052
3.484005 98.960 53.3068
3.509252 98.959 52.8185
3.534681 98.957 52.3389
3.560295 98.957 51.8672
3.586094 98.959 51.4024
3.612081 98.961 50.9444
3.638255 98.965 50.4933
3.664620 98.970 50.0501
3.691175 98.977 49.6161
3.717923 98.985 49.1921
3.744864 98.995 48.7788
3.772001 99.006 48.3758
3.799335 99.018 47.9819
3.826866 99.032 47.5956
3.854597 99.047 47.2150
3.882529 99.063 46.8379
3.910664 99.080 46.4622
3.939002 99.098 46.0860
3.967546 99.118 45.7077
3.996296 99.138 45.3263
4.025255 99.160 44.9414
4.054423 99.183 44.5536
4.083804 99.207 44.1635
4.113396 99.232 43.7719
4.143204 99.259 43.3788
4.173227 99.287 42.9842
4.203468 99.315 42.5874
4.233928 99.344 42.1877
4.264609 99.374 41.7839
4.295512 99.403 41.3749
4.326639 99.432 40.9597
4.357992 99.460 40.5372
4.389572 99.489 40.1066
4.421380 99.517 39.6676
4.453419 99.544 39.2202
4.485691 99.571 38.7648
4.518196 99.598 38.3024
4.550936 99.624 37.8339
4.583914 99.649 37.3603
4.617131 99.673 36.8828
4.650589 99.696 36.4021
4.684289 99.717 35.9189
4.718233 99.737 35.4332
4.752424 99.755 34.9448
4.786862 99.770 34.4531
4.821549 99.784 33.9578
4.856488 99.796 33.4590
4.891680 99.806 32.9575
4.927127 99.814 32.4547
4.962831 99.820 31.9527
4.998794 99.824 31.4535
5.035017 99.826 30.9590
5.071503 99.825 30.4710
5.108253 99.823 29.9904
5.145270 99.818 29.5173
5.182555 99.811 29.0518
5.220110 99.802 28.5936
5.257937 99.791 28.1431
5.296038 99.777 27.7010
5.334415 99.762 27.2686
5.373071 99.746 26.8475
5.412006 99.728 26.4393
5.451224 99.709 26.0457
5.490725 99.688 25.6677
5.530514 99.667 25.3062
5.570590 99.645 24.9611
5.610957 99.622 24.6321
5.651616 99.598 24.3186
5.692570 99.574 24.0200
5.733821 99.549 23.7356
5.775370 99.526 23.4652
5.817221 99.503 23.2086
5.859375 99.481 22.9660
5.901834 99.460 22.7378
5.944602 99.440 22.5236
5.987679 99.421 22.3224
6.031068 99.404 22.1322
6.074771 99.388 21.9505
6.118792 99.374 21.7745
6.163131 99.362 21.6021
6.207792 99.351 21.4312
6.252776 99.343 21.2609
6.298086 99.337 21.0906
6.343725 99.333 20.9192
6.389694 99.331 20.7450
6.435996 99.331 20.5656
6.482634 99.332 20.3784
6.529610 99.334 20.1807
6.576926 99.338 19.9703
6.624585 99.342 19.7463
6.672590 99.348 19.5078
6.720942 99.354 19.2546
6.769645 99.360 18.9867
6.818700 99.366 18.7037
6.868111 99.372 18.4050
6.917881 99.377 18.0902
6.968010 99.380 17.7588
7.018504 99.383 17.4106
7.069362 99.383 17.0463
7.120590 99.382 16.6669
7.172189 99.380 16.2742
7.224161 99.374 15.8697
7.276511 99.367 15.4551
7.329239 99.357 15.0314
7.382350 99.344 14.5994
7.435845 99.328 14.1599
7.489729 99.309 13.7147
7.544002 99.288 13.2658
7.598669 99.263 12.8157
7.653732 99.236 12.3665
7.709194 99.207 11.9199
7.765058 99.175 11.4769
7.821327 99.140 11.0386
7.878004 99.103 10.6059
7.935091 99.064 10.1802
7.992592 99.023 9.7629
8.050510 98.981 9.3555
8.108847 98.938 8.9585
8.167607 98.894 8.5724
8.226793 98.849 8.1972
8.286408 98.803 7.8326
8.346454 98.758 7.4784
8.406936 98.713 7.1343
8.467856 98.668 6.8000
8.529218 98.624 6.4753
8.591024 98.581 6.1593
8.653278 98.539 5.8506
8.715983 98.498 5.5481
8.779143 98.459 5.2504
8.842760 98.421 4.9567
8.906839 98.385 4.6661
8.971381 98.350 4.3777
9.036392 98.318 4.0905
9.101873 98.287 3.8033
9.167829 98.257 3.5153
9.234263 98.230 3.2257
9.301178 98.204 2.9342
9.368578 98.180 2.6404
9.436467 98.158 2.3438
9.504847 98.137 2.0441
9.573723 98.119 1.7409
9.643099 98.102 1.4341
9.712976 98.087 1.1232
9.783361 98.074 0.8080
9.854255 98.063 0.4880
9.925663 98.054 0.1628
9.997588 98.047 -0.1681
10.070035 98.042 -0.5056
10.143007 98.039 -0.8506
10.216507 98.039 -1.2040
10.290540 98.040 -1.5669
10.365109 98.044 -1.9401
10.440219 98.049 -2.3246
10.515873 98.056 -2.7213
10.592076 98.065 -3.1313
10.668830 98.075 -3.5553
10.746141 98.085 -3.9935
10.824012 98.096 -4.4459
10.902447 98.107 -4.9122
10.981451 98.118 -5.3917
11.061027 98.129 -5.8837
11.141180 98.138 -6.3866
11.221913 98.145 -6.8983
11.303232 98.151 -7.4163
11.385140 98.155 -7.9382
11.467641 98.156 -8.4611
11.550741 98.155 -8.9819
11.634442 98.152 -9.4972
11.718750 98.146 -10.0033
11.803669 98.137 -10.4971
11.889203 98.126 -10.9756
11.975357 98.113 -11.4360
12.062136 98.098 -11.8757
12.149543 98.083 -12.2928
12.237583 98.066 -12.6859
12.326262 98.049 -13.0546
12.415583 98.032 -13.3990
12.505552 98.016 -13.7197
12.596172 98.001 -14.0183
12.687449 97.988 -14.2968
12.779387 97.976 -14.5581
12.871992 97.966 -14.8053
12.965268 97.958 -15.0415
13.059220 97.952 -15.2701
13.153852 97.947 -15.4945
13.249170 97.944 -15.7177
13.345179 97.941 -15.9420
13.441884 97.939 -16.1694
13.539289 97.937 -16.4012
13.637401 97.934 -16.6381
13.736223 97.931 -16.8798
13.835761 97.925 -17.1257
13.936021 97.918 -17.3745
14.037007 97.908 -17.6244
14.138725 97.896 -17.8737
14.241180 97.881 -18.1202
14.344377 97.864 -18.3619
14.448323 97.844 -18.5973
14.553021 97.822 -18.8250
14.658478 97.799 -19.0440
14.764700 97.773 -19.2542
14.871691 97.747 -19.4558
14.979457 97.719 -19.6499
15.088005 97.690 -19.8379
15.197339 97.662 -20.0215
15.307465 97.632 -20.2028
15.418389 97.603 -20.3841
15.530117 97.572 -20.5674
15.642655 97.542 -20.7544
15.756008 97.510 -20.9467
15.870182 97.478 -21.1450
15.985184 97.445 -21.3497
16.101019 97.410 -21.5604
16.217694 97.374 -21.7765
16.335214 97.336 -21.9966
16.453586 97.297 -22.2192
16.572815 97.257 -22.4427
16.692909 97.216 -22.6658
16.813872 97.174 -22.8872
16.935713 97.132 -23.1062
17.058436 97.091 -23.3226
17.182048 97.050 -23.5374
17.306556 97.012 -23.7516
17.431967 96.975 -23.9673
17.558286 96.940 -24.1870
17.685521 96.908 -24.4137
17.813677 96.878 -24.6501
17.942762 96.852 -24.8993
18.072783 96.827 -25.1633
18.203746 96.805 -25.4440
18.335658 96.785 -25.7421
18.468526 96.766 -26.0579
18.602356 96.748 -26.3904
18.737156 96.731 -26.7383
18.872934 96.715 -27.0995
19.009695 96.699 -27.4718
19.147447 96.683 -27.8529
19.286197 96.668 -28.2409
19.425953 96.653 -28.6344
19.566721 96.638 -29.0325
19.708510 96.624 -29.4348
19.851326 96.610 -29.8414
19.995177 96.596 -30.2527
20.140070 96.581 -30.6683
20.286013 96.565 -31.0875
20.433014 96.547 -31.5079
20.581080 96.526 -31.9260
20.730219 96.501 -32.3363
20.880439 96.471 -32.7316
21.031747 96.437 -33.1034
21.184152 96.398 -33.4422
21.337661 96.354 -33.7389
21.492282 96.308 -33.9854
21.648024 96.259 -34.1760
21.804895 96.211 -34.3085
21.962902 96.165 -34.3848
22.122054 96.123 -34.4119
22.282360 96.087 -34.4006
22.443827 96.057 -34.3655
22.606464 96.033 -34.3226
22.770280 96.015 -34.2880
22.935283 96.000 -34.2747
23.101481 95.988 -34.2920
23.268884 95.975 -34.3436
23.437500 95.958 -34.4275
23.607338 95.937 -34.5365
23.778406 95.909 -34.6595
23.950714 95.874 -34.7837
24.124271 95.832 -34.8966
24.299086 95.786 -34.9883
24.475167 95.737 -35.0536
24.652524 95.688 -35.0927
24.831166 95.640 -35.1119
25.011103 95.596 -35.1224
25.192344 95.556 -35.1390
25.374898 95.520 -35.1772
25.558775 95.487 -35.2509
25.743984 95.457 -35.3701
25.930536 95.425 -35.5394
26.118439 95.391 -35.7573
26.307704 95.352 -36.0170
26.498341 95.308 -36.3071
26.690359 95.256 -36.6135
26.883768 95.199 -36.9214
27.078579 95.136 -37.2170
27.274801 95.069 -37.4890
27.472446 95.001 -37.7302
27.671522 94.933 -37.9380
27.872042 94.868 -38.1147
28.074014 94.808 -38.2674
28.277450 94.754 -38.4059
28.482360 94.705 -38.5414
28.688755 94.661 -38.6844
28.896645 94.621 -38.8414
29.106042 94.583 -39.0133
29.316957 94.544 -39.1945
29.529400 94.502 -39.3726
29.743382 94.458 -39.5311
29.958915 94.412 -39.6527
30.176009 94.366 -39.7235
30.394677 94.324 -39.7383
30.614929 94.289 -39.7039
30.836778 94.265 -39.6396
31.060234 94.253 -39.5750
31.285309 94.252 -39.5432
31.512015 94.258 -39.5726
31.740364 94.267 -39.6798
31.970368 94.273 -39.8635
32.202039 94.268 -40.1050
32.435388 94.252 -40.3716
32.670428 94.222 -40.6245
32.907171 94.182 -40.8289
33.145630 94.137 -40.9629
33.385817 94.095 -41.0258
33.627745 94.060 -41.0391
33.871425 94.037 -41.0426
34.116871 94.026 -41.0825
34.364096 94.022 -41.1983
34.613113 94.019 -41.4101
34.863934 94.007 -41.7120
35.116572 93.981 -42.0728
35.371041 93.937 -42.4432
35.627354 93.877 -42.7684
35.885525 93.804 -43.0019
36.145566 93.727 -43.1190
36.407492 93.657 -43.1252
36.671316 93.599 -43.0562
36.937051 93.559 -42.9680
37.204712 93.533 -42.9189
37.474313 93.515 -42.9502
37.745867 93.497 -43.0721
38.019389 93.468 -43.2625
38.294893 93.426 -43.4747
38.572394 93.370 -43.6556
38.851905 93.305 -43.7637
39.133442 93.240 -43.7856
39.417019 93.181 -43.7413
39.702651 93.135 -43.6775
39.990353 93.100 -43.6479
40.280140 93.070 -43.6914
40.572026 93.038 -43.8158
40.866028 92.996 -43.9951
41.162160 92.942 -44.1810
41.460438 92.877 -44.3226
41.760877 92.809 -44.3879
42.063494 92.749 -44.3782
42.368303 92.702 -44.3302
42.675322 92.673 -44.3025
42.984565 92.658 -44.3524
43.296048 92.650 -44.5139
43.609789 92.638 -44.7842
43.925804 92.615 -45.1263
44.244108 92.577 -45.4819
44.564719 92.527 -45.7931
44.887654 92.472 -46.0220
45.212928 92.418 -46.1633
45.540560 92.372 -46.2432
45.870565 92.336 -46.3043
46.202962 92.305 -46.3823
46.537768 92.274 -46.4868
46.875000 92.236 -46.5949
47.214676 92.189 -46.6637
47.556813 92.137 -46.6549
47.901429 92.088 -46.5592
48.248542 92.048 -46.4073
48.598171 92.022 -46.2593
48.950334 92.004 -46.1764
49.305048 91.986 -46.1910
49.662333 91.958 -46.2910
50.022206 91.913 -46.4242
50.384688 91.850 -46.5206
50.749796 91.776 -46.5201
51.117550 91.702 -46.3965
51.487969 91.638 -46.1693
51.861072 91.594 -45.8966
52.236879 91.570 -45.6530
52.615409 91.560 -45.4978
52.996681 91.556 -45.4524
53.380717 91.547 -45.4946
53.767536 91.530 -45.5732
54.157158 91.507 -45.6365
54.549603 91.482 -45.6572
54.944892 91.462 -45.6443
55.343045 91.449 -45.6323
55.744084 91.441 -45.6578
56.148028 91.433 -45.7369
56.554900 91.418 -45.8578
56.964720 91.393 -45.9893
57.377510 91.359 -46.0981
57.793291 91.319 -46.1626
58.212085 91.278 -46.1787
58.633914 91.241 -46.1605
59.058799 91.209 -46.1350
59.486764 91.183 -46.1344
59.917829 91.160 -46.1852
60.352019 91.137 -46.2974
60.789354 91.107 -46.4582
61.229859 91.070 -46.6366
61.673556 91.026 -46.7955
62.120468 90.979 -46.9077
62.570618 90.934 -46.9669
63.024031 90.896 -46.9878
63.480729 90.866 -46.9971
63.940736 90.843 -47.0186
64.404077 90.823 -47.0626
64.870776 90.802 -47.1231
65.340856 90.779 -47.1841
65.814343 90.751 -47.2286
66.291261 90.720 -47.2457
66.771635 90.687 -47.2313
67.255489 90.650 -47.1844
67.742850 90.611 -47.1053
68.233743 90.569 -46.9951
68.728193 90.526 -46.8578
69.226226 90.482 -46.7015
69.727867 90.438 -46.5374
70.233144 90.395 -46.3781
70.742083 90.352 -46.2365
71.254709 90.310 -46.1230
71.771050 90.268 -46.0441
72.291132 90.226 -46.0024
72.814984 90.184 -45.9982
73.342631 90.144 -46.0303
73.874102 90.104 -46.0946
74.409424 90.065 -46.1816
74.948626 90.027 -46.2770
75.491734 89.990 -46.3646
76.038779 89.957 -46.4320
76.589787 89.927 -46.4736
77.144788 89.903 -46.4908
77.703811 89.883 -46.4889
78.266885 89.866 -46.4724
78.834039 89.851 -46.4443
79.405303 89.835 -46.4081
79.980706 89.818 -46.3684
80.560280 89.799 -46.3311
81.144053 89.777 -46.3002
81.732056 89.751 -46.2791
82.324320 89.721 -46.2709
82.920876 89.688 -46.2788
83.521755 89.652 -46.3029
84.126988 89.613 -46.3389
84.736607 89.570 -46.3793
85.350643 89.526 -46.4149
85.969129 89.480 -46.4375
86.592097 89.433 -46.4409
87.219579 89.387 -46.4210
87.851608 89.340 -46.3760
88.488217 89.293 -46.3065
89.129439 89.247 -46.2172
89.775308 89.201 -46.1151
90.425856 89.156 -46.0057
91.081119 89.110 -45.8921
91.741131 89.064 -45.7754
92.405925 89.020 -45.6589
93.075536 88.977 -45.5485
93.750000 88.937 -45.4500
94.429351 88.898 -45.3654
95.113625 88.859 -45.2923
95.802858 88.821 -45.2264
96.497085 88.783 -45.1650
97.196342 88.745 -45.1073
