* Measurement data measured by REW V5.30.5
* Source: EXCL: Microphone (Realtek(R) Audio), MICROPHONE (Master Volume), L, volume: 1.000
* Format: 256k Log Swept Sine, 1 sweep at -16.0 dBFS with no timing reference
* Dated: Feb 21, 2024 12:25:47 AM
* REW Settings:
*  C-weighting compensation: Off
*  Target level: 75.0 dB
* Note: ND ND-X12 110 L.txt
* Measurement: L ND X12 110
* Smoothing: 1/12 octave
* Frequency Step: 96 ppo
* Start Frequency: 0.36621094 Hz
*
* Freq(Hz) SPL(dB) Phase(degrees)
0.366211 73.839 -14.6255
0.368865 73.842 -14.6109
0.371538 73.846 -14.5894
0.374230 73.851 -14.5628
0.376942 73.856 -14.5329
0.379673 73.862 -14.5009
0.382424 73.868 -14.4677
0.385196 73.874 -14.4336
0.387987 73.880 -14.3990
0.390798 73.887 -14.3640
0.393630 73.893 -14.3288
0.396483 73.900 -14.2932
0.399356 73.906 -14.2574
0.402250 73.913 -14.2213
0.405165 73.919 -14.1850
0.408101 73.926 -14.1483
0.411058 73.933 -14.1112
0.414037 73.940 -14.0738
0.417037 73.946 -14.0361
0.420059 73.953 -13.9979
0.423103 73.960 -13.9592
0.426169 73.967 -13.9201
0.429257 73.974 -13.8805
0.432367 73.981 -13.8404
0.435501 73.988 -13.7997
0.438656 73.996 -13.7584
0.441835 74.003 -13.7164
0.445037 74.010 -13.6739
0.448262 74.018 -13.6306
0.451510 74.025 -13.5866
0.454782 74.032 -13.5418
0.458077 74.040 -13.4962
0.461397 74.048 -13.4497
0.464740 74.055 -13.4024
0.468108 74.063 -13.3541
0.471500 74.071 -13.3049
0.474917 74.078 -13.2546
0.478358 74.086 -13.2033
0.481825 74.094 -13.1508
0.485316 74.102 -13.0972
0.488833 74.110 -13.0423
0.492375 74.118 -12.9862
0.495943 74.126 -12.9288
0.499537 74.134 -12.8700
0.503157 74.143 -12.8098
0.506803 74.151 -12.7481
0.510475 74.159 -12.6848
0.514174 74.168 -12.6200
0.517900 74.176 -12.5535
0.521653 74.185 -12.4853
0.525433 74.193 -12.4153
0.529241 74.202 -12.3434
0.533076 74.211 -12.2696
0.536939 74.220 -12.1939
0.540830 74.229 -12.1161
0.544749 74.237 -12.0362
0.548696 74.246 -11.9541
0.552673 74.256 -11.8698
0.556677 74.265 -11.7832
0.560711 74.274 -11.6941
0.564774 74.283 -11.6026
0.568867 74.292 -11.5086
0.572989 74.302 -11.4120
0.577141 74.311 -11.3126
0.581324 74.321 -11.2106
0.585536 74.330 -11.1057
0.589779 74.340 -10.9979
0.594053 74.350 -10.8871
0.598358 74.360 -10.7733
0.602694 74.370 -10.6564
0.607061 74.379 -10.5363
0.611460 74.390 -10.4129
0.615891 74.400 -10.2862
0.620354 74.410 -10.1562
0.624849 74.420 -10.0226
0.629377 74.430 -9.8856
0.633938 74.441 -9.7450
0.638532 74.451 -9.6007
0.643159 74.462 -9.4528
0.647819 74.472 -9.3011
0.652514 74.483 -9.1457
0.657242 74.494 -8.9864
0.662005 74.505 -8.8232
0.666802 74.516 -8.6562
0.671634 74.527 -8.4851
0.676501 74.538 -8.3102
0.681403 74.549 -8.1312
0.686341 74.560 -7.9482
0.691314 74.572 -7.7612
0.696324 74.584 -7.5702
0.701369 74.596 -7.3751
0.706452 74.608 -7.1760
0.711571 74.622 -6.9727
0.716727 74.637 -6.7652
0.721921 74.655 -6.5534
0.727153 74.676 -6.3371
0.732422 74.702 -6.1159
0.737729 74.734 -5.8895
0.743075 74.770 -5.6576
0.748460 74.810 -5.4199
0.753883 74.855 -5.1765
0.759346 74.902 -4.9274
0.764849 74.951 -4.6726
0.770391 75.003 -4.4124
0.775974 75.057 -4.1471
0.781597 75.112 -3.8768
0.787261 75.170 -3.6019
0.792965 75.229 -3.3227
0.798712 75.290 -3.0396
0.804499 75.353 -2.7529
0.810329 75.417 -2.4629
0.816201 75.484 -2.1700
0.822116 75.552 -1.8746
0.828073 75.621 -1.5770
0.834073 75.693 -1.2778
0.840118 75.766 -0.9772
0.846205 75.841 -0.6757
0.852337 75.918 -0.3737
0.858514 75.996 -0.0717
0.864735 76.076 0.2299
0.871001 76.158 0.5306
0.877313 76.241 0.8301
0.883670 76.326 1.1278
0.890074 76.413 1.4234
0.896523 76.501 1.7162
0.903020 76.590 2.0059
0.909564 76.682 2.2920
0.916155 76.774 2.5740
0.922793 76.868 2.8515
0.929480 76.964 3.1240
0.936216 77.061 3.3910
0.943000 77.159 3.6520
0.949833 77.259 3.9067
0.956716 77.360 4.1546
0.963649 77.462 4.3952
0.970632 77.565 4.6281
0.977666 77.670 4.8528
0.984750 77.776 5.0690
0.991886 77.882 5.2762
0.999074 77.990 5.4740
1.006313 78.098 5.6621
1.013605 78.208 5.8400
1.020950 78.318 6.0075
1.028349 78.429 6.1641
1.035801 78.541 6.3096
1.043306 78.653 6.4438
1.050867 78.766 6.5663
1.058482 78.879 6.6771
1.066152 78.993 6.7763
1.073878 79.108 6.8641
1.081659 79.222 6.9413
1.089498 79.338 7.0089
1.097393 79.455 7.0684
1.105345 79.572 7.1218
1.113355 79.692 7.1711
1.121422 79.813 7.2175
1.129549 79.935 7.2622
1.137734 80.060 7.3054
1.145978 80.187 7.3473
1.154283 80.316 7.3876
1.162647 80.447 7.4259
1.171072 80.580 7.4618
1.179558 80.715 7.4948
1.188106 80.852 7.5244
1.196715 80.990 7.5501
1.205387 81.131 7.5714
1.214122 81.273 7.5878
1.222920 81.416 7.5988
1.231781 81.562 7.6039
1.240708 81.709 7.6028
1.249698 81.857 7.5950
1.258754 82.006 7.5800
1.267875 82.157 7.5575
1.277063 82.309 7.5270
1.286317 82.462 7.4882
1.295638 82.615 7.4407
1.305027 82.770 7.3841
1.314484 82.925 7.3181
1.324009 83.081 7.2423
1.333603 83.238 7.1564
1.343267 83.395 7.0600
1.353001 83.552 6.9528
1.362805 83.709 6.8345
1.372681 83.866 6.7048
1.382628 84.023 6.5633
1.392647 84.180 6.4098
1.402739 84.336 6.2441
1.412904 84.491 6.0660
1.423142 84.646 5.8756
1.433455 84.800 5.6729
1.443842 84.953 5.4586
1.454305 85.105 5.2335
1.464843 85.257 4.9989
1.475458 85.407 4.7564
1.486150 85.558 4.5076
1.496919 85.708 4.2537
1.507766 85.858 3.9958
1.518692 86.008 3.7342
1.529697 86.158 3.4691
1.540782 86.308 3.2006
1.551947 86.458 2.9286
1.563193 86.607 2.6529
1.574521 86.757 2.3732
1.585931 86.907 2.0894
1.597423 87.056 1.8011
1.608998 87.206 1.5080
1.620658 87.355 1.2100
1.632402 87.504 0.9066
1.644231 87.653 0.5977
1.656146 87.802 0.2828
1.668147 87.950 -0.0384
1.680235 88.099 -0.3661
1.692410 88.247 -0.7007
1.704674 88.395 -1.0425
1.717027 88.543 -1.3918
1.729469 88.690 -1.7491
1.742002 88.837 -2.1147
1.754625 88.984 -2.4888
1.767340 89.130 -2.8718
1.780147 89.276 -3.2640
1.793046 89.422 -3.6655
1.806040 89.567 -4.0765
1.819127 89.712 -4.4967
1.832309 89.856 -4.9258
1.845587 89.999 -5.3632
1.858961 90.142 -5.8082
1.872431 90.284 -6.2601
1.886000 90.426 -6.7183
1.899666 90.567 -7.1821
1.913432 90.706 -7.6510
1.927298 90.846 -8.1245
1.941264 90.984 -8.6024
1.955331 91.122 -9.0843
1.969500 91.258 -9.5698
1.983772 91.395 -10.0589
1.998147 91.530 -10.5513
2.012626 91.665 -11.0468
2.027211 91.799 -11.5454
2.041901 91.933 -12.0471
2.056697 92.066 -12.5517
2.071601 92.198 -13.0593
2.086613 92.330 -13.5700
2.101733 92.461 -14.0839
2.116963 92.592 -14.6011
2.132303 92.722 -15.1220
2.147755 92.851 -15.6469
2.163318 92.980 -16.1761
2.178995 93.109 -16.7102
2.194785 93.236 -17.2497
2.210689 93.363 -17.7952
2.226709 93.489 -18.3470
2.242844 93.615 -18.9052
2.259097 93.739 -19.4695
2.275467 93.862 -20.0395
2.291956 93.984 -20.6147
2.308565 94.105 -21.1945
2.325294 94.225 -21.7780
2.342144 94.343 -22.3648
2.359116 94.461 -22.9542
2.376211 94.578 -23.5455
2.393430 94.694 -24.1382
2.410774 94.810 -24.7319
2.428243 94.924 -25.3260
2.445839 95.037 -25.9202
2.463562 95.150 -26.5143
2.481415 95.262 -27.1080
2.499396 95.373 -27.7014
2.517508 95.484 -28.2948
2.535750 95.593 -28.8887
2.554126 95.702 -29.4839
2.572634 95.810 -30.0815
2.591276 95.917 -30.6827
2.610054 96.022 -31.2881
2.628967 96.127 -31.8982
2.648018 96.230 -32.5128
2.667206 96.332 -33.1313
2.686534 96.432 -33.7531
2.706002 96.532 -34.3773
2.725610 96.630 -35.0030
2.745361 96.728 -35.6293
2.765255 96.824 -36.2552
2.785294 96.919 -36.8798
2.805477 97.013 -37.5023
2.825807 97.107 -38.1220
2.846284 97.199 -38.7382
2.866909 97.291 -39.3508
2.887684 97.382 -39.9596
2.908609 97.472 -40.5651
2.929686 97.561 -41.1683
2.950916 97.649 -41.7704
2.972299 97.736 -42.3724
2.993838 97.822 -42.9753
3.015532 97.906 -43.5793
3.037384 97.989 -44.1842
3.059394 98.071 -44.7895
3.081564 98.152 -45.3946
3.103894 98.231 -45.9985
3.126386 98.310 -46.6003
3.149041 98.388 -47.1989
3.171861 98.465 -47.7935
3.194845 98.541 -48.3832
3.217996 98.616 -48.9672
3.241315 98.691 -49.5449
3.264803 98.766 -50.1164
3.288461 98.839 -50.6819
3.312291 98.912 -51.2421
3.336293 98.984 -51.7980
3.360469 99.055 -52.3502
3.384820 99.124 -52.8993
3.409348 99.193 -53.4454
3.434054 99.261 -53.9885
3.458938 99.329 -54.5281
3.484003 99.395 -55.0638
3.509250 99.461 -55.5950
3.534679 99.527 -56.1211
3.560293 99.592 -56.6414
3.586092 99.657 -57.1553
3.612079 99.722 -57.6625
3.638253 99.787 -58.1625
3.664618 99.852 -58.6553
3.691173 99.916 -59.1413
3.717921 99.980 -59.6208
3.744862 100.044 -60.0942
3.771999 100.107 -60.5620
3.799332 100.170 -61.0246
3.826864 100.233 -61.4822
3.854595 100.296 -61.9352
3.882527 100.359 -62.3838
3.910661 100.422 -62.8279
3.938999 100.486 -63.2678
3.967543 100.550 -63.7032
3.996294 100.614 -64.1341
4.025252 100.679 -64.5603
4.054421 100.744 -64.9815
4.083801 100.809 -65.3978
4.113394 100.875 -65.8093
4.143201 100.942 -66.2164
4.173225 101.008 -66.6199
4.203466 101.075 -67.0204
4.233926 101.143 -67.4188
4.264606 101.211 -67.8159
4.295509 101.280 -68.2124
4.326636 101.349 -68.6089
4.357989 101.419 -69.0057
4.389569 101.489 -69.4029
4.421378 101.560 -69.8002
4.453417 101.632 -70.1976
4.485688 101.705 -70.5950
4.518193 101.778 -70.9925
4.550934 101.851 -71.3909
4.583912 101.925 -71.7906
4.617129 101.999 -72.1925
4.650587 102.074 -72.5974
4.684287 102.149 -73.0060
4.718231 102.224 -73.4188
4.752421 102.300 -73.8363
4.786859 102.375 -74.2583
4.821547 102.451 -74.6850
4.856485 102.527 -75.1160
4.891677 102.603 -75.5512
4.927125 102.679 -75.9907
4.962829 102.755 -76.4343
4.998791 102.831 -76.8822
5.035015 102.907 -77.3348
5.071500 102.982 -77.7920
5.108251 103.056 -78.2544
5.145267 103.130 -78.7221
5.182552 103.204 -79.1953
5.220107 103.276 -79.6736
5.257934 103.349 -80.1568
5.296035 103.420 -80.6441
5.334412 103.491 -81.1351
5.373067 103.561 -81.6289
5.412003 103.630 -82.1251
5.451221 103.698 -82.6235
5.490722 103.765 -83.1241
5.530510 103.831 -83.6269
5.570587 103.896 -84.1321
5.610953 103.959 -84.6394
5.651613 104.022 -85.1480
5.692567 104.083 -85.6572
5.733818 104.144 -86.1660
5.775367 104.203 -86.6734
5.817218 104.261 -87.1787
5.859372 104.318 -87.6818
5.901831 104.374 -88.1825
5.944598 104.429 -88.6809
5.987675 104.483 -89.1768
6.031065 104.535 -89.6698
6.074768 104.587 -90.1592
6.118788 104.638 -90.6445
6.163127 104.689 -91.1247
6.207788 104.738 -91.5995
6.252772 104.787 -92.0687
6.298082 104.836 -92.5322
6.343721 104.883 -92.9902
6.389690 104.931 -93.4427
6.435992 104.978 -93.8900
6.482630 105.024 -94.3318
6.529606 105.071 -94.7681
6.576922 105.118 -95.1988
6.624581 105.164 -95.6239
6.672585 105.211 -96.0436
6.720938 105.258 -96.4583
6.769640 105.305 -96.8684
6.818696 105.353 -97.2746
6.868107 105.400 -97.6776
6.917876 105.448 -98.0778
6.968006 105.497 -98.4755
7.018499 105.546 -98.8712
7.069358 105.596 -99.2651
7.120586 105.646 -99.6578
7.172184 105.696 -100.0501
7.224157 105.747 -100.4427
7.276506 105.798 -100.8364
7.329235 105.850 -101.2317
7.382345 105.902 -101.6290
7.435841 105.954 -102.0284
7.489724 106.007 -102.4304
7.543997 106.059 -102.8353
7.598664 106.112 -103.2433
7.653728 106.165 -103.6550
7.709189 106.217 -104.0704
7.765053 106.269 -104.4899
7.821322 106.321 -104.9132
7.877998 106.373 -105.3402
7.935086 106.424 -105.7706
7.992587 106.475 -106.2042
8.050504 106.525 -106.6409
8.108841 106.574 -107.0804
8.167601 106.622 -107.5225
8.226787 106.670 -107.9668
8.286402 106.717 -108.4127
8.346449 106.763 -108.8595
8.406931 106.808 -109.3067
8.467851 106.852 -109.7540
8.529212 106.895 -110.2010
8.591018 106.938 -110.6473
8.653272 106.979 -111.0923
8.715977 107.020 -111.5355
8.779137 107.060 -111.9765
8.842754 107.099 -112.4149
8.906833 107.138 -112.8506
8.971375 107.176 -113.2833
9.036386 107.213 -113.7130
9.101867 107.250 -114.1395
9.167823 107.287 -114.5627
9.234257 107.323 -114.9826
9.301172 107.359 -115.3995
9.368572 107.395 -115.8134
9.436460 107.431 -116.2246
9.504841 107.466 -116.6336
9.573717 107.502 -117.0404
9.643092 107.537 -117.4454
9.712970 107.573 -117.8490
9.783354 107.608 -118.2516
9.854248 107.643 -118.6535
9.925656 107.679 -119.0552
9.997581 107.714 -119.4569
10.070028 107.749 -119.8588
10.143000 107.784 -120.2612
10.216500 107.819 -120.6643
10.290533 107.853 -121.0682
10.365103 107.887 -121.4730
10.440212 107.921 -121.8787
10.515866 107.955 -122.2851
10.592069 107.988 -122.6921
10.668823 108.020 -123.0996
10.746134 108.052 -123.5072
10.824005 108.083 -123.9148
10.902440 108.114 -124.3219
10.981443 108.144 -124.7283
11.061020 108.174 -125.1336
11.141172 108.203 -125.5375
11.221906 108.232 -125.9397
11.303225 108.260 -126.3399
11.385133 108.288 -126.7378
11.467634 108.315 -127.1335
11.550734 108.342 -127.5267
11.634435 108.369 -127.9175
11.718742 108.395 -128.3059
11.803661 108.422 -128.6921
11.889195 108.448 -129.0763
11.975349 108.475 -129.4589
12.062128 108.501 -129.8403
12.149535 108.528 -130.2207
12.237576 108.554 -130.6008
12.326254 108.581 -130.9810
12.415575 108.608 -131.3617
12.505544 108.634 -131.7434
12.596164 108.661 -132.1265
12.687441 108.687 -132.5112
12.779379 108.714 -132.8978
12.871984 108.739 -133.2864
12.965260 108.765 -133.6769
13.059211 108.790 -134.0691
13.153843 108.814 -134.4628
13.249161 108.838 -134.8575
13.345170 108.861 -135.2528
13.441875 108.883 -135.6478
13.539280 108.904 -136.0418
13.637391 108.925 -136.4342
13.736214 108.945 -136.8241
13.835752 108.964 -137.2107
13.936011 108.982 -137.5934
14.036998 109.000 -137.9716
14.138716 109.017 -138.3449
14.241171 109.034 -138.7131
14.344368 109.051 -139.0760
14.448313 109.068 -139.4340
14.553011 109.086 -139.7874
14.658468 109.103 -140.1368
14.764689 109.121 -140.4831
14.871680 109.140 -140.8271
14.979446 109.159 -141.1700
15.087994 109.178 -141.5127
15.197328 109.198 -141.8563
15.307454 109.218 -142.2017
15.418378 109.238 -142.5496
15.530106 109.259 -142.9007
15.642643 109.279 -143.2551
15.755996 109.299 -143.6130
15.870171 109.318 -143.9740
15.985172 109.337 -144.3378
16.101007 109.355 -144.7034
16.217682 109.372 -145.0702
16.335201 109.388 -145.4370
16.453573 109.404 -145.8028
16.572803 109.418 -146.1666
16.692898 109.432 -146.5276
16.813862 109.444 -146.8850
16.935701 109.457 -147.2384
17.058424 109.468 -147.5874
17.182035 109.480 -147.9319
17.306543 109.491 -148.2722
17.431953 109.502 -148.6085
17.558273 109.513 -148.9413
17.685509 109.523 -149.2711
17.813665 109.534 -149.5984
17.942751 109.545 -149.9239
18.072771 109.556 -150.2479
18.203733 109.567 -150.5709
18.335646 109.578 -150.8932
18.468513 109.589 -151.2151
18.602345 109.599 -151.5367
18.737144 109.610 -151.8583
18.872921 109.620 -152.1802
19.009682 109.631 -152.5025
19.147434 109.641 -152.8254
19.286184 109.651 -153.1492
19.425940 109.660 -153.4739
19.566708 109.669 -153.7995
19.708496 109.678 -154.1260
19.851313 109.687 -154.4529
19.995163 109.695 -154.7798
20.140057 109.702 -155.1061
20.285999 109.709 -155.4313
20.433001 109.716 -155.7548
20.581066 109.722 -156.0765
20.730206 109.729 -156.3965
20.880424 109.735 -156.7154
21.031733 109.742 -157.0342
21.184137 109.749 -157.3545
21.337646 109.757 -157.6778
21.492268 109.765 -158.0060
21.648010 109.773 -158.3402
21.804880 109.780 -158.6811
21.962887 109.787 -159.0284
22.122040 109.792 -159.3805
22.282345 109.795 -159.7349
22.443811 109.797 -160.0880
22.606449 109.797 -160.4357
22.770266 109.796 -160.7741
22.935268 109.793 -161.0998
23.101467 109.790 -161.4110
23.268869 109.789 -161.7081
23.437485 109.789 -161.9936
23.607323 109.791 -162.2724
23.778391 109.796 -162.5512
23.950699 109.804 -162.8376
24.124256 109.815 -163.1387
24.299070 109.826 -163.4600
24.475151 109.836 -163.8042
24.652508 109.845 -164.1701
24.831150 109.850 -164.5525
25.011087 109.850 -164.9428
25.192327 109.845 -165.3294
25.374882 109.835 -165.6997
25.558758 109.820 -166.0421
25.743967 109.803 -166.3471
25.930519 109.784 -166.6098
26.118422 109.768 -166.8308
26.307686 109.756 -167.0161
26.498322 109.749 -167.1765
26.690340 109.748 -167.3264
26.883749 109.754 -167.4807
27.078560 109.765 -167.6529
27.274782 109.779 -167.8527
27.472427 109.795 -168.0845
27.671503 109.810 -168.3478
27.872023 109.822 -168.6372
28.073996 109.831 -168.9440
28.277431 109.836 -169.2587
28.482342 109.837 -169.5721
28.688736 109.835 -169.8774
28.896626 109.831 -170.1706
29.106022 109.827 -170.4512
29.316936 109.822 -170.7211
29.529379 109.817 -170.9835
29.743361 109.813 -171.2423
29.958893 109.809 -171.5004
30.175987 109.805 -171.7595
30.394655 109.800 -172.0198
30.614908 109.795 -172.2808
30.836756 109.790 -172.5414
31.060211 109.785 -172.8012
31.285286 109.779 -173.0602
31.511992 109.774 -173.3195
31.740341 109.768 -173.5804
31.970345 109.763 -173.8443
32.202015 109.758 -174.1118
32.435364 109.753 -174.3828
32.670403 109.747 -174.6565
32.907146 109.740 -174.9316
33.145607 109.734 -175.2072
33.385796 109.728 -175.4833
33.627724 109.721 -175.7606
33.871403 109.715 -176.0411
34.116848 109.710 -176.3265
34.364071 109.704 -176.6179
34.613087 109.697 -176.9148
34.863907 109.688 -177.2147
35.116547 109.678 -177.5131
35.371017 109.666 -177.8046
35.627331 109.653 -178.0841
35.885502 109.639 -178.3483
36.145542 109.626 -178.5963
36.407467 109.614 -178.8306
36.671291 109.604 -179.0559
36.937027 109.596 -179.2785
37.204689 109.590 -179.5043
37.474289 109.584 -179.7374
37.745842 109.579 -179.9792
38.019363 109.573 179.7717
38.294868 109.565 179.5192
38.572369 109.555 179.2687
38.851879 109.543 179.0255
39.133415 109.530 178.7936
39.416992 109.516 178.5749
39.702625 109.503 178.3682
39.990326 109.490 178.1693
40.280113 109.479 177.9722
40.571999 109.469 177.7698
40.866001 109.459 177.5566
41.162132 109.449 177.3302
41.460411 109.437 177.0917
41.760849 109.423 176.8460
42.063465 109.406 176.5993
42.368275 109.387 176.3569
42.675293 109.367 176.1210
42.984535 109.347 175.8900
43.296021 109.327 175.6595
43.609760 109.308 175.4246
43.925774 109.288 175.1827
44.244080 109.268 174.9349
44.564690 109.247 174.6854
44.887623 109.225 174.4388
45.212898 109.203 174.1987
45.540531 109.182 173.9655
45.870537 109.162 173.7374
46.202934 109.144 173.5121
46.537739 109.127 173.2883
46.874969 109.111 173.0657
47.214645 109.098 172.8448
47.556782 109.086 172.6241
47.901398 109.075 172.4008
48.248512 109.066 172.1710
48.598141 109.058 171.9323
48.950302 109.049 171.6857
49.305016 109.039 171.4356
49.662300 109.027 171.1878
50.022175 109.013 170.9464
50.384655 108.998 170.7128
50.749763 108.982 170.4862
51.117516 108.964 170.2661
51.487934 108.945 170.0540
51.861038 108.925 169.8536
52.236843 108.903 169.6683
52.615372 108.882 169.4978
52.996643 108.862 169.3365
53.380680 108.845 169.1748
53.767498 108.829 169.0032
54.157120 108.813 168.8169
54.549564 108.796 168.6181
54.944855 108.777 168.4147
55.343006 108.756 168.2160
55.744045 108.735 168.0283
56.147991 108.714 167.8518
56.554863 108.695 167.6808
56.964684 108.679 167.5066
57.377472 108.663 167.3207
57.793251 108.648 167.1186
58.212044 108.631 166.9006
58.633873 108.611 166.6725
59.058758 108.588 166.4435
59.486721 108.561 166.2237
59.917786 108.531 166.0201
60.351974 108.502 165.8344
60.789310 108.473 165.6613
61.229816 108.446 165.4920
61.673512 108.421 165.3166
62.120422 108.398 165.1285
62.570572 108.375 164.9257
63.023983 108.352 164.7104
63.480682 108.329 164.4865
63.940689 108.305 164.2584
64.404030 108.281 164.0302
64.870728 108.256 163.8058
65.340805 108.230 163.5891
65.814293 108.205 163.3825
66.291214 108.178 163.1866
66.771591 108.152 163.0005
67.255447 108.124 162.8239
67.742805 108.095 162.6589
68.233696 108.065 162.5079
68.728142 108.036 162.3696
69.226173 108.008 162.2368
69.727814 107.981 162.0976
70.233093 107.956 161.9413
70.742035 107.930 161.7656
71.254662 107.904 161.5766
71.771004 107.877 161.3842
72.291084 107.850 161.1951
72.814934 107.825 161.0104
73.342583 107.801 160.8281
73.874054 107.778 160.6487
74.409378 107.753 160.4777
74.948578 107.727 160.3254
75.491684 107.697 160.2028
76.038727 107.666 160.1139
76.589737 107.634 160.0493
77.144737 107.601 159.9873
77.703758 107.566 159.9044
78.266830 107.527 159.7850
78.833984 107.481 159.6203
79.405251 107.426 159.4069
79.980652 107.359 159.1577
80.560226 107.280 158.9155
81.143997 107.193 158.7415
81.732002 107.111 158.6733
82.324265 107.048 158.6896
82.920822 107.013 158.7209
