* Measurement data measured by REW V5.30.4
* Source: EXCL: Microphone (Realtek(R) Audio), MICROPHONE (Master Volume), L, volume: 1.000
* Format: 256k Log Swept Sine, 1 sweep at -19.0 dBFS with no timing reference
* Dated: Jan 16, 2024 12:14:40 AM
* REW Settings:
*  C-weighting compensation: Off
*  Target level: 75.0 dB
* Note: ND ND-001 R
* Measurement: R ND ND-001
* Smoothing: 1/12 octave
* Frequency Step: 96 ppo
* Start Frequency: 0.36621094 Hz
*
* Freq(Hz) SPL(dB) Phase(degrees)
0.366211 76.342 -3.9547
0.368865 76.349 -3.9446
0.371538 76.359 -3.9296
0.374230 76.372 -3.9109
0.376942 76.386 -3.8896
0.379673 76.400 -3.8665
0.382424 76.416 -3.8422
0.385196 76.432 -3.8168
0.387987 76.448 -3.7906
0.390798 76.465 -3.7638
0.393630 76.481 -3.7363
0.396483 76.498 -3.7081
0.399356 76.515 -3.6794
0.402250 76.532 -3.6501
0.405165 76.549 -3.6201
0.408101 76.567 -3.5896
0.411058 76.584 -3.5584
0.414037 76.602 -3.5266
0.417037 76.619 -3.4941
0.420059 76.637 -3.4610
0.423103 76.655 -3.4273
0.426169 76.673 -3.3930
0.429257 76.691 -3.3580
0.432367 76.709 -3.3223
0.435501 76.728 -3.2860
0.438656 76.746 -3.2490
0.441835 76.765 -3.2114
0.445037 76.784 -3.1730
0.448262 76.803 -3.1340
0.451510 76.822 -3.0944
0.454782 76.841 -3.0540
0.458077 76.861 -3.0130
0.461397 76.880 -2.9712
0.464740 76.900 -2.9288
0.468108 76.920 -2.8857
0.471500 76.940 -2.8419
0.474917 76.960 -2.7974
0.478358 76.980 -2.7522
0.481825 77.001 -2.7063
0.485316 77.021 -2.6597
0.488833 77.042 -2.6124
0.492375 77.063 -2.5644
0.495943 77.084 -2.5157
0.499537 77.105 -2.4662
0.503157 77.126 -2.4161
0.506803 77.148 -2.3653
0.510475 77.169 -2.3139
0.514174 77.191 -2.2617
0.517900 77.213 -2.2088
0.521653 77.235 -2.1553
0.525433 77.257 -2.1010
0.529241 77.280 -2.0461
0.533076 77.302 -1.9905
0.536939 77.325 -1.9343
0.540830 77.348 -1.8774
0.544749 77.371 -1.8199
0.548696 77.394 -1.7617
0.552673 77.418 -1.7029
0.556677 77.441 -1.6435
0.560711 77.465 -1.5835
0.564774 77.489 -1.5229
0.568867 77.513 -1.4616
0.572989 77.537 -1.3999
0.577141 77.562 -1.3375
0.581324 77.586 -1.2747
0.585536 77.611 -1.2113
0.589779 77.636 -1.1474
0.594053 77.661 -1.0830
0.598358 77.687 -1.0181
0.602694 77.712 -0.9528
0.607061 77.738 -0.8870
0.611460 77.764 -0.8208
0.615891 77.790 -0.7543
0.620354 77.816 -0.6873
0.624849 77.843 -0.6201
0.629377 77.869 -0.5525
0.633938 77.896 -0.4846
0.638532 77.923 -0.4165
0.643159 77.950 -0.3482
0.647819 77.978 -0.2796
0.652514 78.006 -0.2109
0.657242 78.033 -0.1420
0.662005 78.061 -0.0731
0.666802 78.090 -0.0040
0.671634 78.118 0.0650
0.676501 78.147 0.1341
0.681403 78.176 0.2032
0.686341 78.205 0.2721
0.691314 78.234 0.3410
0.696324 78.264 0.4097
0.701369 78.294 0.4783
0.706452 78.324 0.5467
0.711571 78.356 0.6151
0.716727 78.388 0.6834
0.721921 78.422 0.7519
0.727153 78.457 0.8208
0.732422 78.496 0.8904
0.737729 78.537 0.9613
0.743075 78.581 1.0338
0.748460 78.627 1.1083
0.753883 78.676 1.1850
0.759346 78.726 1.2638
0.764849 78.778 1.3448
0.770391 78.831 1.4280
0.775974 78.885 1.5132
0.781597 78.941 1.6002
0.787261 78.997 1.6889
0.792965 79.055 1.7792
0.798712 79.114 1.8708
0.804499 79.174 1.9635
0.810329 79.235 2.0573
0.816201 79.298 2.1518
0.822116 79.361 2.2469
0.828073 79.426 2.3425
0.834073 79.491 2.4382
0.840118 79.558 2.5340
0.846205 79.626 2.6296
0.852337 79.695 2.7247
0.858514 79.765 2.8193
0.864735 79.836 2.9130
0.871001 79.908 3.0057
0.877313 79.982 3.0971
0.883670 80.056 3.1871
0.890074 80.131 3.2754
0.896523 80.208 3.3617
0.903020 80.285 3.4460
0.909564 80.363 3.5279
0.916155 80.443 3.6073
0.922793 80.523 3.6839
0.929480 80.604 3.7574
0.936216 80.686 3.8278
0.943000 80.769 3.8947
0.949833 80.853 3.9579
0.956716 80.938 4.0173
0.963649 81.023 4.0725
0.970632 81.110 4.1234
0.977666 81.197 4.1698
0.984750 81.285 4.2114
0.991886 81.373 4.2480
0.999074 81.462 4.2795
1.006313 81.552 4.3056
1.013605 81.643 4.3260
1.020950 81.734 4.3407
1.028349 81.826 4.3494
1.035801 81.918 4.3519
1.043306 82.010 4.3480
1.050867 82.103 4.3377
1.058482 82.197 4.3208
1.066152 82.291 4.2973
1.073878 82.385 4.2674
1.081659 82.479 4.2313
1.089498 82.574 4.1898
1.097393 82.670 4.1435
1.105345 82.766 4.0937
1.113355 82.864 4.0412
1.121422 82.962 3.9871
1.129549 83.061 3.9318
1.137734 83.162 3.8756
1.145978 83.264 3.8187
1.154283 83.367 3.7609
1.162647 83.471 3.7020
1.171072 83.576 3.6419
1.179558 83.683 3.5802
1.188106 83.790 3.5168
1.196715 83.899 3.4514
1.205387 84.009 3.3837
1.214122 84.120 3.3134
1.222920 84.231 3.2403
1.231781 84.344 3.1640
1.240708 84.458 3.0844
1.249698 84.573 3.0011
1.258754 84.688 2.9140
1.267875 84.805 2.8226
1.277063 84.922 2.7268
1.286317 85.040 2.6263
1.295638 85.159 2.5209
1.305027 85.278 2.4103
1.314484 85.398 2.2942
1.324009 85.518 2.1724
1.333603 85.639 2.0446
1.343267 85.760 1.9106
1.353001 85.882 1.7701
1.362805 86.004 1.6229
1.372681 86.126 1.4687
1.382628 86.248 1.3073
1.392647 86.371 1.1385
1.402739 86.493 0.9621
1.412904 86.616 0.7779
1.423142 86.738 0.5859
1.433455 86.860 0.3861
1.443842 86.982 0.1788
1.454305 87.104 -0.0355
1.464843 87.226 -0.2560
1.475458 87.348 -0.4818
1.486150 87.470 -0.7119
1.496919 87.592 -0.9455
1.507766 87.715 -1.1821
1.518692 87.837 -1.4214
1.529697 87.960 -1.6633
1.540782 88.084 -1.9079
1.551947 88.207 -2.1552
1.563193 88.331 -2.4053
1.574521 88.455 -2.6586
1.585931 88.580 -2.9150
1.597423 88.704 -3.1749
1.608998 88.829 -3.4385
1.620658 88.954 -3.7059
1.632402 89.079 -3.9775
1.644231 89.204 -4.2534
1.656146 89.329 -4.5339
1.668147 89.454 -4.8192
1.680235 89.579 -5.1095
1.692410 89.705 -5.4052
1.704674 89.830 -5.7065
1.717027 89.955 -6.0136
1.729469 90.081 -6.3268
1.742002 90.206 -6.6463
1.754625 90.331 -6.9725
1.767340 90.455 -7.3056
1.780147 90.580 -7.6457
1.793046 90.704 -7.9931
1.806040 90.829 -8.3478
1.819127 90.953 -8.7097
1.832309 91.076 -9.0787
1.845587 91.199 -9.4543
1.858961 91.322 -9.8360
1.872431 91.445 -10.2235
1.886000 91.567 -10.6162
1.899666 91.689 -11.0138
1.913432 91.811 -11.4159
1.927298 91.932 -11.8221
1.941264 92.053 -12.2323
1.955331 92.173 -12.6461
1.969500 92.293 -13.0634
1.983772 92.413 -13.4840
1.998147 92.532 -13.9078
2.012626 92.651 -14.3345
2.027211 92.770 -14.7642
2.041901 92.888 -15.1967
2.056697 93.006 -15.6319
2.071601 93.124 -16.0699
2.086613 93.241 -16.5107
2.101733 93.358 -16.9542
2.116963 93.475 -17.4007
2.132303 93.591 -17.8501
2.147755 93.707 -18.3028
2.163318 93.822 -18.7589
2.178995 93.937 -19.2189
2.194785 94.051 -19.6832
2.210689 94.165 -20.1521
2.226709 94.278 -20.6259
2.242844 94.391 -21.1049
2.259097 94.503 -21.5887
2.275467 94.614 -22.0772
2.291956 94.724 -22.5699
2.308565 94.834 -23.0665
2.325294 94.943 -23.5663
2.342144 95.051 -24.0690
2.359116 95.159 -24.5740
2.376211 95.266 -25.0808
2.393430 95.372 -25.5892
2.410774 95.478 -26.0985
2.428243 95.583 -26.6085
2.445839 95.687 -27.1189
2.463562 95.791 -27.6293
2.481415 95.895 -28.1397
2.499396 95.998 -28.6499
2.517508 96.100 -29.1601
2.535750 96.202 -29.6706
2.554126 96.303 -30.1821
2.572634 96.403 -30.6951
2.591276 96.503 -31.2107
2.610054 96.602 -31.7292
2.628967 96.699 -32.2510
2.648018 96.796 -32.7759
2.667206 96.892 -33.3038
2.686534 96.988 -33.8340
2.706002 97.082 -34.3660
2.725610 97.175 -34.8992
2.745361 97.268 -35.4328
2.765255 97.360 -35.9662
2.785294 97.451 -36.4988
2.805477 97.542 -37.0298
2.825807 97.632 -37.5589
2.846284 97.721 -38.0854
2.866909 97.810 -38.6092
2.887684 97.898 -39.1301
2.908609 97.986 -39.6485
2.929686 98.073 -40.1649
2.950916 98.159 -40.6801
2.972299 98.245 -41.1949
2.993838 98.329 -41.7098
3.015532 98.413 -42.2250
3.037384 98.496 -42.7406
3.059394 98.578 -43.2561
3.081564 98.659 -43.7711
3.103894 98.740 -44.2851
3.126386 98.819 -44.7974
3.149041 98.899 -45.3075
3.171861 98.977 -45.8147
3.194845 99.056 -46.3185
3.217996 99.133 -46.8183
3.241315 99.211 -47.3138
3.264803 99.288 -47.8049
3.288461 99.365 -48.2917
3.312291 99.442 -48.7747
3.336293 99.517 -49.2543
3.360469 99.593 -49.7310
3.384820 99.667 -50.2052
3.409348 99.742 -50.6770
3.434054 99.815 -51.1465
3.458938 99.888 -51.6136
3.484003 99.961 -52.0780
3.509250 100.034 -52.5396
3.534679 100.106 -52.9980
3.560293 100.178 -53.4530
3.586092 100.250 -53.9044
3.612079 100.322 -54.3518
3.638253 100.395 -54.7952
3.664618 100.467 -55.2345
3.691173 100.539 -55.6699
3.717921 100.611 -56.1014
3.744862 100.683 -56.5294
3.771999 100.755 -56.9541
3.799332 100.827 -57.3760
3.826864 100.899 -57.7952
3.854595 100.970 -58.2120
3.882527 101.042 -58.6268
3.910661 101.114 -59.0397
3.938999 101.186 -59.4509
3.967543 101.259 -59.8605
3.996294 101.332 -60.2686
4.025252 101.405 -60.6750
4.054421 101.478 -61.0796
4.083801 101.552 -61.4824
4.113394 101.625 -61.8836
4.143201 101.700 -62.2832
4.173225 101.774 -62.6817
4.203466 101.848 -63.0794
4.233926 101.923 -63.4770
4.264606 101.998 -63.8748
4.295509 102.073 -64.2733
4.326636 102.149 -64.6730
4.357989 102.224 -65.0740
4.389569 102.300 -65.4765
4.421378 102.376 -65.8804
4.453417 102.452 -66.2858
4.485688 102.529 -66.6925
4.518193 102.605 -67.1005
4.550934 102.682 -67.5100
4.583912 102.759 -67.9212
4.617129 102.835 -68.3342
4.650587 102.912 -68.7495
4.684287 102.989 -69.1671
4.718231 103.065 -69.5875
4.752421 103.141 -70.0108
4.786859 103.217 -70.4371
4.821547 103.293 -70.8665
4.856485 103.369 -71.2989
4.891677 103.444 -71.7340
4.927125 103.520 -72.1716
4.962829 103.595 -72.6115
4.998791 103.669 -73.0534
5.035015 103.743 -73.4973
5.071500 103.817 -73.9430
5.108251 103.890 -74.3907
5.145267 103.962 -74.8404
5.182552 104.034 -75.2924
5.220107 104.105 -75.7465
5.257934 104.176 -76.2024
5.296035 104.246 -76.6599
5.334412 104.316 -77.1184
5.373067 104.385 -77.5773
5.412003 104.453 -78.0363
5.451221 104.521 -78.4951
5.490722 104.588 -78.9536
5.530510 104.654 -79.4117
5.570587 104.720 -79.8697
5.610953 104.785 -80.3275
5.651613 104.849 -80.7848
5.692567 104.913 -81.2413
5.733818 104.976 -81.6965
5.775367 105.039 -82.1501
5.817218 105.101 -82.6018
5.859372 105.163 -83.0513
5.901831 105.224 -83.4987
5.944598 105.285 -83.9440
5.987675 105.345 -84.3874
6.031065 105.405 -84.8289
6.074768 105.465 -85.2686
6.118788 105.524 -85.7062
6.163127 105.584 -86.1418
6.207788 105.643 -86.5753
6.252772 105.702 -87.0068
6.298082 105.760 -87.4363
6.343721 105.819 -87.8639
6.389690 105.878 -88.2901
6.435992 105.936 -88.7150
6.482630 105.994 -89.1390
6.529606 106.053 -89.5623
6.576922 106.111 -89.9852
6.624581 106.170 -90.4077
6.672585 106.228 -90.8299
6.720938 106.286 -91.2522
6.769640 106.345 -91.6747
6.818696 106.403 -92.0977
6.868107 106.461 -92.5215
6.917876 106.519 -92.9465
6.968006 106.577 -93.3727
7.018499 106.634 -93.8003
7.069358 106.692 -94.2294
7.120586 106.749 -94.6600
7.172184 106.806 -95.0920
7.224157 106.862 -95.5254
7.276506 106.918 -95.9602
7.329235 106.974 -96.3964
7.382345 107.029 -96.8341
7.435841 107.083 -97.2731
7.489724 107.137 -97.7131
7.543997 107.191 -98.1539
7.598664 107.243 -98.5950
7.653728 107.295 -99.0362
7.709189 107.347 -99.4772
7.765053 107.397 -99.9179
7.821322 107.447 -100.3579
7.877998 107.497 -100.7971
7.935086 107.545 -101.2349
7.992587 107.593 -101.6710
8.050504 107.641 -102.1049
8.108841 107.687 -102.5364
8.167601 107.734 -102.9656
8.226787 107.779 -103.3921
8.286402 107.824 -103.8158
8.346449 107.869 -104.2367
8.406931 107.914 -104.6544
8.467851 107.958 -105.0691
8.529212 108.002 -105.4806
8.591018 108.045 -105.8893
8.653272 108.089 -106.2952
8.715977 108.132 -106.6986
8.779137 108.176 -107.0998
8.842754 108.219 -107.4988
8.906833 108.263 -107.8960
8.971375 108.306 -108.2917
9.036386 108.350 -108.6863
9.101867 108.393 -109.0801
9.167823 108.437 -109.4736
9.234257 108.480 -109.8670
9.301172 108.524 -110.2605
9.368572 108.567 -110.6544
9.436460 108.611 -111.0489
9.504841 108.654 -111.4442
9.573717 108.697 -111.8406
9.643092 108.740 -112.2381
9.712970 108.783 -112.6366
9.783354 108.825 -113.0361
9.854248 108.867 -113.4365
9.925656 108.908 -113.8378
9.997581 108.949 -114.2398
10.070028 108.990 -114.6423
10.143000 109.030 -115.0451
10.216500 109.070 -115.4479
10.290533 109.109 -115.8505
10.365103 109.148 -116.2528
10.440212 109.186 -116.6545
10.515866 109.223 -117.0555
10.592069 109.261 -117.4557
10.668823 109.298 -117.8548
10.746134 109.334 -118.2529
10.824005 109.370 -118.6501
10.902440 109.406 -119.0462
10.981443 109.441 -119.4414
11.061020 109.477 -119.8357
11.141172 109.512 -120.2292
11.221906 109.546 -120.6222
11.303225 109.581 -121.0146
11.385133 109.615 -121.4067
11.467634 109.648 -121.7985
11.550734 109.682 -122.1900
11.634435 109.715 -122.5813
11.718742 109.747 -122.9723
11.803661 109.780 -123.3630
11.889195 109.811 -123.7532
11.975349 109.843 -124.1428
12.062128 109.874 -124.5315
12.149535 109.904 -124.9191
12.237576 109.934 -125.3055
12.326254 109.964 -125.6903
12.415575 109.993 -126.0734
12.505544 110.022 -126.4545
12.596164 110.050 -126.8335
12.687441 110.079 -127.2105
12.779379 110.107 -127.5854
12.871984 110.135 -127.9584
12.965260 110.163 -128.3296
13.059211 110.191 -128.6994
13.153843 110.219 -129.0682
13.249161 110.247 -129.4364
13.345170 110.275 -129.8044
13.441875 110.303 -130.1727
13.539280 110.331 -130.5418
13.637391 110.360 -130.9121
13.736214 110.388 -131.2839
13.835752 110.415 -131.6573
13.936011 110.443 -132.0327
14.036998 110.470 -132.4098
14.138716 110.497 -132.7885
14.241171 110.523 -133.1685
14.344368 110.549 -133.5493
14.448313 110.573 -133.9304
14.553011 110.598 -134.3112
14.658468 110.621 -134.6910
14.764689 110.644 -135.0692
14.871680 110.667 -135.4453
14.979446 110.688 -135.8188
15.087994 110.710 -136.1893
15.197328 110.731 -136.5567
15.307454 110.752 -136.9210
15.418378 110.773 -137.2824
15.530106 110.794 -137.6413
15.642643 110.815 -137.9982
15.755996 110.836 -138.3538
15.870171 110.857 -138.7088
15.985172 110.878 -139.0640
16.101007 110.899 -139.4201
16.217682 110.921 -139.7776
16.335201 110.942 -140.1369
16.453573 110.962 -140.4982
16.572803 110.983 -140.8615
16.692898 111.002 -141.2265
16.813862 111.021 -141.5927
16.935701 111.040 -141.9591
17.058424 111.057 -142.3250
17.182035 111.073 -142.6893
17.306543 111.089 -143.0508
17.431953 111.103 -143.4086
17.558273 111.117 -143.7618
17.685509 111.130 -144.1097
17.813665 111.143 -144.4518
17.942751 111.156 -144.7882
18.072771 111.169 -145.1189
18.203733 111.181 -145.4445
18.335646 111.194 -145.7661
18.468513 111.208 -146.0845
18.602345 111.222 -146.4010
18.737144 111.236 -146.7169
18.872921 111.251 -147.0334
19.009682 111.266 -147.3515
19.147434 111.281 -147.6719
19.286184 111.296 -147.9950
19.425940 111.311 -148.3207
19.566708 111.325 -148.6486
19.708496 111.338 -148.9779
19.851313 111.351 -149.3075
19.995163 111.362 -149.6361
20.140057 111.373 -149.9625
20.285999 111.384 -150.2855
20.433001 111.394 -150.6041
20.581066 111.403 -150.9179
20.730206 111.413 -151.2269
20.880424 111.423 -151.5317
21.031733 111.433 -151.8334
21.184137 111.445 -152.1336
21.337646 111.456 -152.4341
21.492268 111.469 -152.7370
21.648010 111.482 -153.0441
21.804880 111.495 -153.3569
21.962887 111.509 -153.6764
22.122040 111.522 -154.0029
22.282345 111.534 -154.3358
22.443811 111.545 -154.6738
22.606449 111.555 -155.0150
22.770266 111.564 -155.3572
22.935268 111.571 -155.6980
23.101467 111.577 -156.0349
23.268869 111.581 -156.3661
23.437485 111.585 -156.6904
23.607323 111.589 -157.0073
23.778391 111.593 -157.3171
23.950699 111.597 -157.6208
24.124256 111.602 -157.9200
24.299070 111.608 -158.2163
24.475151 111.614 -158.5117
24.652508 111.620 -158.8074
24.831150 111.627 -159.1046
25.011087 111.634 -159.4036
25.192327 111.641 -159.7044
25.374882 111.647 -160.0064
25.558758 111.654 -160.3090
25.743967 111.660 -160.6115
25.930519 111.665 -160.9133
26.118422 111.671 -161.2140
26.307686 111.676 -161.5136
26.498322 111.680 -161.8121
26.690340 111.685 -162.1097
26.883749 111.689 -162.4064
27.078560 111.693 -162.7020
27.274782 111.697 -162.9964
27.472427 111.700 -163.2891
27.671503 111.703 -163.5796
27.872023 111.705 -163.8677
28.073996 111.707 -164.1534
28.277431 111.709 -164.4368
28.482342 111.711 -164.7184
28.688736 111.713 -164.9988
28.896626 111.715 -165.2784
29.106022 111.716 -165.5572
29.316936 111.717 -165.8350
29.529379 111.717 -166.1114
29.743361 111.718 -166.3855
29.958893 111.718 -166.6571
30.175987 111.718 -166.9259
30.394655 111.718 -167.1927
30.614908 111.718 -167.4587
30.836756 111.719 -167.7256
31.060211 111.721 -167.9951
31.285286 111.722 -168.2683
31.511992 111.723 -168.5455
31.740341 111.723 -168.8260
31.970345 111.723 -169.1079
32.202015 111.722 -169.3888
32.435364 111.720 -169.6662
32.670403 111.718 -169.9386
32.907146 111.716 -170.2056
33.145607 111.715 -170.4682
33.385796 111.714 -170.7290
33.627724 111.715 -170.9909
33.871403 111.716 -171.2570
34.116848 111.718 -171.5298
34.364071 111.719 -171.8098
34.613087 111.720 -172.0965
34.863907 111.720 -172.3874
35.116547 111.718 -172.6795
35.371017 111.715 -172.9694
35.627331 111.711 -173.2541
35.885502 111.706 -173.5318
36.145542 111.700 -173.8017
36.407467 111.694 -174.0645
36.671291 111.689 -174.3215
36.937027 111.683 -174.5746
37.204689 111.678 -174.8255
37.474289 111.673 -175.0758
37.745842 111.668 -175.3260
38.019363 111.662 -175.5763
38.294868 111.656 -175.8263
38.572369 111.650 -176.0756
38.851879 111.643 -176.3238
39.133415 111.636 -176.5715
39.416992 111.630 -176.8192
39.702625 111.623 -177.0683
39.990326 111.616 -177.3195
40.280113 111.609 -177.5733
40.571999 111.601 -177.8288
40.866001 111.592 -178.0847
41.162132 111.584 -178.3388
41.460411 111.574 -178.5898
41.760849 111.566 -178.8372
42.063465 111.558 -179.0823
42.368275 111.550 -179.3274
42.675293 111.544 -179.5755
42.984535 111.538 -179.8288
43.296021 111.532 179.9122
43.609760 111.525 179.6494
43.925774 111.518 179.3859
44.244080 111.509 179.1259
44.564690 111.500 178.8729
44.887623 111.490 178.6288
45.212898 111.480 178.3933
45.540531 111.471 178.1651
45.870537 111.463 177.9415
46.202934 111.455 177.7202
46.537739 111.447 177.4991
46.874969 111.440 177.2770
47.214645 111.432 177.0535
47.556782 111.423 176.8284
47.901398 111.414 176.6018
48.248512 111.405 176.3741
48.598141 111.394 176.1455
48.950302 111.383 175.9164
49.305016 111.371 175.6870
49.662300 111.358 175.4581
50.022175 111.345 175.2304
50.384655 111.332 175.0048
50.749763 111.318 174.7814
51.117516 111.306 174.5593
51.487934 111.294 174.3361
51.861038 111.283 174.1091
52.236843 111.272 173.8770
52.615372 111.261 173.6403
52.996643 111.250 173.4024
53.380680 111.238 173.1679
53.767498 111.226 172.9409
54.157120 111.214 172.7225
54.549564 111.203 172.5111
54.944855 111.193 172.3029
55.343006 111.184 172.0941
55.744045 111.175 171.8828
56.147991 111.165 171.6690
56.554863 111.154 171.4549
56.964684 111.142 171.2433
57.377472 111.128 171.0376
57.793251 111.113 170.8399
58.212044 111.098 170.6501
58.633873 111.084 170.4641
59.058758 111.071 170.2734
59.486721 111.059 170.0685
59.917786 111.047 169.8433
60.351974 111.033 169.5988
60.789310 111.017 169.3434
61.229816 110.998 169.0876
61.673512 110.978 168.8382
62.120422 110.959 168.5955
62.570572 110.940 168.3553
63.023983 110.922 168.1133
63.480682 110.905 167.8678
63.940689 110.888 167.6204
64.404030 110.870 167.3738
64.870728 110.853 167.1310
65.340805 110.834 166.8944
65.814293 110.816 166.6664
66.291214 110.797 166.4483
66.771591 110.778 166.2393
67.255447 110.759 166.0369
67.742805 110.741 165.8382
68.233696 110.722 165.6413
68.728142 110.703 165.4459
69.226173 110.682 165.2533
69.727814 110.662 165.0645
70.233093 110.641 164.8796
70.742035 110.621 164.6971
71.254662 110.601 164.5138
71.771004 110.582 164.3264
72.291084 110.564 164.1320
72.814934 110.546 163.9291
73.342583 110.528 163.7173
73.874054 110.509 163.4981
74.409378 110.489 163.2748
74.948578 110.468 163.0520
75.491684 110.445 162.8337
76.038727 110.422 162.6228
76.589737 110.400 162.4206
77.144737 110.377 162.2257
77.703758 110.356 162.0345
78.266830 110.337 161.8419
78.833984 110.318 161.6440
79.405251 110.300 161.4390
79.980652 110.281 161.2278
80.560226 110.263 161.0116
81.143997 110.244 160.7910
81.732002 110.224 160.5665
82.324265 110.203 160.3388
82.920822 110.181 160.1094
83.521698 110.157 159.8794
84.126930 110.132 159.6487
