* Measurement data measured by REW V5.30.4
* Source: EXCL: Microphone (Realtek(R) Audio), MICROPHONE (Master Volume), L, volume: 1.000
* Format: 256k Log Swept Sine, 1 sweep at -19.0 dBFS with no timing reference
* Dated: Jan 16, 2024 12:13:29 AM
* REW Settings:
*  C-weighting compensation: Off
*  Target level: 75.0 dB
* Note: ND ND-001 L
* Measurement: L ND ND-001
* Smoothing: 1/12 octave
* Frequency Step: 96 ppo
* Start Frequency: 0.36621094 Hz
*
* Freq(Hz) SPL(dB) Phase(degrees)
0.366211 98.710 -21.2545
0.368865 98.704 -21.2747
0.371538 98.696 -21.3050
0.374230 98.685 -21.3431
0.376942 98.673 -21.3871
0.379673 98.661 -21.4354
0.382424 98.648 -21.4873
0.385196 98.634 -21.5420
0.387987 98.621 -21.5993
0.390798 98.607 -21.6591
0.393630 98.593 -21.7211
0.396483 98.579 -21.7854
0.399356 98.564 -21.8520
0.402250 98.550 -21.9208
0.405165 98.536 -21.9920
0.408101 98.521 -22.0654
0.411058 98.506 -22.1412
0.414037 98.492 -22.2194
0.417037 98.477 -22.2999
0.420059 98.462 -22.3828
0.423103 98.447 -22.4681
0.426169 98.431 -22.5558
0.429257 98.416 -22.6460
0.432367 98.401 -22.7386
0.435501 98.385 -22.8338
0.438656 98.369 -22.9314
0.441835 98.354 -23.0316
0.445037 98.338 -23.1342
0.448262 98.322 -23.2395
0.451510 98.306 -23.3473
0.454782 98.289 -23.4577
0.458077 98.273 -23.5707
0.461397 98.257 -23.6863
0.464740 98.240 -23.8045
0.468108 98.223 -23.9253
0.471500 98.206 -24.0488
0.474917 98.189 -24.1749
0.478358 98.172 -24.3037
0.481825 98.155 -24.4352
0.485316 98.138 -24.5693
0.488833 98.120 -24.7061
0.492375 98.103 -24.8456
0.495943 98.085 -24.9878
0.499537 98.067 -25.1326
0.503157 98.049 -25.2802
0.506803 98.031 -25.4304
0.510475 98.013 -25.5832
0.514174 97.995 -25.7388
0.517900 97.976 -25.8969
0.521653 97.958 -26.0578
0.525433 97.939 -26.2212
0.529241 97.920 -26.3873
0.533076 97.901 -26.5559
0.536939 97.882 -26.7271
0.540830 97.862 -26.9009
0.544749 97.843 -27.0772
0.548696 97.823 -27.2560
0.552673 97.804 -27.4372
0.556677 97.784 -27.6209
0.560711 97.764 -27.8069
0.564774 97.744 -27.9953
0.568867 97.723 -28.1859
0.572989 97.703 -28.3788
0.577141 97.682 -28.5739
0.581324 97.662 -28.7711
0.585536 97.641 -28.9704
0.589779 97.620 -29.1716
0.594053 97.598 -29.3748
0.598358 97.577 -29.5798
0.602694 97.556 -29.7865
0.607061 97.534 -29.9949
0.611460 97.512 -30.2049
0.615891 97.490 -30.4163
0.620354 97.468 -30.6291
0.624849 97.446 -30.8431
0.629377 97.423 -31.0582
0.633938 97.401 -31.2743
0.638532 97.378 -31.4913
0.643159 97.355 -31.7090
0.647819 97.332 -31.9272
0.652514 97.308 -32.1458
0.657242 97.285 -32.3646
0.662005 97.261 -32.5834
0.666802 97.238 -32.8021
0.671634 97.214 -33.0204
0.676501 97.189 -33.2382
0.681403 97.165 -33.4552
0.686341 97.141 -33.6712
0.691314 97.116 -33.8860
0.696324 97.091 -34.0993
0.701369 97.066 -34.3109
0.706452 97.040 -34.5206
0.711571 97.014 -34.7284
0.716727 96.987 -34.9341
0.721921 96.959 -35.1380
0.727153 96.930 -35.3404
0.732422 96.898 -35.5419
0.737729 96.865 -35.7435
0.743075 96.830 -35.9459
0.748460 96.793 -36.1501
0.753883 96.754 -36.3566
0.759346 96.714 -36.5658
0.764849 96.674 -36.7779
0.770391 96.632 -36.9932
0.775974 96.590 -37.2118
0.781597 96.547 -37.4336
0.787261 96.503 -37.6588
0.792965 96.459 -37.8872
0.798712 96.414 -38.1190
0.804499 96.368 -38.3542
0.810329 96.322 -38.5926
0.816201 96.274 -38.8343
0.822116 96.226 -39.0792
0.828073 96.177 -39.3273
0.834073 96.128 -39.5786
0.840118 96.078 -39.8331
0.846205 96.026 -40.0905
0.852337 95.974 -40.3510
0.858514 95.922 -40.6143
0.864735 95.868 -40.8805
0.871001 95.814 -41.1494
0.877313 95.758 -41.4209
0.883670 95.702 -41.6949
0.890074 95.645 -41.9712
0.896523 95.587 -42.2496
0.903020 95.528 -42.5301
0.909564 95.468 -42.8124
0.916155 95.407 -43.0963
0.922793 95.346 -43.3815
0.929480 95.283 -43.6679
0.936216 95.219 -43.9551
0.943000 95.155 -44.2429
0.949833 95.089 -44.5308
0.956716 95.022 -44.8186
0.963649 94.954 -45.1060
0.970632 94.886 -45.3923
0.977666 94.816 -45.6773
0.984750 94.745 -45.9604
0.991886 94.672 -46.2412
0.999074 94.599 -46.5189
1.006313 94.525 -46.7931
1.013605 94.449 -47.0631
1.020950 94.372 -47.3282
1.028349 94.294 -47.5875
1.035801 94.215 -47.8405
1.043306 94.134 -48.0861
1.050867 94.053 -48.3234
1.058482 93.970 -48.5516
1.066152 93.885 -48.7696
1.073878 93.799 -48.9765
1.081659 93.711 -49.1713
1.089498 93.621 -49.3529
1.097393 93.530 -49.5208
1.105345 93.435 -49.6741
1.113355 93.337 -49.8123
1.121422 93.237 -49.9351
1.129549 93.132 -50.0420
1.137734 93.024 -50.1326
1.145978 92.913 -50.2067
1.154283 92.797 -50.2638
1.162647 92.679 -50.3035
1.171072 92.557 -50.3255
1.179558 92.432 -50.3291
1.188106 92.304 -50.3140
1.196715 92.173 -50.2796
1.205387 92.040 -50.2255
1.214122 91.904 -50.1511
1.222920 91.767 -50.0559
1.231781 91.627 -49.9392
1.240708 91.486 -49.8005
1.249698 91.343 -49.6392
1.258754 91.199 -49.4546
1.267875 91.055 -49.2462
1.277063 90.910 -49.0133
1.286317 90.764 -48.7554
1.295638 90.619 -48.4719
1.305027 90.475 -48.1622
1.314484 90.331 -47.8258
1.324009 90.188 -47.4623
1.333603 90.047 -47.0713
1.343267 89.908 -46.6526
1.353001 89.772 -46.2059
1.362805 89.638 -45.7312
1.372681 89.508 -45.2287
1.382628 89.381 -44.6985
1.392647 89.259 -44.1412
1.402739 89.142 -43.5571
1.412904 89.029 -42.9469
1.423142 88.923 -42.3111
1.433455 88.823 -41.6496
1.443842 88.729 -40.9617
1.454305 88.642 -40.2456
1.464843 88.561 -39.4979
1.475458 88.486 -38.7141
1.486150 88.417 -37.8893
1.496919 88.353 -37.0194
1.507766 88.294 -36.1014
1.518692 88.240 -35.1340
1.529697 88.191 -34.1170
1.540782 88.146 -33.0511
1.551947 88.106 -31.9382
1.563193 88.071 -30.7808
1.574521 88.041 -29.5819
1.585931 88.015 -28.3456
1.597423 87.993 -27.0760
1.608998 87.977 -25.7781
1.620658 87.965 -24.4575
1.632402 87.958 -23.1198
1.644231 87.956 -21.7712
1.656146 87.959 -20.4183
1.668147 87.966 -19.0675
1.680235 87.978 -17.7256
1.692410 87.995 -16.3991
1.704674 88.017 -15.0947
1.717027 88.044 -13.8185
1.729469 88.075 -12.5764
1.742002 88.112 -11.3740
1.754625 88.153 -10.2162
1.767340 88.199 -9.1074
1.780147 88.251 -8.0510
1.793046 88.308 -7.0496
1.806040 88.371 -6.1046
1.819127 88.441 -5.2160
1.832309 88.519 -4.3826
1.845587 88.605 -3.6024
1.858961 88.701 -2.8731
1.872431 88.806 -2.1929
1.886000 88.922 -1.5606
1.899666 89.047 -0.9756
1.913432 89.183 -0.4374
1.927298 89.327 0.0544
1.941264 89.479 0.5004
1.955331 89.639 0.9011
1.969500 89.805 1.2574
1.983772 89.978 1.5700
1.998147 90.155 1.8400
2.012626 90.336 2.0683
2.027211 90.520 2.2562
2.041901 90.705 2.4046
2.056697 90.892 2.5146
2.071601 91.078 2.5874
2.086613 91.262 2.6237
2.101733 91.444 2.6245
2.116963 91.622 2.5904
2.132303 91.796 2.5219
2.147755 91.964 2.4192
2.163318 92.125 2.2821
2.178995 92.281 2.1103
2.194785 92.430 1.9030
2.210689 92.573 1.6595
2.226709 92.712 1.3794
2.242844 92.847 1.0633
2.259097 92.978 0.7123
2.275467 93.106 0.3281
2.291956 93.231 -0.0867
2.308565 93.354 -0.5299
2.325294 93.474 -0.9986
2.342144 93.592 -1.4904
2.359116 93.708 -2.0026
2.376211 93.821 -2.5329
2.393430 93.932 -3.0788
2.410774 94.040 -3.6383
2.428243 94.147 -4.2092
2.445839 94.251 -4.7899
2.463562 94.353 -5.3788
2.481415 94.453 -5.9748
2.499396 94.551 -6.5773
2.517508 94.647 -7.1866
2.535750 94.740 -7.8040
2.554126 94.831 -8.4317
2.572634 94.920 -9.0729
2.591276 95.005 -9.7312
2.610054 95.088 -10.4090
2.628967 95.167 -11.1078
2.648018 95.243 -11.8274
2.667206 95.316 -12.5665
2.686534 95.387 -13.3231
2.706002 95.454 -14.0947
2.725610 95.518 -14.8784
2.745361 95.580 -15.6712
2.765255 95.640 -16.4700
2.785294 95.697 -17.2718
2.805477 95.752 -18.0734
2.825807 95.806 -18.8720
2.846284 95.858 -19.6652
2.866909 95.908 -20.4512
2.887684 95.956 -21.2292
2.908609 96.003 -21.9996
2.929686 96.048 -22.7644
2.950916 96.091 -23.5266
2.972299 96.132 -24.2895
2.993838 96.170 -25.0557
3.015532 96.206 -25.8267
3.037384 96.239 -26.6026
3.059394 96.270 -27.3830
3.081564 96.298 -28.1663
3.103894 96.325 -28.9508
3.126386 96.350 -29.7342
3.149041 96.374 -30.5140
3.171861 96.397 -31.2877
3.194845 96.418 -32.0527
3.217996 96.439 -32.8065
3.241315 96.460 -33.5473
3.264803 96.479 -34.2736
3.288461 96.498 -34.9854
3.312291 96.517 -35.6833
3.336293 96.534 -36.3689
3.360469 96.550 -37.0438
3.384820 96.564 -37.7093
3.409348 96.578 -38.3661
3.434054 96.591 -39.0144
3.458938 96.603 -39.6539
3.484003 96.615 -40.2840
3.509250 96.627 -40.9037
3.534679 96.640 -41.5116
3.560293 96.654 -42.1063
3.586092 96.669 -42.6861
3.612079 96.686 -43.2490
3.638253 96.705 -43.7932
3.664618 96.726 -44.3172
3.691173 96.748 -44.8199
3.717921 96.772 -45.3011
3.744862 96.798 -45.7615
3.771999 96.825 -46.2027
3.799332 96.854 -46.6267
3.826864 96.885 -47.0361
3.854595 96.918 -47.4335
3.882527 96.954 -47.8215
3.910661 96.992 -48.2025
3.938999 97.034 -48.5784
3.967543 97.079 -48.9506
3.996294 97.128 -49.3192
4.025252 97.182 -49.6836
4.054421 97.239 -50.0424
4.083801 97.300 -50.3942
4.113394 97.366 -50.7387
4.143201 97.435 -51.0768
4.173225 97.508 -51.4108
4.203466 97.585 -51.7435
4.233926 97.664 -52.0784
4.264606 97.747 -52.4190
4.295509 97.833 -52.7685
4.326636 97.921 -53.1297
4.357989 98.012 -53.5042
4.389569 98.106 -53.8925
4.421378 98.203 -54.2939
4.453417 98.303 -54.7072
4.485688 98.406 -55.1313
4.518193 98.512 -55.5658
4.550934 98.620 -56.0110
4.583912 98.729 -56.4676
4.617129 98.841 -56.9369
4.650587 98.952 -57.4203
4.684287 99.065 -57.9193
4.718231 99.177 -58.4351
4.752421 99.289 -58.9687
4.786859 99.400 -59.5202
4.821547 99.512 -60.0891
4.856485 99.623 -60.6740
4.891677 99.735 -61.2730
4.927125 99.845 -61.8840
4.962829 99.955 -62.5051
4.998791 100.063 -63.1344
5.035015 100.170 -63.7708
5.071500 100.275 -64.4135
5.108251 100.378 -65.0627
5.145267 100.479 -65.7187
5.182552 100.577 -66.3820
5.220107 100.673 -67.0522
5.257934 100.767 -67.7276
5.296035 100.858 -68.4057
5.334412 100.947 -69.0835
5.373067 101.034 -69.7579
5.412003 101.119 -70.4263
5.451221 101.201 -71.0869
5.490722 101.280 -71.7390
5.530510 101.357 -72.3828
5.570587 101.432 -73.0186
5.610953 101.504 -73.6462
5.651613 101.573 -74.2646
5.692567 101.641 -74.8718
5.733818 101.707 -75.4656
5.775367 101.771 -76.0435
5.817218 101.834 -76.6039
5.859372 101.895 -77.1454
5.901831 101.956 -77.6679
5.944598 102.015 -78.1717
5.987675 102.073 -78.6573
6.031065 102.131 -79.1250
6.074768 102.188 -79.5750
6.118788 102.245 -80.0072
6.163127 102.303 -80.4213
6.207788 102.361 -80.8168
6.252772 102.420 -81.1937
6.298082 102.480 -81.5524
6.343721 102.542 -81.8939
6.389690 102.604 -82.2201
6.435992 102.668 -82.5333
6.482630 102.733 -82.8357
6.529606 102.800 -83.1292
6.576922 102.869 -83.4154
6.624581 102.939 -83.6952
6.672585 103.012 -83.9693
6.720938 103.087 -84.2390
6.769640 103.163 -84.5064
6.818696 103.241 -84.7737
6.868107 103.321 -85.0434
6.917876 103.401 -85.3177
6.968006 103.483 -85.5979
7.018499 103.566 -85.8848
7.069358 103.650 -86.1788
7.120586 103.734 -86.4802
7.172184 103.819 -86.7897
7.224157 103.904 -87.1079
7.276506 103.988 -87.4355
7.329235 104.071 -87.7731
7.382345 104.154 -88.1206
7.435841 104.236 -88.4776
7.489724 104.317 -88.8431
7.543997 104.396 -89.2161
7.598664 104.474 -89.5954
7.653728 104.550 -89.9801
7.709189 104.624 -90.3694
7.765053 104.696 -90.7628
7.821322 104.766 -91.1592
7.877998 104.834 -91.5574
7.935086 104.901 -91.9559
7.992587 104.965 -92.3531
8.050504 105.027 -92.7478
8.108841 105.088 -93.1394
8.167601 105.147 -93.5272
8.226787 105.204 -93.9107
8.286402 105.260 -94.2895
8.346449 105.315 -94.6628
8.406931 105.368 -95.0302
8.467851 105.421 -95.3915
8.529212 105.473 -95.7467
8.591018 105.524 -96.0965
8.653272 105.575 -96.4413
8.715977 105.626 -96.7819
8.779137 105.677 -97.1189
8.842754 105.727 -97.4530
8.906833 105.778 -97.7849
8.971375 105.829 -98.1155
9.036386 105.879 -98.4460
9.101867 105.930 -98.7776
9.167823 105.981 -99.1111
9.234257 106.032 -99.4474
9.301172 106.083 -99.7870
9.368572 106.134 -100.1305
9.436460 106.184 -100.4783
9.504841 106.234 -100.8311
9.573717 106.284 -101.1889
9.643092 106.333 -101.5518
9.712970 106.381 -101.9197
9.783354 106.428 -102.2920
9.854248 106.475 -102.6685
9.925656 106.521 -103.0486
9.997581 106.566 -103.4319
10.070028 106.610 -103.8179
10.143000 106.653 -104.2059
10.216500 106.695 -104.5950
10.290533 106.737 -104.9849
10.365103 106.778 -105.3750
10.440212 106.818 -105.7650
10.515866 106.858 -106.1546
10.592069 106.897 -106.5437
10.668823 106.936 -106.9322
10.746134 106.975 -107.3201
10.824005 107.014 -107.7078
10.902440 107.053 -108.0956
10.981443 107.093 -108.4840
11.061020 107.132 -108.8734
11.141172 107.172 -109.2642
11.221906 107.212 -109.6571
11.303225 107.252 -110.0526
11.385133 107.293 -110.4511
11.467634 107.334 -110.8529
11.550734 107.375 -111.2583
11.634435 107.416 -111.6674
11.718742 107.457 -112.0800
11.803661 107.497 -112.4962
11.889195 107.538 -112.9155
11.975349 107.578 -113.3376
12.062128 107.619 -113.7619
12.149535 107.658 -114.1878
12.237576 107.698 -114.6148
12.326254 107.737 -115.0422
12.415575 107.776 -115.4693
12.505544 107.815 -115.8955
12.596164 107.853 -116.3204
12.687441 107.891 -116.7436
12.779379 107.929 -117.1647
12.871984 107.968 -117.5836
12.965260 108.006 -118.0002
13.059211 108.044 -118.4144
13.153843 108.083 -118.8264
13.249161 108.121 -119.2363
13.345170 108.160 -119.6443
13.441875 108.199 -120.0506
13.539280 108.238 -120.4553
13.637391 108.277 -120.8585
13.736214 108.316 -121.2602
13.835752 108.354 -121.6604
13.936011 108.393 -122.0590
14.036998 108.431 -122.4557
14.138716 108.470 -122.8504
14.241171 108.507 -123.2425
14.344368 108.545 -123.6319
14.448313 108.582 -124.0182
14.553011 108.619 -124.4011
14.658468 108.655 -124.7803
14.764689 108.691 -125.1556
14.871680 108.727 -125.5271
14.979446 108.762 -125.8946
15.087994 108.797 -126.2585
15.197328 108.832 -126.6188
15.307454 108.867 -126.9759
15.418378 108.901 -127.3302
15.530106 108.935 -127.6820
15.642643 108.969 -128.0318
15.755996 109.002 -128.3799
15.870171 109.036 -128.7267
15.985172 109.068 -129.0724
16.101007 109.100 -129.4173
16.217682 109.132 -129.7614
16.335201 109.163 -130.1050
16.453573 109.193 -130.4479
16.572803 109.222 -130.7902
16.692898 109.251 -131.1319
16.813862 109.279 -131.4728
16.935701 109.307 -131.8132
17.058424 109.334 -132.1530
17.182035 109.360 -132.4923
17.306543 109.386 -132.8315
17.431953 109.411 -133.1708
17.558273 109.436 -133.5106
17.685509 109.460 -133.8514
17.813665 109.484 -134.1938
17.942751 109.508 -134.5383
18.072771 109.531 -134.8855
18.203733 109.553 -135.2359
18.335646 109.575 -135.5898
18.468513 109.597 -135.9475
18.602345 109.618 -136.3091
18.737144 109.638 -136.6742
18.872921 109.657 -137.0425
19.009682 109.676 -137.4132
19.147434 109.693 -137.7852
19.286184 109.709 -138.1576
19.425940 109.724 -138.5289
19.566708 109.739 -138.8980
19.708496 109.753 -139.2637
19.851313 109.766 -139.6251
19.995163 109.780 -139.9816
20.140057 109.793 -140.3330
20.285999 109.806 -140.6796
20.433001 109.821 -141.0220
20.581066 109.836 -141.3612
20.730206 109.851 -141.6983
20.880424 109.868 -142.0345
21.031733 109.885 -142.3708
21.184137 109.903 -142.7081
21.337646 109.921 -143.0465
21.492268 109.940 -143.3860
21.648010 109.959 -143.7259
21.804880 109.977 -144.0653
21.962887 109.996 -144.4032
22.122040 110.014 -144.7385
22.282345 110.033 -145.0706
22.443811 110.052 -145.3993
22.606449 110.071 -145.7248
22.770266 110.091 -146.0481
22.935268 110.111 -146.3706
23.101467 110.132 -146.6938
23.268869 110.153 -147.0190
23.437485 110.174 -147.3475
23.607323 110.194 -147.6796
23.778391 110.214 -148.0150
23.950699 110.233 -148.3525
24.124256 110.250 -148.6904
24.299070 110.265 -149.0263
24.475151 110.279 -149.3581
24.652508 110.291 -149.6838
24.831150 110.303 -150.0019
25.011087 110.313 -150.3121
25.192327 110.324 -150.6145
25.374882 110.334 -150.9105
25.558758 110.344 -151.2015
25.743967 110.354 -151.4897
25.930519 110.365 -151.7769
26.118422 110.376 -152.0646
26.307686 110.386 -152.3540
26.498322 110.396 -152.6459
26.690340 110.406 -152.9405
26.883749 110.416 -153.2377
27.078560 110.425 -153.5374
27.274782 110.433 -153.8389
27.472427 110.441 -154.1417
27.671503 110.448 -154.4447
27.872023 110.455 -154.7468
28.073996 110.460 -155.0463
28.277431 110.466 -155.3418
28.482342 110.471 -155.6317
28.688736 110.477 -155.9155
28.896626 110.484 -156.1933
29.106022 110.492 -156.4669
29.316936 110.501 -156.7390
29.529379 110.513 -157.0136
29.743361 110.526 -157.2948
29.958893 110.541 -157.5862
30.175987 110.556 -157.8902
30.394655 110.571 -158.2071
30.614908 110.584 -158.5352
30.836756 110.596 -158.8708
31.060211 110.606 -159.2091
31.285286 110.614 -159.5451
31.511992 110.620 -159.8745
31.740341 110.625 -160.1943
31.970345 110.629 -160.5036
32.202015 110.633 -160.8029
32.435364 110.637 -161.0939
32.670403 110.641 -161.3784
32.907146 110.645 -161.6580
33.145607 110.649 -161.9335
33.385796 110.652 -162.2051
33.627724 110.656 -162.4724
33.871403 110.660 -162.7356
34.116848 110.663 -162.9952
34.364071 110.668 -163.2531
34.613087 110.672 -163.5115
34.863907 110.678 -163.7733
35.116547 110.684 -164.0405
35.371017 110.689 -164.3147
35.627331 110.694 -164.5959
35.885502 110.699 -164.8832
36.145542 110.702 -165.1746
36.407467 110.705 -165.4683
36.671291 110.706 -165.7625
36.937027 110.708 -166.0560
37.204689 110.708 -166.3481
37.474289 110.709 -166.6387
37.745842 110.709 -166.9279
38.019363 110.709 -167.2160
38.294868 110.709 -167.5029
38.572369 110.709 -167.7881
38.851879 110.709 -168.0712
39.133415 110.709 -168.3508
39.416992 110.708 -168.6257
39.702625 110.707 -168.8946
39.990326 110.707 -169.1570
40.280113 110.707 -169.4137
40.571999 110.708 -169.6666
40.866001 110.709 -169.9188
41.162132 110.711 -170.1732
41.460411 110.713 -170.4316
41.760849 110.715 -170.6938
42.063465 110.715 -170.9573
42.368275 110.714 -171.2181
42.675293 110.712 -171.4728
42.984535 110.709 -171.7200
43.296021 110.707 -171.9611
43.609760 110.705 -172.1998
43.925774 110.703 -172.4408
44.244080 110.702 -172.6870
44.564690 110.699 -172.9389
44.887623 110.696 -173.1938
45.212898 110.691 -173.4477
45.540531 110.686 -173.6970
45.870537 110.680 -173.9408
46.202934 110.675 -174.1810
46.537739 110.670 -174.4215
46.874969 110.667 -174.6663
47.214645 110.663 -174.9179
47.556782 110.660 -175.1763
47.901398 110.655 -175.4393
48.248512 110.649 -175.7039
48.598141 110.643 -175.9670
48.950302 110.636 -176.2267
49.305016 110.629 -176.4824
49.662300 110.622 -176.7339
50.022175 110.614 -176.9814
50.384655 110.606 -177.2244
50.749763 110.599 -177.4617
51.117516 110.591 -177.6919
51.487934 110.583 -177.9145
51.861038 110.577 -178.1303
52.236843 110.571 -178.3424
52.615372 110.567 -178.5548
52.996643 110.564 -178.7711
53.380680 110.560 -178.9930
53.767498 110.557 -179.2201
54.157120 110.553 -179.4508
54.549564 110.548 -179.6836
54.944855 110.542 -179.9182
55.343006 110.535 179.8458
55.744045 110.528 179.6090
56.147991 110.520 179.3733
56.554863 110.511 179.1396
56.964684 110.501 178.9067
57.377472 110.492 178.6725
57.793251 110.483 178.4355
58.212044 110.472 178.1981
58.633873 110.461 177.9652
59.058758 110.450 177.7407
59.486721 110.440 177.5228
59.917786 110.433 177.3044
60.351974 110.428 177.0770
60.789310 110.423 176.8364
61.229816 110.419 176.5847
61.673512 110.414 176.3265
62.120422 110.408 176.0645
62.570572 110.402 175.7990
63.023983 110.395 175.5305
63.480682 110.388 175.2622
63.940689 110.379 174.9992
64.404030 110.370 174.7439
64.870728 110.361 174.4933
65.340805 110.353 174.2421
65.814293 110.344 173.9871
66.291214 110.334 173.7320
66.771591 110.321 173.4846
67.255447 110.307 173.2520
67.742805 110.293 173.0371
68.233696 110.280 172.8381
68.728142 110.267 172.6512
69.226173 110.256 172.4727
69.727814 110.246 172.2993
70.233093 110.236 172.1282
70.742035 110.227 171.9574
71.254662 110.218 171.7867
71.771004 110.209 171.6167
72.291084 110.201 171.4454
72.814934 110.192 171.2660
73.342583 110.184 171.0697
73.874054 110.175 170.8517
74.409378 110.163 170.6158
74.948578 110.147 170.3724
75.491684 110.129 170.1310
76.038727 110.110 169.8942
76.589737 110.092 169.6581
77.144737 110.075 169.4172
77.703758 110.058 169.1679
78.266830 110.042 168.9102
78.833984 110.027 168.6465
79.405251 110.011 168.3812
