* Measurement data measured by REW V5.31
* Source: EXCL: Microphone (USB Sound Device        ), MICROPHONE (Master Volume), L, volume: 0.390
* Format: 256k Log Swept Sine, 1 sweep at -15.0 dBFS with no timing reference
* Dated: Oct 14, 2024 1:24:24 PM
* REW Settings:
*  C-weighting compensation: Off
*  Target level: 75.0 dB
* Note: NF Acoud NM20 L
* Measurement: L NF Acoud NM20
* Smoothing: 1/12 octave
* Frequency Step: 96 ppo
* Start Frequency: 0.36621094 Hz
*
* Freq(Hz)	SPL(dB)	Phase(degrees)
0.366211	83.886	159.2022
0.368865	83.881	159.1799
0.371538	83.872	159.1464
0.374230	83.861	159.1044
0.376942	83.849	159.0561
0.379673	83.836	159.0029
0.382424	83.823	158.9461
0.385196	83.809	158.8861
0.387987	83.795	158.8234
0.390798	83.780	158.7583
0.393630	83.766	158.6906
0.396483	83.751	158.6206
0.399356	83.737	158.5482
0.402250	83.722	158.4734
0.405165	83.707	158.3962
0.408101	83.692	158.3166
0.411058	83.677	158.2345
0.414037	83.661	158.1500
0.417037	83.646	158.0629
0.420059	83.631	157.9733
0.423103	83.615	157.8812
0.426169	83.599	157.7865
0.429257	83.583	157.6892
0.432368	83.568	157.5893
0.435501	83.551	157.4868
0.438656	83.535	157.3816
0.441835	83.519	157.2737
0.445037	83.503	157.1631
0.448262	83.486	157.0498
0.451510	83.469	156.9337
0.454782	83.453	156.8148
0.458077	83.436	156.6932
0.461397	83.419	156.5688
0.464740	83.402	156.4415
0.468108	83.384	156.3114
0.471500	83.367	156.1785
0.474917	83.350	156.0426
0.478358	83.332	155.9039
0.481825	83.314	155.7623
0.485316	83.296	155.6178
0.488833	83.278	155.4703
0.492375	83.260	155.3199
0.495943	83.242	155.1665
0.499537	83.223	155.0102
0.503157	83.205	154.8509
0.506803	83.186	154.6886
0.510475	83.167	154.5234
0.514175	83.149	154.3552
0.517900	83.129	154.1840
0.521653	83.110	154.0098
0.525434	83.091	153.8326
0.529241	83.071	153.6525
0.533076	83.052	153.4693
0.536939	83.032	153.2833
0.540830	83.012	153.0942
0.544749	82.992	152.9023
0.548696	82.972	152.7074
0.552673	82.951	152.5096
0.556677	82.931	152.3089
0.560711	82.910	152.1053
0.564774	82.889	151.8989
0.568867	82.868	151.6897
0.572989	82.847	151.4778
0.577141	82.826	151.2630
0.581324	82.805	151.0456
0.585536	82.783	150.8256
0.589779	82.761	150.6029
0.594053	82.739	150.3776
0.598358	82.717	150.1499
0.602694	82.695	149.9197
0.607061	82.673	149.6871
0.611460	82.650	149.4523
0.615891	82.628	149.2151
0.620354	82.605	148.9759
0.624849	82.582	148.7345
0.629377	82.559	148.4912
0.633938	82.535	148.2459
0.638532	82.512	147.9989
0.643159	82.488	147.7503
0.647819	82.464	147.5000
0.652514	82.440	147.2483
0.657242	82.416	146.9953
0.662005	82.391	146.7412
0.666802	82.367	146.4860
0.671634	82.342	146.2299
0.676501	82.317	145.9731
0.681403	82.292	145.7158
0.686341	82.267	145.4581
0.691314	82.241	145.2002
0.696324	82.215	144.9423
0.701370	82.189	144.6845
0.706452	82.163	144.4269
0.711571	82.136	144.1697
0.716728	82.108	143.9127
0.721921	82.079	143.6558
0.727153	82.049	143.3984
0.732422	82.017	143.1399
0.737729	81.982	142.8793
0.743075	81.946	142.6157
0.748460	81.908	142.3480
0.753883	81.868	142.0757
0.759346	81.828	141.7983
0.764849	81.786	141.5155
0.770391	81.744	141.2269
0.775974	81.701	140.9325
0.781597	81.658	140.6321
0.787261	81.614	140.3256
0.792966	81.570	140.0130
0.798712	81.525	139.6942
0.804500	81.479	139.3690
0.810329	81.432	139.0375
0.816201	81.385	138.6995
0.822116	81.338	138.3551
0.828073	81.289	138.0041
0.834074	81.240	137.6465
0.840118	81.190	137.2823
0.846206	81.139	136.9115
0.852338	81.088	136.5339
0.858514	81.035	136.1496
0.864735	80.982	135.7585
0.871001	80.928	135.3607
0.877313	80.872	134.9561
0.883670	80.816	134.5447
0.890074	80.759	134.1266
0.896524	80.701	133.7018
0.903020	80.642	133.2704
0.909564	80.581	132.8323
0.916155	80.520	132.3876
0.922794	80.457	131.9365
0.929481	80.393	131.4790
0.936216	80.328	131.0152
0.943000	80.262	130.5453
0.949834	80.194	130.0694
0.956717	80.125	129.5878
0.963649	80.054	129.1005
0.970632	79.982	128.6079
0.977666	79.909	128.1101
0.984750	79.834	127.6075
0.991886	79.757	127.1004
0.999074	79.678	126.5890
1.006314	79.598	126.0738
1.013606	79.516	125.5553
1.020951	79.433	125.0337
1.028349	79.347	124.5096
1.035801	79.259	123.9836
1.043307	79.170	123.4562
1.050867	79.078	122.9279
1.058482	78.984	122.3993
1.066152	78.888	121.8710
1.073878	78.789	121.3435
1.081660	78.688	120.8170
1.089498	78.585	120.2917
1.097393	78.478	119.7672
1.105345	78.369	119.2429
1.113355	78.256	118.7180
1.121423	78.140	118.1914
1.129549	78.021	117.6622
1.137734	77.898	117.1296
1.145979	77.771	116.5929
1.154283	77.641	116.0514
1.162647	77.507	115.5044
1.171072	77.370	114.9512
1.179558	77.230	114.3912
1.188106	77.086	113.8235
1.196715	76.939	113.2476
1.205387	76.789	112.6626
1.214122	76.636	112.0676
1.222920	76.481	111.4619
1.231782	76.322	110.8444
1.240708	76.162	110.2142
1.249699	75.998	109.5703
1.258754	75.832	108.9116
1.267876	75.664	108.2368
1.277063	75.495	107.5448
1.286318	75.323	106.8343
1.295639	75.149	106.1039
1.305027	74.974	105.3521
1.314484	74.798	104.5775
1.324009	74.621	103.7783
1.333604	74.442	102.9531
1.343268	74.263	102.0999
1.353002	74.084	101.2170
1.362806	73.904	100.3026
1.372681	73.724	99.3547
1.382628	73.545	98.3713
1.392647	73.366	97.3506
1.402739	73.187	96.2906
1.412904	73.010	95.1894
1.423142	72.833	94.0452
1.433455	72.657	92.8561
1.443843	72.483	91.6204
1.454305	72.308	90.3361
1.464844	72.132	89.0008
1.475459	71.955	87.6118
1.486150	71.775	86.1654
1.496920	71.591	84.6570
1.507767	71.403	83.0814
1.518693	71.210	81.4326
1.529698	71.012	79.7040
1.540783	70.811	77.8885
1.551948	70.606	75.9787
1.563194	70.398	73.9663
1.574521	70.188	71.8430
1.585931	69.976	69.6003
1.597423	69.764	67.2294
1.608999	69.552	64.7218
1.620658	69.341	62.0697
1.632402	69.132	59.2662
1.644232	68.926	56.3060
1.656146	68.725	53.1861
1.668147	68.529	49.9064
1.680235	68.340	46.4709
1.692411	68.158	42.8881
1.704675	67.985	39.1714
1.717028	67.823	35.3400
1.729470	67.673	31.4183
1.742003	67.536	27.4354
1.754626	67.414	23.4237
1.767341	67.308	19.4175
1.780147	67.221	15.4504
1.793047	67.154	11.5533
1.806040	67.109	7.7519
1.819128	67.088	4.0652
1.832310	67.091	0.5044
1.845587	67.121	-2.9263
1.858961	67.179	-6.2275
1.872432	67.263	-9.4019
1.886001	67.374	-12.4528
1.899667	67.510	-15.3829
1.913433	67.670	-18.1949
1.927299	67.853	-20.8911
1.941265	68.056	-23.4735
1.955332	68.277	-25.9442
1.969501	68.515	-28.3055
1.983773	68.767	-30.5595
1.998148	69.030	-32.7084
2.012627	69.303	-34.7545
2.027212	69.583	-36.7000
2.041902	69.866	-38.5470
2.056698	70.152	-40.2978
2.071602	70.437	-41.9544
2.086614	70.718	-43.5188
2.101734	70.994	-44.9932
2.116964	71.260	-46.3798
2.132304	71.516	-47.6813
2.147756	71.760	-48.9008
2.163320	71.989	-50.0428
2.178996	72.203	-51.1127
2.194786	72.404	-52.1181
2.210690	72.592	-53.0672
2.226710	72.769	-53.9688
2.242845	72.937	-54.8301
2.259098	73.097	-55.6570
2.275468	73.250	-56.4532
2.291957	73.398	-57.2211
2.308566	73.540	-57.9623
2.325295	73.678	-58.6773
2.342145	73.811	-59.3663
2.359117	73.940	-60.0290
2.376212	74.065	-60.6649
2.393431	74.186	-61.2731
2.410775	74.305	-61.8527
2.428244	74.421	-62.4025
2.445840	74.535	-62.9212
2.463564	74.647	-63.4075
2.481416	74.757	-63.8600
2.499397	74.866	-64.2776
2.517509	74.974	-64.6592
2.535752	75.080	-65.0046
2.554127	75.185	-65.3138
2.572635	75.287	-65.5880
2.591277	75.387	-65.8288
2.610055	75.484	-66.0382
2.628968	75.577	-66.2183
2.648019	75.667	-66.3710
2.667208	75.753	-66.4982
2.686535	75.837	-66.6012
2.706003	75.918	-66.6816
2.725612	75.997	-66.7408
2.745363	76.074	-66.7798
2.765257	76.151	-66.8001
2.785295	76.227	-66.8026
2.805478	76.303	-66.7884
2.825808	76.381	-66.7585
2.846285	76.459	-66.7137
2.866910	76.540	-66.6543
2.887685	76.623	-66.5805
2.908611	76.708	-66.4918
2.929688	76.795	-66.3871
2.950917	76.885	-66.2652
2.972301	76.977	-66.1251
2.993839	77.070	-65.9668
3.015534	77.164	-65.7911
3.037386	77.260	-65.5997
3.059396	77.357	-65.3950
3.081565	77.455	-65.1796
3.103896	77.554	-64.9567
3.126388	77.655	-64.7292
3.149043	77.757	-64.5003
3.171862	77.861	-64.2729
3.194847	77.967	-64.0498
3.217998	78.074	-63.8331
3.241317	78.184	-63.6244
3.264805	78.296	-63.4244
3.288463	78.410	-63.2324
3.312293	78.527	-63.0473
3.336295	78.646	-62.8673
3.360471	78.768	-62.6915
3.384822	78.892	-62.5197
3.409350	79.018	-62.3532
3.434056	79.146	-62.1934
3.458940	79.276	-62.0427
3.484005	79.407	-61.9034
3.509252	79.538	-61.7782
3.534681	79.670	-61.6694
3.560295	79.802	-61.5793
3.586094	79.934	-61.5097
3.612081	80.065	-61.4622
3.638255	80.195	-61.4373
3.664620	80.324	-61.4351
3.691175	80.453	-61.4546
3.717923	80.582	-61.4946
3.744864	80.710	-61.5536
3.772001	80.838	-61.6302
3.799335	80.965	-61.7232
3.826866	81.092	-61.8315
3.854597	81.217	-61.9540
3.882529	81.341	-62.0901
3.910664	81.463	-62.2392
3.939002	81.584	-62.4007
3.967546	81.702	-62.5746
3.996296	81.818	-62.7610
4.025255	81.931	-62.9602
4.054423	82.042	-63.1726
4.083804	82.150	-63.3984
4.113396	82.256	-63.6371
4.143204	82.359	-63.8877
4.173227	82.460	-64.1486
4.203468	82.558	-64.4179
4.233928	82.654	-64.6939
4.264609	82.747	-64.9745
4.295512	82.839	-65.2581
4.326639	82.927	-65.5436
4.357992	83.013	-65.8304
4.389572	83.096	-66.1186
4.421380	83.177	-66.4086
4.453419	83.255	-66.7012
4.485691	83.330	-66.9964
4.518196	83.402	-67.2937
4.550936	83.471	-67.5920
4.583914	83.539	-67.8895
4.617131	83.604	-68.1844
4.650589	83.667	-68.4746
4.684289	83.728	-68.7586
4.718233	83.788	-69.0350
4.752424	83.846	-69.3032
4.786862	83.903	-69.5631
4.821549	83.958	-69.8152
4.856488	84.011	-70.0599
4.891680	84.063	-70.2976
4.927127	84.113	-70.5284
4.962831	84.162	-70.7521
4.998794	84.211	-70.9685
5.035017	84.259	-71.1771
5.071503	84.307	-71.3774
5.108253	84.355	-71.5689
5.145270	84.404	-71.7513
5.182555	84.452	-71.9246
5.220110	84.501	-72.0894
5.257937	84.550	-72.2467
5.296038	84.599	-72.3978
5.334415	84.649	-72.5441
5.373071	84.700	-72.6874
5.412006	84.752	-72.8287
5.451224	84.805	-72.9691
5.490725	84.859	-73.1090
5.530514	84.914	-73.2486
5.570590	84.971	-73.3881
5.610957	85.030	-73.5282
5.651616	85.089	-73.6702
5.692570	85.150	-73.8158
5.733821	85.212	-73.9668
5.775370	85.275	-74.1251
5.817221	85.339	-74.2919
5.859375	85.404	-74.4683
5.901834	85.470	-74.6546
5.944602	85.537	-74.8508
5.987679	85.605	-75.0571
6.031068	85.674	-75.2739
6.074771	85.743	-75.5016
6.118792	85.812	-75.7410
6.163131	85.881	-75.9927
6.207792	85.950	-76.2573
6.252776	86.019	-76.5350
6.298086	86.087	-76.8258
6.343725	86.156	-77.1291
6.389694	86.223	-77.4440
6.435996	86.290	-77.7695
6.482634	86.356	-78.1048
6.529610	86.421	-78.4490
6.576926	86.485	-78.8016
6.624585	86.548	-79.1623
6.672590	86.610	-79.5307
6.720942	86.671	-79.9060
6.769645	86.730	-80.2871
6.818700	86.788	-80.6726
6.868111	86.845	-81.0610
6.917881	86.902	-81.4511
6.968010	86.957	-81.8421
7.018504	87.011	-82.2335
7.069362	87.064	-82.6249
7.120590	87.116	-83.0157
7.172189	87.168	-83.4051
7.224161	87.219	-83.7922
7.276511	87.270	-84.1761
7.329239	87.321	-84.5562
7.382350	87.372	-84.9322
7.435845	87.422	-85.3040
7.489729	87.473	-85.6720
7.544002	87.524	-86.0362
7.598669	87.576	-86.3970
7.653732	87.628	-86.7544
7.709194	87.682	-87.1087
7.765058	87.736	-87.4600
7.821327	87.791	-87.8088
7.878004	87.847	-88.1559
7.935091	87.904	-88.5021
7.992592	87.962	-88.8483
8.050510	88.022	-89.1950
8.108847	88.082	-89.5429
8.167607	88.144	-89.8922
8.226793	88.206	-90.2436
8.286408	88.270	-90.5975
8.346454	88.334	-90.9545
8.406936	88.399	-91.3152
8.467856	88.465	-91.6797
8.529218	88.531	-92.0482
8.591024	88.598	-92.4205
8.653278	88.666	-92.7965
8.715983	88.733	-93.1759
8.779143	88.800	-93.5586
8.842760	88.868	-93.9443
8.906839	88.935	-94.3326
8.971381	89.003	-94.7228
9.036392	89.070	-95.1143
9.101873	89.136	-95.5063
9.167829	89.203	-95.8983
9.234263	89.269	-96.2896
9.301178	89.335	-96.6798
9.368578	89.400	-97.0683
9.436467	89.465	-97.4543
9.504847	89.530	-97.8374
9.573723	89.594	-98.2171
9.643099	89.658	-98.5931
9.712976	89.720	-98.9653
9.783361	89.781	-99.3334
9.854255	89.839	-99.6975
9.925663	89.896	-100.0573
9.997588	89.950	-100.4131
10.070035	90.003	-100.7649
10.143007	90.053	-101.1130
10.216507	90.102	-101.4578
10.290540	90.149	-101.7994
10.365109	90.196	-102.1381
10.440219	90.241	-102.4743
10.515873	90.286	-102.8082
10.592076	90.331	-103.1401
10.668830	90.375	-103.4702
10.746141	90.419	-103.7989
10.824012	90.462	-104.1261
10.902447	90.506	-104.4521
10.981451	90.549	-104.7768
11.061027	90.591	-105.1003
11.141180	90.633	-105.4227
11.221913	90.675	-105.7439
11.303232	90.716	-106.0638
11.385140	90.757	-106.3824
11.467641	90.797	-106.6997
11.550741	90.836	-107.0156
11.634442	90.876	-107.3301
11.718750	90.914	-107.6432
11.803669	90.953	-107.9550
11.889203	90.992	-108.2656
11.975357	91.030	-108.5751
12.062136	91.068	-108.8836
12.149543	91.106	-109.1914
12.237583	91.144	-109.4985
12.326262	91.181	-109.8053
12.415583	91.218	-110.1120
12.505552	91.254	-110.4186
12.596172	91.290	-110.7256
12.687449	91.325	-111.0330
12.779387	91.360	-111.3410
12.871992	91.393	-111.6497
12.965268	91.427	-111.9594
13.059220	91.459	-112.2701
13.153852	91.492	-112.5819
13.249170	91.524	-112.8949
13.345179	91.556	-113.2092
13.441884	91.587	-113.5250
13.539289	91.619	-113.8424
13.637401	91.650	-114.1615
13.736223	91.681	-114.4824
13.835761	91.711	-114.8055
13.936021	91.741	-115.1308
14.037007	91.771	-115.4586
14.138725	91.800	-115.7890
14.241180	91.829	-116.1223
14.344377	91.858	-116.4586
14.448323	91.886	-116.7979
14.553021	91.914	-117.1404
14.658478	91.941	-117.4861
14.764700	91.968	-117.8348
14.871691	91.995	-118.1866
14.979457	92.022	-118.5411
15.088005	92.049	-118.8983
15.197339	92.075	-119.2578
15.307465	92.101	-119.6195
15.418389	92.128	-119.9831
15.530117	92.154	-120.3484
15.642655	92.180	-120.7152
15.756008	92.206	-121.0833
15.870182	92.232	-121.4527
15.985184	92.258	-121.8234
16.101019	92.285	-122.1953
16.217694	92.311	-122.5685
16.335214	92.338	-122.9432
16.453586	92.365	-123.3193
16.572815	92.393	-123.6970
16.692909	92.421	-124.0763
16.813872	92.450	-124.4573
16.935713	92.479	-124.8398
17.058436	92.508	-125.2237
17.182048	92.538	-125.6089
17.306556	92.569	-125.9951
17.431967	92.599	-126.3820
17.558286	92.629	-126.7693
17.685521	92.659	-127.1565
17.813677	92.689	-127.5432
17.942762	92.719	-127.9291
18.072783	92.749	-128.3137
18.203746	92.778	-128.6966
18.335658	92.807	-129.0775
18.468526	92.836	-129.4561
18.602356	92.865	-129.8319
18.737156	92.894	-130.2048
18.872934	92.923	-130.5746
19.009695	92.951	-130.9410
19.147447	92.980	-131.3042
19.286197	93.008	-131.6639
19.425953	93.036	-132.0204
19.566721	93.064	-132.3739
19.708510	93.092	-132.7245
19.851326	93.119	-133.0727
19.995177	93.146	-133.4187
20.140070	93.172	-133.7630
20.286013	93.198	-134.1059
20.433014	93.223	-134.4476
20.581080	93.248	-134.7883
20.730219	93.271	-135.1279
20.880439	93.294	-135.4664
21.031747	93.317	-135.8031
21.184152	93.338	-136.1378
21.337661	93.359	-136.4696
21.492282	93.378	-136.7979
21.648024	93.398	-137.1219
21.804895	93.416	-137.4413
21.962902	93.435	-137.7556
22.122054	93.453	-138.0649
22.282360	93.471	-138.3696
22.443827	93.489	-138.6705
22.606464	93.508	-138.9688
22.770280	93.528	-139.2661
22.935283	93.548	-139.5643
23.101481	93.569	-139.8652
23.268884	93.591	-140.1706
23.437500	93.613	-140.4824
23.607338	93.636	-140.8016
23.778406	93.659	-141.1293
23.950714	93.682	-141.4657
24.124271	93.705	-141.8106
24.299086	93.727	-142.1635
24.475167	93.749	-142.5232
24.652524	93.770	-142.8887
24.831166	93.790	-143.2587
25.011103	93.810	-143.6321
25.192344	93.830	-144.0080
25.374898	93.849	-144.3856
25.558775	93.868	-144.7645
25.743984	93.886	-145.1445
25.930536	93.905	-145.5253
26.118439	93.923	-145.9066
26.307704	93.940	-146.2881
26.498341	93.958	-146.6692
26.690359	93.974	-147.0490
26.883768	93.990	-147.4267
27.078579	94.006	-147.8014
27.274801	94.021	-148.1723
27.472446	94.035	-148.5389
27.671522	94.050	-148.9013
27.872042	94.064	-149.2596
28.074014	94.078	-149.6143
28.277450	94.091	-149.9662
28.482360	94.105	-150.3158
28.688755	94.118	-150.6638
28.896645	94.130	-151.0104
29.106042	94.142	-151.3555
29.316957	94.154	-151.6991
29.529400	94.164	-152.0411
29.743382	94.175	-152.3816
29.958915	94.185	-152.7211
30.176009	94.195	-153.0602
30.394677	94.205	-153.3998
30.614929	94.215	-153.7408
30.836778	94.224	-154.0835
31.060234	94.232	-154.4281
31.285309	94.240	-154.7740
31.512015	94.246	-155.1201
31.740364	94.253	-155.4655
31.970368	94.258	-155.8090
32.202039	94.263	-156.1502
32.435388	94.269	-156.4896
32.670428	94.275	-156.8281
32.907171	94.281	-157.1675
33.145630	94.288	-157.5095
33.385817	94.295	-157.8555
33.627745	94.302	-158.2062
33.871425	94.309	-158.5611
34.116871	94.315	-158.9191
34.364096	94.321	-159.2781
34.613113	94.326	-159.6364
34.863934	94.331	-159.9923
35.116572	94.335	-160.3451
35.371041	94.340	-160.6948
35.627354	94.344	-161.0424
35.885525	94.349	-161.3887
36.145566	94.354	-161.7347
36.407492	94.358	-162.0805
36.671316	94.362	-162.4258
36.937051	94.364	-162.7695
37.204712	94.367	-163.1102
37.474313	94.368	-163.4467
37.745867	94.369	-163.7787
38.019389	94.370	-164.1064
38.294893	94.371	-164.4309
38.572394	94.371	-164.7538
38.851905	94.372	-165.0765
39.133442	94.371	-165.3996
39.417019	94.370	-165.7226
39.702651	94.368	-166.0438
39.990353	94.365	-166.3610
40.280140	94.362	-166.6721
40.572026	94.358	-166.9762
40.866028	94.355	-167.2742
41.162160	94.352	-167.5688
41.460438	94.351	-167.8639
41.760877	94.350	-168.1635
42.063494	94.350	-168.4696
42.368303	94.349	-168.7820
42.675322	94.347	-169.0979
42.984565	94.343	-169.4128
43.296048	94.339	-169.7231
43.609789	94.335	-170.0269
43.925804	94.332	-170.3253
44.244108	94.329	-170.6220
44.564719	94.328	-170.9216
44.887654	94.327	-171.2279
45.212928	94.326	-171.5422
45.540560	94.324	-171.8630
45.870565	94.321	-172.1868
46.202962	94.317	-172.5095
46.537768	94.312	-172.8277
46.875000	94.306	-173.1394
47.214676	94.301	-173.4447
47.556813	94.295	-173.7450
47.901429	94.291	-174.0431
48.248542	94.288	-174.3427
48.598171	94.285	-174.6474
48.950334	94.282	-174.9598
49.305048	94.279	-175.2804
49.662333	94.274	-175.6072
50.022206	94.267	-175.9356
50.384688	94.258	-176.2604
50.749796	94.248	-176.5770
51.117550	94.237	-176.8832
51.487969	94.225	-177.1794
51.861072	94.214	-177.4680
52.236879	94.204	-177.7525
52.615409	94.195	-178.0361
52.996681	94.186	-178.3215
53.380717	94.177	-178.6102
53.767536	94.168	-178.9029
54.157158	94.159	-179.1987
54.549603	94.149	-179.4958
54.944892	94.139	-179.7916
55.343045	94.129	179.9158
55.744084	94.119	179.6270
56.148028	94.109	179.3406
56.554900	94.100	179.0543
56.964720	94.091	178.7655
57.377510	94.083	178.4727
57.793291	94.075	178.1761
58.212085	94.066	177.8768
58.633914	94.056	177.5764
59.058799	94.046	177.2758
59.486764	94.036	176.9753
59.917829	94.024	176.6745
60.352019	94.012	176.3735
60.789354	93.999	176.0726
61.229859	93.985	175.7725
61.673556	93.970	175.4741
62.120468	93.955	175.1775
62.570618	93.938	174.8828
63.024031	93.922	174.5898
63.480729	93.904	174.2988
63.940736	93.887	174.0099
64.404077	93.869	173.7239
64.870776	93.851	173.4412
65.340856	93.832	173.1622
65.814343	93.814	172.8868
66.291261	93.797	172.6140
66.771635	93.779	172.3424
67.255489	93.762	172.0708
67.742850	93.744	171.7988
68.233743	93.726	171.5269
68.728193	93.708	171.2560
69.226226	93.689	170.9871
69.727867	93.669	170.7212
70.233144	93.649	170.4588
70.742083	93.628	170.2006
71.254709	93.608	169.9464
71.771050	93.588	169.6952
72.291132	93.568	169.4449
72.814984	93.549	169.1935
73.342631	93.530	168.9396
73.874102	93.512	168.6834
74.409424	93.493	168.4263
74.948626	93.474	168.1696
75.491734	93.455	167.9142
76.038779	93.436	167.6604
76.589787	93.416	167.4085
77.144788	93.397	167.1584
77.703811	93.376	166.9097
78.266885	93.356	166.6619
78.834039	93.334	166.4149
79.405303	93.312	166.1694
79.980706	93.289	165.9261
80.560280	93.266	165.6844
81.144053	93.244	165.4413
81.732056	93.223	165.1898
82.324320	93.203	164.9225
82.920876	93.181	164.6362
83.521755	93.158	164.3353
84.126988	93.133	164.0294
84.736607	93.106	163.7269
85.350643	93.079	163.4319
85.969129	93.051	163.1458
86.592097	93.023	162.8702
87.219579	92.996	162.6070
87.851608	92.969	162.3574
