* Measurement data measured by REW V5.31
* Source: EXCL: Microphone (USB Sound Device        ), MICROPHONE (Master Volume), L, volume: 0.250
* Format: 256k Log Swept Sine, 1 sweep at -10.0 dBFS with no timing reference
* Dated: Jul 1, 2024 11:46:36 PM
* REW Settings:
*  C-weighting compensation: Off
*  Target level: 75.0 dB
* Note: NF Audio RG15
* Measurement: L NF Audio RG15
* Smoothing: 1/12 octave
* Frequency Step: 96 ppo
* Start Frequency: 0.36621094 Hz
*
* Freq(Hz) SPL(dB) Phase(degrees)
0.366211 80.387 175.4809
0.368865 80.385 175.4720
0.371538 80.380 175.4587
0.374230 80.375 175.4421
0.376942 80.369 175.4231
0.379673 80.363 175.4023
0.382424 80.356 175.3801
0.385196 80.350 175.3568
0.387987 80.343 175.3327
0.390798 80.336 175.3077
0.393630 80.329 175.2819
0.396483 80.322 175.2553
0.399356 80.315 175.2280
0.402250 80.307 175.1999
0.405165 80.300 175.1710
0.408101 80.293 175.1413
0.411058 80.285 175.1108
0.414037 80.278 175.0795
0.417037 80.271 175.0475
0.420059 80.263 175.0146
0.423103 80.255 174.9809
0.426169 80.248 174.9463
0.429257 80.240 174.9109
0.432368 80.232 174.8747
0.435501 80.225 174.8376
0.438656 80.217 174.7997
0.441835 80.209 174.7609
0.445037 80.201 174.7212
0.448262 80.193 174.6806
0.451510 80.185 174.6392
0.454782 80.177 174.5968
0.458077 80.168 174.5536
0.461397 80.160 174.5095
0.464740 80.152 174.4644
0.468108 80.143 174.4184
0.471500 80.135 174.3715
0.474917 80.127 174.3237
0.478358 80.118 174.2749
0.481825 80.109 174.2252
0.485316 80.101 174.1745
0.488833 80.092 174.1229
0.492375 80.083 174.0703
0.495943 80.074 174.0168
0.499537 80.065 173.9622
0.503157 80.056 173.9068
0.506803 80.047 173.8503
0.510475 80.038 173.7928
0.514175 80.029 173.7344
0.517900 80.020 173.6750
0.521653 80.010 173.6145
0.525434 80.001 173.5531
0.529241 79.991 173.4907
0.533076 79.982 173.4273
0.536939 79.972 173.3628
0.540830 79.962 173.2974
0.544749 79.953 173.2309
0.548696 79.943 173.1635
0.552673 79.933 173.0950
0.556677 79.923 173.0255
0.560711 79.913 172.9550
0.564774 79.903 172.8834
0.568867 79.893 172.8109
0.572989 79.882 172.7373
0.577141 79.872 172.6628
0.581324 79.862 172.5872
0.585536 79.851 172.5106
0.589779 79.841 172.4330
0.594053 79.830 172.3543
0.598358 79.819 172.2747
0.602694 79.809 172.1941
0.607061 79.798 172.1125
0.611460 79.787 172.0299
0.615891 79.776 171.9463
0.620354 79.765 171.8617
0.624849 79.753 171.7762
0.629377 79.742 171.6897
0.633938 79.731 171.6022
0.638532 79.719 171.5137
0.643159 79.708 171.4244
0.647819 79.696 171.3341
0.652514 79.685 171.2428
0.657242 79.673 171.1507
0.662005 79.661 171.0576
0.666802 79.649 170.9637
0.671634 79.637 170.8689
0.676501 79.625 170.7732
0.681403 79.613 170.6767
0.686341 79.600 170.5793
0.691314 79.588 170.4812
0.696324 79.575 170.3822
0.701370 79.563 170.2823
0.706452 79.550 170.1817
0.711571 79.536 170.0802
0.716728 79.522 169.9778
0.721921 79.507 169.8742
0.727153 79.491 169.7694
0.732422 79.473 169.6629
0.737729 79.454 169.5545
0.743075 79.433 169.4437
0.748460 79.411 169.3302
0.753883 79.387 169.2139
0.759346 79.364 169.0944
0.764849 79.340 168.9717
0.770391 79.315 168.8457
0.775974 79.290 168.7165
0.781597 79.266 168.5838
0.787261 79.241 168.4479
0.792966 79.215 168.3085
0.798712 79.190 168.1658
0.804500 79.164 168.0196
0.810329 79.138 167.8701
0.816201 79.111 167.7172
0.822116 79.084 167.5609
0.828073 79.057 167.4011
0.834074 79.029 167.2380
0.840118 79.001 167.0715
0.846206 78.972 166.9017
0.852338 78.943 166.7285
0.858514 78.913 166.5519
0.864735 78.882 166.3720
0.871001 78.850 166.1888
0.877313 78.818 166.0023
0.883670 78.785 165.8126
0.890074 78.751 165.6196
0.896524 78.716 165.4234
0.903020 78.680 165.2241
0.909564 78.643 165.0216
0.916155 78.604 164.8161
0.922794 78.565 164.6075
0.929481 78.524 164.3960
0.936216 78.482 164.1815
0.943000 78.438 163.9643
0.949834 78.393 163.7442
0.956717 78.346 163.5214
0.963649 78.298 163.2961
0.970632 78.248 163.0681
0.977666 78.196 162.8378
0.984750 78.142 162.6051
0.991886 78.086 162.3702
0.999074 78.028 162.1332
1.006314 77.968 161.8942
1.013606 77.905 161.6534
1.020951 77.840 161.4109
1.028349 77.773 161.1668
1.035801 77.702 160.9213
1.043307 77.629 160.6746
1.050867 77.554 160.4268
1.058482 77.475 160.1780
1.066152 77.392 159.9283
1.073878 77.307 159.6775
1.081660 77.218 159.4255
1.089498 77.125 159.1717
1.097393 77.027 158.9153
1.105345 76.926 158.6552
1.113355 76.819 158.3901
1.121423 76.707 158.1190
1.129549 76.590 157.8410
1.137734 76.467 157.5553
1.145979 76.339 157.2615
1.154283 76.206 156.9590
1.162647 76.068 156.6475
1.171072 75.924 156.3267
1.179558 75.776 155.9964
1.188106 75.623 155.6562
1.196715 75.465 155.3059
1.205387 75.304 154.9451
1.214122 75.138 154.5735
1.222920 74.968 154.1908
1.231782 74.795 153.7967
1.240708 74.618 153.3907
1.249699 74.439 152.9725
1.258754 74.256 152.5417
1.267876 74.071 152.0979
1.277063 73.884 151.6405
1.286318 73.695 151.1691
1.295639 73.504 150.6831
1.305027 73.313 150.1821
1.314484 73.120 149.6653
1.324009 72.927 149.1322
1.333604 72.734 148.5821
1.343268 72.542 148.0141
1.353002 72.350 147.4275
1.362806 72.159 146.8213
1.372681 71.971 146.1946
1.382628 71.785 145.5462
1.392647 71.601 144.8748
1.402739 71.421 144.1790
1.412904 71.245 143.4567
1.423142 71.072 142.7057
1.433455 70.904 141.9227
1.443843 70.739 141.1034
1.454305 70.579 140.2418
1.464844 70.420 139.3297
1.475459 70.262 138.3564
1.486150 70.104 137.3090
1.496920 69.944 136.1730
1.507767 69.781 134.9315
1.518693 69.615 133.5654
1.529698 69.447 132.0519
1.540783 69.276 130.3635
1.551948 69.104 128.4665
1.563194 68.930 126.3187
1.574521 68.757 123.8671
1.585931 68.584 121.0444
1.597423 68.413 117.7652
1.608999 68.245 113.9215
1.620658 68.081 109.3797
1.632402 67.922 103.9805
1.644232 67.769 97.5502
1.656146 67.624 89.9345
1.668147 67.488 81.0673
1.680235 67.363 71.0734
1.692411 67.249 60.3492
1.704675 67.149 49.5216
1.717028 67.064 39.2499
1.729470 66.996 30.0031
1.742003 66.947 21.9731
1.754626 66.918 15.1339
1.767341 66.913 9.3458
1.780147 66.932 4.4357
1.793047 66.980 0.2384
1.806040 67.057 -3.3867
1.819128 67.167 -6.5535
1.832310 67.312 -9.3513
1.845587 67.495 -11.8492
1.858961 67.717 -14.0999
1.872432 67.977 -16.1437
1.886001 68.276 -18.0122
1.899667 68.610 -19.7302
1.913433 68.977 -21.3182
1.927299 69.376 -22.7930
1.941265 69.802 -24.1688
1.955332 70.252 -25.4576
1.969501 70.722 -26.6697
1.983773 71.210 -27.8139
1.998148 71.712 -28.8979
2.012627 72.222 -29.9285
2.027212 72.739 -30.9116
2.041902 73.258 -31.8523
2.056698 73.775 -32.7552
2.071602 74.286 -33.6246
2.086614 74.787 -34.4642
2.101734 75.275 -35.2773
2.116964 75.745 -36.0673
2.132304 76.195 -36.8372
2.147756 76.622 -37.5901
2.163320 77.025 -38.3289
2.178996 77.402 -39.0568
2.194786 77.754 -39.7768
2.210690 78.084 -40.4918
2.226710 78.392 -41.2040
2.242845 78.683 -41.9145
2.259098 78.958 -42.6239
2.275468 79.218 -43.3317
2.291957 79.465 -44.0373
2.308566 79.700 -44.7397
2.325295 79.923 -45.4381
2.342145 80.136 -46.1313
2.359117 80.340 -46.8187
2.376212 80.536 -47.4993
2.393431 80.725 -48.1725
2.410775 80.907 -48.8377
2.428244 81.085 -49.4944
2.445840 81.258 -50.1423
2.463564 81.428 -50.7813
2.481416 81.597 -51.4114
2.499397 81.764 -52.0331
2.517509 81.931 -52.6471
2.535752 82.098 -53.2550
2.554127 82.264 -53.8588
2.572635 82.428 -54.4609
2.591277 82.591 -55.0639
2.610055 82.749 -55.6695
2.628968 82.904 -56.2787
2.648019 83.055 -56.8914
2.667208 83.200 -57.5070
2.686535 83.341 -58.1243
2.706003 83.478 -58.7419
2.725612 83.611 -59.3584
2.745363 83.739 -59.9721
2.765257 83.864 -60.5815
2.785295 83.986 -61.1851
2.805478 84.105 -61.7814
2.825808 84.221 -62.3693
2.846285 84.336 -62.9479
2.866910 84.448 -63.5165
2.887685 84.558 -64.0753
2.908611 84.667 -64.6252
2.929688 84.773 -65.1677
2.950917 84.877 -65.7050
2.972301 84.978 -66.2394
2.993839 85.076 -66.7723
3.015534 85.170 -67.3045
3.037386 85.262 -67.8358
3.059396 85.350 -68.3655
3.081565 85.435 -68.8926
3.103896 85.517 -69.4156
3.126388 85.597 -69.9332
3.149043 85.674 -70.4435
3.171862 85.750 -70.9452
3.194847 85.823 -71.4365
3.217998 85.895 -71.9163
3.241317 85.966 -72.3835
3.264805 86.035 -72.8378
3.288463 86.103 -73.2794
3.312293 86.169 -73.7092
3.336295 86.232 -74.1286
3.360471 86.294 -74.5388
3.384822 86.354 -74.9406
3.409350 86.411 -75.3347
3.434056 86.467 -75.7209
3.458940 86.520 -76.0993
3.484005 86.572 -76.4692
3.509252 86.623 -76.8302
3.534681 86.673 -77.1814
3.560295 86.723 -77.5223
3.586094 86.772 -77.8518
3.612081 86.820 -78.1694
3.638255 86.869 -78.4743
3.664620 86.917 -78.7663
3.691175 86.965 -79.0451
3.717923 87.013 -79.3110
3.744864 87.060 -79.5646
3.772001 87.107 -79.8068
3.799335 87.153 -80.0385
3.826866 87.198 -80.2608
3.854597 87.244 -80.4747
3.882529 87.290 -80.6814
3.910664 87.337 -80.8817
3.939002 87.384 -81.0763
3.967546 87.432 -81.2657
3.996296 87.482 -81.4500
4.025255 87.532 -81.6286
4.054423 87.584 -81.8012
4.083804 87.637 -81.9674
4.113396 87.691 -82.1272
4.143204 87.746 -82.2814
4.173227 87.802 -82.4316
4.203468 87.859 -82.5794
4.233928 87.917 -82.7269
4.264609 87.976 -82.8762
4.295512 88.036 -83.0291
4.326639 88.097 -83.1873
4.357992 88.159 -83.3518
4.389572 88.222 -83.5229
4.421380 88.286 -83.7005
4.453419 88.352 -83.8842
4.485691 88.419 -84.0736
4.518196 88.486 -84.2690
4.550936 88.555 -84.4710
4.583914 88.624 -84.6806
4.617131 88.694 -84.8989
4.650589 88.764 -85.1272
4.684289 88.834 -85.3667
4.718233 88.904 -85.6182
4.752424 88.973 -85.8825
4.786862 89.043 -86.1599
4.821549 89.112 -86.4500
4.856488 89.181 -86.7525
4.891680 89.249 -87.0667
4.927127 89.317 -87.3919
4.962831 89.385 -87.7274
4.998794 89.452 -88.0728
5.035017 89.517 -88.4276
5.071503 89.581 -88.7918
5.108253 89.644 -89.1656
5.145270 89.705 -89.5492
5.182555 89.765 -89.9428
5.220110 89.823 -90.3461
5.257937 89.880 -90.7584
5.296038 89.935 -91.1782
5.334415 89.989 -91.6041
5.373071 90.041 -92.0343
5.412006 90.091 -92.4674
5.451224 90.140 -92.9026
5.490725 90.187 -93.3393
5.530514 90.232 -93.7777
5.570590 90.275 -94.2177
5.610957 90.316 -94.6592
5.651616 90.356 -95.1013
5.692570 90.395 -95.5430
5.733821 90.432 -95.9828
5.775370 90.467 -96.4191
5.817221 90.502 -96.8510
5.859375 90.536 -97.2775
5.901834 90.569 -97.6986
5.944602 90.600 -98.1143
5.987679 90.631 -98.5249
6.031068 90.661 -98.9303
6.074771 90.691 -99.3305
6.118792 90.721 -99.7253
6.163131 90.751 -100.1144
6.207792 90.781 -100.4975
6.252776 90.811 -100.8743
6.298086 90.842 -101.2451
6.343725 90.873 -101.6104
6.389694 90.905 -101.9709
6.435996 90.937 -102.3280
6.482634 90.971 -102.6825
6.529610 91.005 -103.0356
6.576926 91.040 -103.3877
6.624585 91.077 -103.7395
6.672590 91.115 -104.0913
6.720942 91.154 -104.4436
6.769645 91.194 -104.7976
6.818700 91.236 -105.1543
6.868111 91.278 -105.5152
6.917881 91.321 -105.8812
6.968010 91.365 -106.2533
7.018504 91.410 -106.6318
7.069362 91.456 -107.0168
7.120590 91.503 -107.4084
7.172189 91.550 -107.8069
7.224161 91.597 -108.2124
7.276511 91.644 -108.6252
7.329239 91.691 -109.0456
7.382350 91.738 -109.4734
7.435845 91.785 -109.9083
7.489729 91.831 -110.3496
7.544002 91.877 -110.7964
7.598669 91.922 -111.2477
7.653732 91.967 -111.7026
7.709194 92.011 -112.1606
7.765058 92.054 -112.6211
7.821327 92.096 -113.0834
7.878004 92.137 -113.5463
7.935091 92.177 -114.0086
7.992592 92.216 -114.4691
8.050510 92.255 -114.9267
8.108847 92.293 -115.3807
8.167607 92.331 -115.8306
8.226793 92.367 -116.2758
8.286408 92.404 -116.7159
8.346454 92.440 -117.1501
8.406936 92.476 -117.5780
8.467856 92.512 -117.9993
8.529218 92.548 -118.4138
8.591024 92.584 -118.8220
8.653278 92.620 -119.2241
8.715983 92.657 -119.6205
8.779143 92.694 -120.0117
8.842760 92.732 -120.3979
8.906839 92.771 -120.7798
8.971381 92.810 -121.1580
9.036392 92.850 -121.5332
9.101873 92.890 -121.9064
9.167829 92.931 -122.2782
9.234263 92.972 -122.6492
9.301178 93.014 -123.0198
9.368578 93.056 -123.3903
9.436467 93.098 -123.7612
9.504847 93.140 -124.1328
9.573723 93.182 -124.5052
9.643099 93.223 -124.8784
9.712976 93.262 -125.2521
9.783361 93.300 -125.6261
9.854255 93.335 -125.9998
9.925663 93.368 -126.3729
9.997588 93.397 -126.7450
10.070035 93.424 -127.1154
10.143007 93.447 -127.4835
10.216507 93.469 -127.8487
10.290540 93.488 -128.2103
10.365109 93.505 -128.5678
10.440219 93.520 -128.9211
10.515873 93.534 -129.2697
10.592076 93.548 -129.6133
10.668830 93.560 -129.9520
10.746141 93.572 -130.2856
10.824012 93.583 -130.6144
10.902447 93.594 -130.9387
10.981451 93.605 -131.2590
11.061027 93.615 -131.5756
11.141180 93.626 -131.8890
11.221913 93.636 -132.1998
11.303232 93.645 -132.5086
11.385140 93.655 -132.8160
11.467641 93.664 -133.1224
11.550741 93.673 -133.4282
11.634442 93.681 -133.7337
11.718750 93.690 -134.0394
11.803669 93.698 -134.3452
11.889203 93.706 -134.6513
11.975357 93.714 -134.9576
12.062136 93.721 -135.2640
12.149543 93.728 -135.5703
12.237583 93.734 -135.8763
12.326262 93.740 -136.1820
12.415583 93.745 -136.4870
12.505552 93.750 -136.7913
12.596172 93.754 -137.0948
12.687449 93.757 -137.3976
12.779387 93.759 -137.6996
12.871992 93.762 -138.0012
12.965268 93.763 -138.3026
13.059220 93.765 -138.6041
13.153852 93.766 -138.9062
13.249170 93.768 -139.2093
13.345179 93.769 -139.5137
13.441884 93.771 -139.8199
13.539289 93.772 -140.1283
13.637401 93.774 -140.4390
13.736223 93.775 -140.7523
13.835761 93.776 -141.0682
13.936021 93.777 -141.3867
14.037007 93.777 -141.7077
14.138725 93.777 -142.0310
14.241180 93.776 -142.3563
14.344377 93.776 -142.6835
14.448323 93.774 -143.0121
14.553021 93.773 -143.3421
14.658478 93.771 -143.6732
14.764700 93.769 -144.0053
14.871691 93.767 -144.3384
14.979457 93.766 -144.6725
15.088005 93.764 -145.0076
15.197339 93.763 -145.3440
15.307465 93.763 -145.6818
15.418389 93.762 -146.0210
15.530117 93.762 -146.3619
15.642655 93.762 -146.7043
15.756008 93.762 -147.0483
15.870182 93.762 -147.3936
15.985184 93.762 -147.7401
16.101019 93.763 -148.0872
16.217694 93.763 -148.4347
16.335214 93.764 -148.7821
16.453586 93.764 -149.1289
16.572815 93.765 -149.4746
16.692909 93.767 -149.8189
16.813872 93.768 -150.1616
16.935713 93.771 -150.5023
17.058436 93.774 -150.8410
17.182048 93.777 -151.1777
17.306556 93.781 -151.5122
17.431967 93.785 -151.8446
17.558286 93.790 -152.1748
17.685521 93.794 -152.5029
17.813677 93.799 -152.8287
17.942762 93.804 -153.1519
18.072783 93.808 -153.4724
18.203746 93.813 -153.7899
18.335658 93.817 -154.1039
18.468526 93.821 -154.4142
18.602356 93.825 -154.7206
18.737156 93.830 -155.0229
18.872934 93.834 -155.3212
19.009695 93.838 -155.6154
19.147447 93.843 -155.9058
19.286197 93.847 -156.1927
19.425953 93.852 -156.4764
19.566721 93.856 -156.7574
19.708510 93.860 -157.0360
19.851326 93.864 -157.3125
19.995177 93.867 -157.5871
20.140070 93.870 -157.8601
20.286013 93.872 -158.1314
20.433014 93.874 -158.4012
20.581080 93.875 -158.6696
20.730219 93.876 -158.9367
20.880439 93.876 -159.2026
21.031747 93.876 -159.4678
21.184152 93.876 -159.7325
21.337661 93.875 -159.9973
21.492282 93.874 -160.2626
21.648024 93.873 -160.5287
21.804895 93.872 -160.7962
21.962902 93.870 -161.0652
22.122054 93.868 -161.3359
22.282360 93.866 -161.6082
22.443827 93.863 -161.8822
22.606464 93.859 -162.1577
22.770280 93.855 -162.4346
22.935283 93.851 -162.7128
23.101481 93.847 -162.9924
23.268884 93.842 -163.2733
23.437500 93.837 -163.5556
23.607338 93.832 -163.8396
23.778406 93.827 -164.1252
23.950714 93.822 -164.4125
24.124271 93.816 -164.7013
24.299086 93.810 -164.9915
24.475167 93.805 -165.2827
24.652524 93.799 -165.5746
24.831166 93.794 -165.8666
25.011103 93.788 -166.1584
25.192344 93.783 -166.4496
25.374898 93.777 -166.7400
25.558775 93.772 -167.0293
25.743984 93.768 -167.3172
25.930536 93.763 -167.6038
26.118439 93.758 -167.8886
26.307704 93.754 -168.1714
26.498341 93.750 -168.4521
26.690359 93.745 -168.7302
26.883768 93.741 -169.0056
27.078579 93.737 -169.2780
27.274801 93.732 -169.5474
27.472446 93.728 -169.8138
27.671522 93.723 -170.0773
27.872042 93.719 -170.3380
28.074014 93.713 -170.5961
28.277450 93.708 -170.8518
28.482360 93.702 -171.1053
28.688755 93.696 -171.3568
28.896645 93.690 -171.6063
29.106042 93.683 -171.8541
29.316957 93.675 -172.1003
29.529400 93.667 -172.3452
29.743382 93.659 -172.5891
29.958915 93.651 -172.8322
30.176009 93.642 -173.0748
30.394677 93.633 -173.3173
30.614929 93.624 -173.5598
30.836778 93.614 -173.8025
31.060234 93.604 -174.0455
31.285309 93.594 -174.2888
31.512015 93.584 -174.5325
31.740364 93.573 -174.7766
31.970368 93.563 -175.0210
32.202039 93.552 -175.2657
32.435388 93.542 -175.5108
32.670428 93.532 -175.7566
32.907171 93.522 -176.0034
33.145630 93.513 -176.2515
33.385817 93.503 -176.5014
33.627745 93.495 -176.7536
33.871425 93.486 -177.0080
34.116871 93.477 -177.2645
34.364096 93.469 -177.5228
34.613113 93.460 -177.7820
34.863934 93.451 -178.0413
35.116572 93.442 -178.2999
35.371041 93.432 -178.5570
35.627354 93.422 -178.8123
35.885525 93.412 -179.0656
36.145566 93.402 -179.3172
36.407492 93.391 -179.5673
36.671316 93.380 -179.8162
36.937051 93.369 179.9362
37.204712 93.357 179.6904
37.474313 93.344 179.4468
37.745867 93.331 179.2062
38.019389 93.317 178.9694
38.294893 93.303 178.7362
38.572394 93.289 178.5065
38.851905 93.275 178.2791
39.133442 93.261 178.0527
39.417019 93.247 177.8257
39.702651 93.233 177.5969
39.990353 93.219 177.3657
40.280140 93.205 177.1320
40.572026 93.191 176.8964
40.866028 93.176 176.6594
41.162160 93.160 176.4217
41.460438 93.145 176.1837
41.760877 93.129 175.9458
42.063494 93.113 175.7081
42.368303 93.096 175.4710
42.675322 93.079 175.2352
42.984565 93.062 175.0016
43.296048 93.044 174.7714
43.609789 93.025 174.5455
43.925804 93.007 174.3246
44.244108 92.988 174.1085
44.564719 92.970 173.8962
44.887654 92.952 173.6864
45.212928 92.935 173.4771
45.540560 92.918 173.2669
45.870565 92.900 173.0550
46.202962 92.883 172.8417
46.537768 92.864 172.6281
46.875000 92.846 172.4158
47.214676 92.827 172.2057
47.556813 92.808 171.9983
47.901429 92.789 171.7923
48.248542 92.770 171.5863
48.598171 92.752 171.3789
48.950334 92.734 171.1699
49.305048 92.715 170.9601
49.662333 92.695 170.7512
50.022206 92.676 170.5445
50.384688 92.656 170.3406
50.749796 92.637 170.1384
51.117550 92.618 169.9361
51.487969 92.598 169.7321
51.861072 92.579 169.5262
52.236879 92.558 169.3194
52.615409 92.537 169.1142
52.996681 92.515 168.9129
53.380717 92.492 168.7172
53.767536 92.469 168.5275
54.157158 92.446 168.3431
54.549603 92.423 168.1631
54.944892 92.400 167.9866
55.343045 92.377 167.8129
55.744084 92.354 167.6422
56.148028 92.331 167.4751
56.554900 92.307 167.3126
56.964720 92.284 167.1556
57.377510 92.261 167.0039
57.793291 92.238 166.8566
58.212085 92.217 166.7121
58.633914 92.195 166.5689
59.058799 92.174 166.4267
59.486764 92.153 166.2859
59.917829 92.133 166.1470
60.352019 92.113 166.0095
60.789354 92.094 165.8723
61.229859 92.076 165.7332
61.673556 92.058 165.5904
62.120468 92.042 165.4421
62.570618 92.026 165.2867
63.024031 92.010 165.1227
63.480729 91.994 164.9495
63.940736 91.979 164.7670
64.404077 91.962 164.5760
64.870776 91.945 164.3781
65.340856 91.927 164.1752
65.814343 91.908 163.9693
66.291261 91.887 163.7623
66.771635 91.865 163.5558
67.255489 91.842 163.3512
67.742850 91.818 163.1493
68.233743 91.793 162.9509
68.728193 91.766 162.7567
69.226226 91.738 162.5673
69.727867 91.710 162.3832
70.233144 91.681 162.2042
70.742083 91.651 162.0300
71.254709 91.620 161.8600
71.771050 91.589 161.6944
72.291132 91.557 161.5337
72.814984 91.525 161.3790
73.342631 91.492 161.2315
73.874102 91.459 161.0920
74.409424 91.426 160.9610
74.948626 91.393 160.8386
75.491734 91.360 160.7250
76.038779 91.328 160.6210
76.589787 91.296 160.5280
77.144788 91.265 160.4466
77.703811 91.235 160.3762
78.266885 91.208 160.3151
78.834039 91.182 160.2606
79.405303 91.159 160.2096
79.980706 91.138 160.1589
80.560280 91.120 160.1049
81.144053 91.103 160.0441
81.732056 91.089 159.9735
82.324320 91.077 159.8905
82.920876 91.065 159.7930
83.521755 91.055 159.6799
84.126988 91.044 159.5511
84.736607 91.033 159.4073
85.350643 91.021 159.2499
85.969129 91.009 159.0813
86.592097 90.994 158.9037
