* Measurement data measured by REW V5.31
* Source: EXCL: Microphone (USB Sound Device        ), MICROPHONE (Master Volume), L, volume: 0.390
* Format: 256k Log Swept Sine, 1 sweep at -10.0 dBFS with no timing reference
* Dated: Nov 4, 2024 12:26:07 AM
* REW Settings:
*  C-weighting compensation: Off
*  Target level: 75.0 dB
* Note: NF Acous NE4 Reference R
* Measurement: R NF Acous NE4 Reference
* Smoothing: 1/12 octave
* Frequency Step: 96 ppo
* Start Frequency: 0.36621094 Hz
*
* Freq(Hz)	SPL(dB)	Phase(degrees)
0.366211	74.003	176.4920
0.368865	73.984	176.5058
0.371538	73.957	176.5261
0.374230	73.922	176.5513
0.376942	73.883	176.5797
0.379673	73.842	176.6102
0.382424	73.798	176.6420
0.385196	73.753	176.6747
0.387987	73.708	176.7081
0.390798	73.661	176.7419
0.393630	73.615	176.7761
0.396483	73.568	176.8107
0.399356	73.520	176.8458
0.402250	73.472	176.8813
0.405165	73.424	176.9172
0.408101	73.376	176.9536
0.411058	73.327	176.9905
0.414037	73.278	177.0280
0.417037	73.228	177.0660
0.420059	73.178	177.1047
0.423103	73.128	177.1441
0.426169	73.077	177.1841
0.429257	73.026	177.2250
0.432368	72.975	177.2666
0.435501	72.923	177.3091
0.438656	72.871	177.3524
0.441835	72.818	177.3968
0.445037	72.765	177.4421
0.448262	72.712	177.4885
0.451510	72.658	177.5361
0.454782	72.604	177.5849
0.458077	72.550	177.6349
0.461397	72.495	177.6862
0.464740	72.440	177.7390
0.468108	72.384	177.7933
0.471500	72.328	177.8492
0.474917	72.271	177.9067
0.478358	72.215	177.9660
0.481825	72.157	178.0272
0.485316	72.100	178.0903
0.488833	72.041	178.1554
0.492375	71.983	178.2227
0.495943	71.924	178.2924
0.499537	71.865	178.3644
0.503157	71.805	178.4389
0.506803	71.744	178.5161
0.510475	71.684	178.5962
0.514175	71.623	178.6791
0.517900	71.561	178.7652
0.521653	71.499	178.8546
0.525434	71.437	178.9474
0.529241	71.374	179.0439
0.533076	71.310	179.1442
0.536939	71.246	179.2485
0.540830	71.182	179.3570
0.544749	71.117	179.4700
0.548696	71.052	179.5877
0.552673	70.986	179.7103
0.556677	70.920	179.8381
0.560711	70.854	179.9714
0.564774	70.787	-179.8896
0.568867	70.719	-179.7445
0.572989	70.651	-179.5930
0.577141	70.582	-179.4349
0.581324	70.513	-179.2696
0.585536	70.443	-179.0969
0.589779	70.373	-178.9164
0.594053	70.303	-178.7275
0.598358	70.232	-178.5300
0.602694	70.160	-178.3234
0.607061	70.088	-178.1071
0.611460	70.015	-177.8806
0.615891	69.942	-177.6433
0.620354	69.868	-177.3948
0.624849	69.794	-177.1345
0.629377	69.719	-176.8615
0.633938	69.644	-176.5754
0.638532	69.568	-176.2753
0.643159	69.491	-175.9606
0.647819	69.414	-175.6304
0.652514	69.337	-175.2839
0.657242	69.259	-174.9202
0.662005	69.180	-174.5385
0.666802	69.101	-174.1377
0.671634	69.021	-173.7168
0.676501	68.941	-173.2748
0.681403	68.860	-172.8105
0.686341	68.778	-172.3228
0.691314	68.696	-171.8105
0.696324	68.614	-171.2723
0.701370	68.532	-170.7069
0.706452	68.450	-170.1130
0.711571	68.369	-169.4892
0.716728	68.291	-168.8340
0.721921	68.217	-168.1461
0.727153	68.149	-167.4240
0.732422	68.091	-166.6661
0.737729	68.042	-165.8710
0.743075	68.004	-165.0369
0.748460	67.974	-164.1619
0.753883	67.951	-163.2441
0.759346	67.934	-162.2813
0.764849	67.920	-161.2714
0.770391	67.910	-160.2122
0.775974	67.903	-159.1012
0.781597	67.898	-157.9363
0.787261	67.897	-156.7153
0.792966	67.898	-155.4359
0.798712	67.901	-154.0961
0.804500	67.907	-152.6940
0.810329	67.916	-151.2280
0.816201	67.928	-149.6966
0.822116	67.942	-148.0988
0.828073	67.958	-146.4341
0.834074	67.978	-144.7025
0.840118	68.000	-142.9045
0.846206	68.024	-141.0415
0.852338	68.052	-139.1156
0.858514	68.082	-137.1296
0.864735	68.114	-135.0874
0.871001	68.150	-132.9940
0.877313	68.188	-130.8548
0.883670	68.229	-128.6767
0.890074	68.272	-126.4672
0.896524	68.319	-124.2343
0.903020	68.367	-121.9870
0.909564	68.419	-119.7343
0.916155	68.473	-117.4857
0.922794	68.530	-115.2507
0.929481	68.590	-113.0383
0.936216	68.652	-110.8575
0.943000	68.718	-108.7163
0.949834	68.785	-106.6224
0.956717	68.855	-104.5825
0.963649	68.928	-102.6022
0.970632	69.004	-100.6866
0.977666	69.082	-98.8394
0.984750	69.162	-97.0638
0.991886	69.246	-95.3618
0.999074	69.331	-93.7350
1.006314	69.419	-92.1838
1.013606	69.510	-90.7085
1.020951	69.602	-89.3084
1.028349	69.697	-87.9828
1.035801	69.795	-86.7303
1.043307	69.895	-85.5493
1.050867	69.997	-84.4379
1.058482	70.101	-83.3939
1.066152	70.208	-82.4149
1.073878	70.317	-81.4983
1.081660	70.429	-80.6408
1.089498	70.544	-79.8389
1.097393	70.664	-79.0887
1.105345	70.788	-78.3860
1.113355	70.917	-77.7265
1.121423	71.052	-77.1068
1.129549	71.193	-76.5238
1.137734	71.341	-75.9753
1.145979	71.496	-75.4593
1.154283	71.657	-74.9743
1.162647	71.824	-74.5187
1.171072	71.998	-74.0913
1.179558	72.177	-73.6909
1.188106	72.363	-73.3163
1.196715	72.553	-72.9664
1.205387	72.749	-72.6402
1.214122	72.950	-72.3368
1.222920	73.155	-72.0550
1.231782	73.365	-71.7941
1.240708	73.579	-71.5532
1.249699	73.797	-71.3315
1.258754	74.017	-71.1281
1.267876	74.241	-70.9423
1.277063	74.467	-70.7734
1.286318	74.696	-70.6209
1.295639	74.926	-70.4840
1.305027	75.157	-70.3621
1.314484	75.390	-70.2547
1.324009	75.622	-70.1613
1.333604	75.855	-70.0815
1.343268	76.087	-70.0146
1.353002	76.317	-69.9603
1.362806	76.546	-69.9182
1.372681	76.773	-69.8879
1.382628	76.996	-69.8692
1.392647	77.216	-69.8615
1.402739	77.432	-69.8647
1.412904	77.644	-69.8785
1.423142	77.850	-69.9025
1.433455	78.051	-69.9365
1.443843	78.246	-69.9802
1.454305	78.435	-70.0331
1.464844	78.619	-70.0952
1.475459	78.798	-70.1657
1.486150	78.972	-70.2444
1.496920	79.142	-70.3309
1.507767	79.309	-70.4249
1.518693	79.473	-70.5261
1.529698	79.633	-70.6342
1.540783	79.790	-70.7489
1.551948	79.945	-70.8702
1.563194	80.097	-70.9978
1.574521	80.246	-71.1315
1.585931	80.392	-71.2712
1.597423	80.537	-71.4167
1.608999	80.679	-71.5679
1.620658	80.818	-71.7247
1.632402	80.956	-71.8869
1.644232	81.092	-72.0545
1.656146	81.226	-72.2274
1.668147	81.358	-72.4054
1.680235	81.489	-72.5886
1.692411	81.619	-72.7769
1.704675	81.747	-72.9701
1.717028	81.875	-73.1683
1.729470	82.002	-73.3715
1.742003	82.128	-73.5797
1.754626	82.253	-73.7928
1.767341	82.379	-74.0110
1.780147	82.504	-74.2343
1.793047	82.629	-74.4630
1.806040	82.754	-74.6970
1.819128	82.879	-74.9369
1.832310	83.003	-75.1829
1.845587	83.127	-75.4353
1.858961	83.249	-75.6945
1.872432	83.370	-75.9604
1.886001	83.489	-76.2328
1.899667	83.607	-76.5117
1.913433	83.723	-76.7965
1.927299	83.837	-77.0868
1.941265	83.949	-77.3822
1.955332	84.060	-77.6822
1.969501	84.169	-77.9863
1.983773	84.276	-78.2942
1.998148	84.382	-78.6053
2.012627	84.486	-78.9192
2.027212	84.589	-79.2355
2.041902	84.691	-79.5539
2.056698	84.792	-79.8739
2.071602	84.892	-80.1953
2.086614	84.991	-80.5176
2.101734	85.089	-80.8406
2.116964	85.186	-81.1641
2.132304	85.282	-81.4880
2.147756	85.378	-81.8122
2.163320	85.473	-82.1371
2.178996	85.568	-82.4629
2.194786	85.661	-82.7906
2.210690	85.754	-83.1209
2.226710	85.845	-83.4547
2.242845	85.936	-83.7926
2.259098	86.024	-84.1350
2.275468	86.112	-84.4816
2.291957	86.197	-84.8324
2.308566	86.281	-85.1868
2.325295	86.364	-85.5442
2.342145	86.445	-85.9042
2.359117	86.525	-86.2661
2.376212	86.604	-86.6292
2.393431	86.681	-86.9930
2.410775	86.757	-87.3568
2.428244	86.832	-87.7200
2.445840	86.906	-88.0820
2.463564	86.979	-88.4422
2.481416	87.052	-88.8002
2.499397	87.123	-89.1557
2.517509	87.193	-89.5086
2.535752	87.263	-89.8590
2.554127	87.332	-90.2074
2.572635	87.399	-90.5547
2.591277	87.466	-90.9020
2.610055	87.531	-91.2499
2.628968	87.595	-91.5991
2.648019	87.657	-91.9496
2.667208	87.718	-92.3014
2.686535	87.777	-92.6540
2.706003	87.835	-93.0070
2.725612	87.892	-93.3599
2.745363	87.948	-93.7118
2.765257	88.002	-94.0622
2.785295	88.055	-94.4103
2.805478	88.108	-94.7554
2.825808	88.160	-95.0968
2.846285	88.210	-95.4339
2.866910	88.260	-95.7662
2.887685	88.310	-96.0935
2.908611	88.358	-96.4158
2.929688	88.406	-96.7335
2.950917	88.452	-97.0470
2.972301	88.498	-97.3572
2.993839	88.542	-97.6646
3.015534	88.585	-97.9695
3.037386	88.627	-98.2719
3.059396	88.668	-98.5716
3.081565	88.708	-98.8684
3.103896	88.747	-99.1617
3.126388	88.784	-99.4512
3.149043	88.822	-99.7363
3.171862	88.858	-100.0164
3.194847	88.895	-100.2909
3.217998	88.930	-100.5593
3.241317	88.966	-100.8211
3.264805	89.001	-101.0760
3.288463	89.036	-101.3238
3.312293	89.070	-101.5645
3.336295	89.104	-101.7982
3.360471	89.138	-102.0252
3.384822	89.170	-102.2459
3.409350	89.202	-102.4605
3.434056	89.234	-102.6693
3.458940	89.265	-102.8725
3.484005	89.296	-103.0703
3.509252	89.327	-103.2628
3.534681	89.358	-103.4502
3.560295	89.389	-103.6325
3.586094	89.420	-103.8098
3.612081	89.451	-103.9818
3.638255	89.483	-104.1486
3.664620	89.516	-104.3096
3.691175	89.548	-104.4647
3.717923	89.581	-104.6137
3.744864	89.614	-104.7567
3.772001	89.648	-104.8939
3.799335	89.682	-105.0259
3.826866	89.716	-105.1534
3.854597	89.750	-105.2770
3.882529	89.785	-105.3976
3.910664	89.821	-105.5158
3.939002	89.857	-105.6324
3.967546	89.894	-105.7477
3.996296	89.932	-105.8621
4.025255	89.970	-105.9753
4.054423	90.010	-106.0872
4.083804	90.050	-106.1975
4.113396	90.091	-106.3061
4.143204	90.133	-106.4133
4.173227	90.175	-106.5197
4.203468	90.218	-106.6259
4.233928	90.262	-106.7328
4.264609	90.307	-106.8415
4.295512	90.352	-106.9528
4.326639	90.397	-107.0674
4.357992	90.443	-107.1859
4.389572	90.490	-107.3087
4.421380	90.537	-107.4355
4.453419	90.585	-107.5663
4.485691	90.633	-107.7009
4.518196	90.682	-107.8392
4.550936	90.731	-107.9814
4.583914	90.781	-108.1277
4.617131	90.831	-108.2783
4.650589	90.881	-108.4336
4.684289	90.931	-108.5939
4.718233	90.981	-108.7595
4.752424	91.030	-108.9308
4.786862	91.080	-109.1077
4.821549	91.129	-109.2903
4.856488	91.179	-109.4785
4.891680	91.228	-109.6719
4.927127	91.277	-109.8700
4.962831	91.325	-110.0724
4.998794	91.374	-110.2787
5.035017	91.422	-110.4886
5.071503	91.469	-110.7017
5.108253	91.515	-110.9179
5.145270	91.561	-111.1375
5.182555	91.607	-111.3603
5.220110	91.651	-111.5863
5.257937	91.695	-111.8152
5.296038	91.739	-112.0464
5.334415	91.782	-112.2791
5.373071	91.824	-112.5128
5.412006	91.866	-112.7466
5.451224	91.907	-112.9800
5.490725	91.947	-113.2129
5.530514	91.987	-113.4450
5.570590	92.027	-113.6765
5.610957	92.065	-113.9071
5.651616	92.104	-114.1369
5.692570	92.142	-114.3653
5.733821	92.179	-114.5920
5.775370	92.216	-114.8166
5.817221	92.254	-115.0386
5.859375	92.291	-115.2578
5.901834	92.328	-115.4741
5.944602	92.365	-115.6875
5.987679	92.402	-115.8983
6.031068	92.439	-116.1068
6.074771	92.476	-116.3130
6.118792	92.514	-116.5174
6.163131	92.551	-116.7201
6.207792	92.590	-116.9211
6.252776	92.628	-117.1206
6.298086	92.667	-117.3186
6.343725	92.707	-117.5154
6.389694	92.747	-117.7116
6.435996	92.788	-117.9076
6.482634	92.829	-118.1042
6.529610	92.871	-118.3018
6.576926	92.913	-118.5010
6.624585	92.956	-118.7020
6.672590	92.999	-118.9049
6.720942	93.043	-119.1100
6.769645	93.088	-119.3176
6.818700	93.133	-119.5281
6.868111	93.178	-119.7418
6.917881	93.223	-119.9593
6.968010	93.269	-120.1808
7.018504	93.315	-120.4063
7.069362	93.360	-120.6359
7.120590	93.406	-120.8693
7.172189	93.452	-121.1064
7.224161	93.498	-121.3470
7.276511	93.543	-121.5911
7.329239	93.589	-121.8383
7.382350	93.633	-122.0887
7.435845	93.678	-122.3419
7.489729	93.722	-122.5976
7.544002	93.766	-122.8551
7.598669	93.809	-123.1138
7.653732	93.852	-123.3732
7.709194	93.894	-123.6330
7.765058	93.935	-123.8927
7.821327	93.977	-124.1521
7.878004	94.017	-124.4108
7.935091	94.058	-124.6682
7.992592	94.098	-124.9238
8.050510	94.137	-125.1773
8.108847	94.177	-125.4283
8.167607	94.216	-125.6768
8.226793	94.255	-125.9227
8.286408	94.294	-126.1660
8.346454	94.333	-126.4066
8.406936	94.371	-126.6446
8.467856	94.410	-126.8800
8.529218	94.450	-127.1129
8.591024	94.489	-127.3437
8.653278	94.528	-127.5727
8.715983	94.568	-127.8003
8.779143	94.608	-128.0269
8.842760	94.648	-128.2528
8.906839	94.689	-128.4783
8.971381	94.730	-128.7037
9.036392	94.771	-128.9296
9.101873	94.812	-129.1561
9.167829	94.853	-129.3836
9.234263	94.894	-129.6124
9.301178	94.935	-129.8425
9.368578	94.976	-130.0739
9.436467	95.017	-130.3068
9.504847	95.057	-130.5410
9.573723	95.097	-130.7766
9.643099	95.136	-131.0132
9.712976	95.173	-131.2508
9.783361	95.209	-131.4889
9.854255	95.242	-131.7271
9.925663	95.272	-131.9652
9.997588	95.300	-132.2029
10.070035	95.325	-132.4398
10.143007	95.348	-132.6755
10.216507	95.368	-132.9098
10.290540	95.387	-133.1424
10.365109	95.404	-133.3730
10.440219	95.419	-133.6016
10.515873	95.434	-133.8281
10.592076	95.448	-134.0526
10.668830	95.461	-134.2750
10.746141	95.475	-134.4954
10.824012	95.488	-134.7142
10.902447	95.500	-134.9316
10.981451	95.513	-135.1479
11.061027	95.525	-135.3634
11.141180	95.538	-135.5783
11.221913	95.550	-135.7931
11.303232	95.562	-136.0080
11.385140	95.574	-136.2233
11.467641	95.585	-136.4392
11.550741	95.597	-136.6559
11.634442	95.608	-136.8734
11.718750	95.620	-137.0919
11.803669	95.631	-137.3113
11.889203	95.643	-137.5316
11.975357	95.654	-137.7526
12.062136	95.665	-137.9742
12.149543	95.677	-138.1963
12.237583	95.688	-138.4186
12.326262	95.699	-138.6411
12.415583	95.709	-138.8636
12.505552	95.719	-139.0860
12.596172	95.729	-139.3083
12.687449	95.739	-139.5304
12.779387	95.748	-139.7524
12.871992	95.757	-139.9744
12.965268	95.766	-140.1965
13.059220	95.775	-140.4190
13.153852	95.784	-140.6420
13.249170	95.793	-140.8658
13.345179	95.802	-141.0905
13.441884	95.812	-141.3164
13.539289	95.821	-141.5435
13.637401	95.831	-141.7721
13.736223	95.841	-142.0022
13.835761	95.851	-142.2337
13.936021	95.861	-142.4667
14.037007	95.870	-142.7010
14.138725	95.879	-142.9365
14.241180	95.888	-143.1731
14.344377	95.897	-143.4106
14.448323	95.905	-143.6488
14.553021	95.914	-143.8875
14.658478	95.922	-144.1268
14.764700	95.930	-144.3663
14.871691	95.938	-144.6061
14.979457	95.947	-144.8463
15.088005	95.955	-145.0866
15.197339	95.964	-145.3272
15.307465	95.973	-145.5681
15.418389	95.981	-145.8094
15.530117	95.990	-146.0510
15.642655	96.000	-146.2930
15.756008	96.009	-146.5353
15.870182	96.018	-146.7779
15.985184	96.027	-147.0206
16.101019	96.036	-147.2632
16.217694	96.045	-147.5059
16.335214	96.054	-147.7481
16.453586	96.063	-147.9899
16.572815	96.072	-148.2311
16.692909	96.082	-148.4715
16.813872	96.092	-148.7109
16.935713	96.102	-148.9495
17.058436	96.112	-149.1870
17.182048	96.123	-149.4233
17.306556	96.134	-149.6586
17.431967	96.145	-149.8926
17.558286	96.157	-150.1255
17.685521	96.168	-150.3572
17.813677	96.179	-150.5875
17.942762	96.190	-150.8163
18.072783	96.201	-151.0438
18.203746	96.211	-151.2696
18.335658	96.222	-151.4938
18.468526	96.232	-151.7163
18.602356	96.243	-151.9371
18.737156	96.254	-152.1563
18.872934	96.264	-152.3739
19.009695	96.275	-152.5901
19.147447	96.286	-152.8049
19.286197	96.297	-153.0186
19.425953	96.308	-153.2313
19.566721	96.319	-153.4431
19.708510	96.329	-153.6541
19.851326	96.339	-153.8643
19.995177	96.349	-154.0738
20.140070	96.358	-154.2825
20.286013	96.367	-154.4902
20.433014	96.376	-154.6971
20.581080	96.384	-154.9030
20.730219	96.392	-155.1080
20.880439	96.400	-155.3122
21.031747	96.408	-155.5156
21.184152	96.415	-155.7186
21.337661	96.423	-155.9212
21.492282	96.431	-156.1239
21.648024	96.439	-156.3268
21.804895	96.446	-156.5302
21.962902	96.454	-156.7342
22.122054	96.461	-156.9390
22.282360	96.469	-157.1446
22.443827	96.476	-157.3510
22.606464	96.482	-157.5582
22.770280	96.489	-157.7661
22.935283	96.495	-157.9747
23.101481	96.502	-158.1840
23.268884	96.508	-158.3940
23.437500	96.513	-158.6046
23.607338	96.519	-158.8159
23.778406	96.525	-159.0280
23.950714	96.530	-159.2407
24.124271	96.535	-159.4541
24.299086	96.540	-159.6680
24.475167	96.545	-159.8821
24.652524	96.549	-160.0963
24.831166	96.554	-160.3103
25.011103	96.558	-160.5237
25.192344	96.563	-160.7364
25.374898	96.567	-160.9481
25.558775	96.572	-161.1588
25.743984	96.577	-161.3685
25.930536	96.582	-161.5774
26.118439	96.587	-161.7858
26.307704	96.592	-161.9939
26.498341	96.597	-162.2021
26.690359	96.602	-162.4105
26.883768	96.607	-162.6190
27.078579	96.612	-162.8272
27.274801	96.616	-163.0347
27.472446	96.620	-163.2405
27.671522	96.623	-163.4439
27.872042	96.626	-163.6438
28.074014	96.629	-163.8396
28.277450	96.631	-164.0309
28.482360	96.633	-164.2179
28.688755	96.635	-164.4011
28.896645	96.637	-164.5815
29.106042	96.640	-164.7605
29.316957	96.643	-164.9395
29.529400	96.647	-165.1197
29.743382	96.650	-165.3019
29.958915	96.654	-165.4865
30.176009	96.657	-165.6735
30.394677	96.661	-165.8623
30.614929	96.664	-166.0523
30.836778	96.666	-166.2430
31.060234	96.669	-166.4338
31.285309	96.671	-166.6246
31.512015	96.673	-166.8155
31.740364	96.675	-167.0070
31.970368	96.677	-167.1992
32.202039	96.679	-167.3927
32.435388	96.681	-167.5875
32.670428	96.683	-167.7835
32.907171	96.684	-167.9806
33.145630	96.686	-168.1783
33.385817	96.687	-168.3763
33.627745	96.689	-168.5745
33.871425	96.690	-168.7724
34.116871	96.691	-168.9700
34.364096	96.692	-169.1672
34.613113	96.694	-169.3639
34.863934	96.695	-169.5600
35.116572	96.695	-169.7554
35.371041	96.696	-169.9501
35.627354	96.697	-170.1439
35.885525	96.697	-170.3365
36.145566	96.697	-170.5278
36.407492	96.697	-170.7178
36.671316	96.696	-170.9062
36.937051	96.696	-171.0930
37.204712	96.695	-171.2783
37.474313	96.694	-171.4620
37.745867	96.693	-171.6443
38.019389	96.692	-171.8251
38.294893	96.691	-172.0047
38.572394	96.690	-172.1833
38.851905	96.689	-172.3615
39.133442	96.688	-172.5401
39.417019	96.687	-172.7197
39.702651	96.686	-172.9009
39.990353	96.685	-173.0840
40.280140	96.684	-173.2685
40.572026	96.683	-173.4538
40.866028	96.681	-173.6392
41.162160	96.679	-173.8241
41.460438	96.677	-174.0085
41.760877	96.675	-174.1923
42.063494	96.673	-174.3757
42.368303	96.671	-174.5583
42.675322	96.668	-174.7397
42.984565	96.666	-174.9189
43.296048	96.663	-175.0960
43.609789	96.660	-175.2714
43.925804	96.658	-175.4465
44.244108	96.656	-175.6228
44.564719	96.654	-175.8014
44.887654	96.652	-175.9819
45.212928	96.649	-176.1631
45.540560	96.646	-176.3436
45.870565	96.642	-176.5225
46.202962	96.638	-176.7001
46.537768	96.635	-176.8780
46.875000	96.631	-177.0572
47.214676	96.627	-177.2379
47.556813	96.622	-177.4186
47.901429	96.618	-177.5973
48.248542	96.613	-177.7726
48.598171	96.608	-177.9449
48.950334	96.604	-178.1161
49.305048	96.600	-178.2886
49.662333	96.596	-178.4634
50.022206	96.591	-178.6397
50.384688	96.587	-178.8149
50.749796	96.581	-178.9865
51.117550	96.576	-179.1532
51.487969	96.571	-179.3163
51.861072	96.567	-179.4781
52.236879	96.564	-179.6414
52.615409	96.561	-179.8071
52.996681	96.557	-179.9747
53.380717	96.553	179.8579
53.767536	96.549	179.6930
54.157158	96.545	179.5317
54.549603	96.542	179.3734
54.944892	96.539	179.2160
55.343045	96.537	179.0564
55.744084	96.536	178.8922
56.148028	96.534	178.7220
56.554900	96.533	178.5465
56.964720	96.530	178.3677
57.377510	96.527	178.1876
57.793291	96.524	178.0076
58.212085	96.520	177.8276
58.633914	96.516	177.6469
59.058799	96.511	177.4648
59.486764	96.506	177.2815
59.917829	96.500	177.0980
60.352019	96.493	176.9160
60.789354	96.486	176.7370
61.229859	96.478	176.5625
61.673556	96.470	176.3929
62.120468	96.462	176.2277
62.570618	96.454	176.0653
63.024031	96.448	175.9027
63.480729	96.442	175.7369
63.940736	96.436	175.5655
64.404077	96.430	175.3882
64.870776	96.423	175.2069
65.340856	96.415	175.0242
65.814343	96.407	174.8430
66.291261	96.398	174.6642
66.771635	96.389	174.4877
67.255489	96.380	174.3120
67.742850	96.371	174.1365
68.233743	96.362	173.9614
68.728193	96.352	173.7880
69.226226	96.342	173.6167
69.727867	96.332	173.4467
70.233144	96.323	173.2761
70.742083	96.313	173.1032
71.254709	96.304	172.9284
71.771050	96.293	172.7531
72.291132	96.283	172.5795
72.814984	96.272	172.4095
73.342631	96.261	172.2441
73.874102	96.251	172.0834
74.409424	96.241	171.9261
74.948626	96.231	171.7704
75.491734	96.222	171.6145
76.038779	96.214	171.4570
76.589787	96.206	171.2969
77.144788	96.198	171.1335
77.703811	96.190	170.9659
78.266885	96.182	170.7941
78.834039	96.174	170.6188
79.405303	96.166	170.4406
79.980706	96.159	170.2584
80.560280	96.152	170.0701
81.144053	96.145	169.8738
