* Measurement data measured by REW V5.31
* Source: EXCL: Microphone (USB Sound Device        ), MICROPHONE (Master Volume), L, volume: 0.390
* Format: 256k Log Swept Sine, 1 sweep at -15.0 dBFS with no timing reference
* Dated: Oct 14, 2024 1:25:49 PM
* REW Settings:
*  C-weighting compensation: Off
*  Target level: 75.0 dB
* Note: NF Acoud NM20 R
* Measurement: R NF Acoud NM20
* Smoothing: 1/12 octave
* Frequency Step: 96 ppo
* Start Frequency: 0.36621094 Hz
*
* Freq(Hz)	SPL(dB)	Phase(degrees)
0.366211	84.750	158.2475
0.368865	84.744	158.2239
0.371538	84.736	158.1886
0.374230	84.725	158.1443
0.376942	84.713	158.0933
0.379673	84.701	158.0372
0.382424	84.687	157.9772
0.385196	84.674	157.9139
0.387987	84.660	157.8478
0.390798	84.646	157.7790
0.393630	84.632	157.7077
0.396483	84.617	157.6339
0.399356	84.603	157.5575
0.402250	84.588	157.4786
0.405165	84.574	157.3972
0.408101	84.559	157.3132
0.411058	84.544	157.2267
0.414037	84.529	157.1376
0.417037	84.514	157.0458
0.420059	84.499	156.9513
0.423103	84.483	156.8542
0.426169	84.468	156.7544
0.429257	84.452	156.6519
0.432368	84.437	156.5466
0.435501	84.421	156.4385
0.438656	84.405	156.3276
0.441835	84.389	156.2139
0.445037	84.373	156.0973
0.448262	84.356	155.9779
0.451510	84.340	155.8555
0.454782	84.324	155.7303
0.458077	84.307	155.6021
0.461397	84.290	155.4709
0.464740	84.273	155.3368
0.468108	84.257	155.1997
0.471500	84.239	155.0596
0.474917	84.222	154.9165
0.478358	84.205	154.7703
0.481825	84.187	154.6210
0.485316	84.170	154.4687
0.488833	84.152	154.3132
0.492375	84.134	154.1547
0.495943	84.116	153.9931
0.499537	84.098	153.8283
0.503157	84.080	153.6604
0.506803	84.062	153.4894
0.510475	84.043	153.3153
0.514175	84.025	153.1380
0.517900	84.006	152.9575
0.521653	83.987	152.7739
0.525434	83.968	152.5872
0.529241	83.949	152.3973
0.533076	83.929	152.2043
0.536939	83.910	152.0081
0.540830	83.890	151.8089
0.544749	83.871	151.6065
0.548696	83.851	151.4010
0.552673	83.831	151.1925
0.556677	83.811	150.9809
0.560711	83.790	150.7663
0.564774	83.770	150.5487
0.568867	83.749	150.3282
0.572989	83.728	150.1047
0.577141	83.707	149.8783
0.581324	83.686	149.6490
0.585536	83.665	149.4169
0.589779	83.644	149.1821
0.594053	83.622	148.9445
0.598358	83.601	148.7043
0.602694	83.579	148.4615
0.607061	83.557	148.2162
0.611460	83.535	147.9684
0.615891	83.512	147.7182
0.620354	83.490	147.4658
0.624849	83.467	147.2111
0.629377	83.444	146.9543
0.633938	83.422	146.6955
0.638532	83.398	146.4348
0.643159	83.375	146.1722
0.647819	83.352	145.9080
0.652514	83.328	145.6422
0.657242	83.304	145.3750
0.662005	83.280	145.1066
0.666802	83.256	144.8369
0.671634	83.232	144.5663
0.676501	83.207	144.2949
0.681403	83.182	144.0229
0.686341	83.158	143.7503
0.691314	83.132	143.4775
0.696324	83.107	143.2046
0.701370	83.082	142.9317
0.706452	83.056	142.6589
0.711571	83.029	142.3864
0.716728	83.002	142.1140
0.721921	82.973	141.8416
0.727153	82.944	141.5686
0.732422	82.912	141.2943
0.737729	82.878	141.0176
0.743075	82.843	140.7375
0.748460	82.805	140.4532
0.753883	82.766	140.1639
0.759346	82.727	139.8691
0.764849	82.686	139.5684
0.770391	82.645	139.2616
0.775974	82.603	138.9485
0.781597	82.560	138.6290
0.787261	82.517	138.3030
0.792966	82.473	137.9705
0.798712	82.428	137.6312
0.804500	82.383	137.2852
0.810329	82.337	136.9323
0.816201	82.291	136.5726
0.822116	82.244	136.2059
0.828073	82.196	135.8323
0.834074	82.147	135.4516
0.840118	82.098	135.0637
0.846206	82.048	134.6688
0.852338	81.997	134.2667
0.858514	81.945	133.8573
0.864735	81.892	133.4408
0.871001	81.839	133.0170
0.877313	81.785	132.5861
0.883670	81.729	132.1479
0.890074	81.673	131.7024
0.896524	81.616	131.2499
0.903020	81.557	130.7902
0.909564	81.498	130.3234
0.916155	81.438	129.8497
0.922794	81.376	129.3690
0.929481	81.314	128.8815
0.936216	81.250	128.3874
0.943000	81.185	127.8868
0.949834	81.119	127.3797
0.956717	81.051	126.8665
0.963649	80.983	126.3474
0.970632	80.912	125.8225
0.977666	80.841	125.2921
0.984750	80.768	124.7565
0.991886	80.694	124.2161
0.999074	80.618	123.6712
1.006314	80.540	123.1222
1.013606	80.461	122.5695
1.020951	80.381	122.0135
1.028349	80.298	121.4548
1.035801	80.214	120.8939
1.043307	80.128	120.3313
1.050867	80.040	119.7676
1.058482	79.951	119.2035
1.066152	79.859	118.6394
1.073878	79.765	118.0758
1.081660	79.670	117.5130
1.089498	79.571	116.9509
1.097393	79.470	116.3892
1.105345	79.367	115.8271
1.113355	79.260	115.2635
1.121423	79.151	114.6974
1.129549	79.038	114.1277
1.137734	78.921	113.5535
1.145979	78.802	112.9740
1.154283	78.679	112.3883
1.162647	78.553	111.7957
1.171072	78.424	111.1956
1.179558	78.291	110.5871
1.188106	78.156	109.9695
1.196715	78.018	109.3420
1.205387	77.877	108.7037
1.214122	77.733	108.0537
1.222920	77.587	107.3912
1.231782	77.438	106.7152
1.240708	77.287	106.0245
1.249699	77.134	105.3183
1.258754	76.979	104.5952
1.267876	76.822	103.8542
1.277063	76.663	103.0939
1.286318	76.502	102.3132
1.295639	76.341	101.5106
1.305027	76.178	100.6847
1.314484	76.014	99.8341
1.324009	75.849	98.9573
1.333604	75.683	98.0528
1.343268	75.518	97.1188
1.353002	75.352	96.1540
1.362806	75.186	95.1566
1.372681	75.020	94.1251
1.382628	74.855	93.0580
1.392647	74.691	91.9537
1.402739	74.528	90.8110
1.412904	74.366	89.6284
1.423142	74.206	88.4048
1.433455	74.047	87.1392
1.443843	73.889	85.8303
1.454305	73.732	84.4768
1.464844	73.575	83.0770
1.475459	73.418	81.6286
1.486150	73.259	80.1282
1.496920	73.097	78.5720
1.507767	72.932	76.9559
1.518693	72.765	75.2751
1.529698	72.594	73.5248
1.540783	72.421	71.6999
1.551948	72.245	69.7952
1.563194	72.068	67.8055
1.574521	71.889	65.7257
1.585931	71.710	63.5507
1.597423	71.531	61.2759
1.608999	71.353	58.8970
1.620658	71.176	56.4106
1.632402	71.001	53.8144
1.644232	70.829	51.1073
1.656146	70.661	48.2898
1.668147	70.498	45.3647
1.680235	70.340	42.3368
1.692411	70.189	39.2139
1.704675	70.046	36.0064
1.717028	69.911	32.7274
1.729470	69.785	29.3930
1.742003	69.671	26.0215
1.754626	69.569	22.6330
1.767341	69.480	19.2485
1.780147	69.405	15.8880
1.793047	69.347	12.5695
1.806040	69.306	9.3054
1.819128	69.284	6.1009
1.832310	69.282	2.9528
1.845587	69.301	-0.1487
1.858961	69.341	-3.2125
1.872432	69.403	-6.2403
1.886001	69.486	-9.2255
1.899667	69.590	-12.1553
1.913433	69.713	-15.0151
1.927299	69.854	-17.7899
1.941265	70.012	-20.4670
1.955332	70.185	-23.0364
1.969501	70.371	-25.4911
1.983773	70.569	-27.8272
1.998148	70.777	-30.0430
2.012627	70.993	-32.1394
2.027212	71.216	-34.1187
2.041902	71.442	-35.9849
2.056698	71.670	-37.7428
2.071602	71.899	-39.3980
2.086614	72.126	-40.9565
2.101734	72.348	-42.4248
2.116964	72.565	-43.8095
2.132304	72.773	-45.1175
2.147756	72.972	-46.3560
2.163320	73.161	-47.5325
2.178996	73.339	-48.6547
2.194786	73.507	-49.7303
2.210690	73.665	-50.7660
2.226710	73.815	-51.7668
2.242845	73.960	-52.7363
2.259098	74.099	-53.6763
2.275468	74.234	-54.5882
2.291957	74.365	-55.4728
2.308566	74.493	-56.3304
2.325295	74.617	-57.1612
2.342145	74.739	-57.9649
2.359117	74.858	-58.7411
2.376212	74.974	-59.4892
2.393431	75.088	-60.2083
2.410775	75.200	-60.8973
2.428244	75.309	-61.5550
2.445840	75.416	-62.1800
2.463564	75.522	-62.7708
2.481416	75.626	-63.3261
2.499397	75.728	-63.8443
2.517509	75.828	-64.3247
2.535752	75.927	-64.7664
2.554127	76.023	-65.1700
2.572635	76.116	-65.5362
2.591277	76.207	-65.8670
2.610055	76.294	-66.1644
2.628968	76.378	-66.4307
2.648019	76.459	-66.6680
2.667208	76.536	-66.8780
2.686535	76.610	-67.0623
2.706003	76.683	-67.2225
2.725612	76.753	-67.3598
2.745363	76.821	-67.4755
2.765257	76.889	-67.5708
2.785295	76.957	-67.6466
2.805478	77.025	-67.7039
2.825808	77.093	-67.7436
2.846285	77.163	-67.7663
2.866910	77.235	-67.7724
2.887685	77.309	-67.7617
2.908611	77.385	-67.7337
2.929688	77.464	-67.6871
2.950917	77.544	-67.6208
2.972301	77.627	-67.5336
2.993839	77.710	-67.4254
3.015534	77.795	-67.2972
3.037386	77.882	-67.1505
3.059396	77.969	-66.9880
3.081565	78.058	-66.8123
3.103896	78.148	-66.6265
3.126388	78.239	-66.4340
3.149043	78.332	-66.2378
3.171862	78.427	-66.0411
3.194847	78.524	-65.8468
3.217998	78.622	-65.6571
3.241317	78.724	-65.4738
3.264805	78.827	-65.2974
3.288463	78.933	-65.1275
3.312293	79.042	-64.9627
3.336295	79.154	-64.8013
3.360471	79.269	-64.6422
3.384822	79.386	-64.4855
3.409350	79.506	-64.3324
3.434056	79.627	-64.1846
3.458940	79.751	-64.0448
3.484005	79.876	-63.9155
3.509252	80.001	-63.7996
3.534681	80.128	-63.6998
3.560295	80.254	-63.6187
3.586094	80.380	-63.5584
3.612081	80.506	-63.5205
3.638255	80.631	-63.5058
3.664620	80.755	-63.5143
3.691175	80.880	-63.5452
3.717923	81.004	-63.5972
3.744864	81.127	-63.6686
3.772001	81.251	-63.7581
3.799335	81.374	-63.8642
3.826866	81.497	-63.9860
3.854597	81.618	-64.1223
3.882529	81.738	-64.2725
3.910664	81.856	-64.4358
3.939002	81.973	-64.6120
3.967546	82.087	-64.8009
3.996296	82.199	-65.0028
4.025255	82.308	-65.2180
4.054423	82.414	-65.4470
4.083804	82.518	-65.6901
4.113396	82.619	-65.9467
4.143204	82.718	-66.2158
4.173227	82.814	-66.4955
4.203468	82.908	-66.7839
4.233928	82.999	-67.0788
4.264609	83.087	-67.3782
4.295512	83.173	-67.6801
4.326639	83.256	-67.9834
4.357992	83.337	-68.2872
4.389572	83.414	-68.5919
4.421380	83.489	-68.8979
4.453419	83.560	-69.2060
4.485691	83.629	-69.5164
4.518196	83.694	-69.8284
4.550936	83.757	-70.1407
4.583914	83.817	-70.4512
4.617131	83.875	-70.7579
4.650589	83.931	-71.0585
4.684289	83.985	-71.3509
4.718233	84.038	-71.6337
4.752424	84.088	-71.9060
4.786862	84.137	-72.1678
4.821549	84.184	-72.4195
4.856488	84.229	-72.6616
4.891680	84.272	-72.8945
4.927127	84.314	-73.1183
4.962831	84.355	-73.3327
4.998794	84.396	-73.5373
5.035017	84.436	-73.7315
5.071503	84.476	-73.9147
5.108253	84.517	-74.0862
5.145270	84.558	-74.2456
5.182555	84.599	-74.3929
5.220110	84.641	-74.5287
5.257937	84.683	-74.6541
5.296038	84.726	-74.7708
5.334415	84.770	-74.8807
5.373071	84.815	-74.9855
5.412006	84.861	-75.0869
5.451224	84.910	-75.1860
5.490725	84.960	-75.2832
5.530514	85.012	-75.3790
5.570590	85.066	-75.4735
5.610957	85.122	-75.5678
5.651616	85.179	-75.6634
5.692570	85.239	-75.7626
5.733821	85.300	-75.8677
5.775370	85.363	-75.9810
5.817221	85.427	-76.1044
5.859375	85.493	-76.2389
5.901834	85.560	-76.3852
5.944602	85.629	-76.5432
5.987679	85.699	-76.7132
6.031068	85.770	-76.8957
6.074771	85.842	-77.0915
6.118792	85.914	-77.3015
6.163131	85.987	-77.5266
6.207792	86.059	-77.7676
6.252776	86.132	-78.0248
6.298086	86.204	-78.2980
6.343725	86.275	-78.5865
6.389694	86.347	-78.8893
6.435996	86.417	-79.2052
6.482634	86.487	-79.5331
6.529610	86.556	-79.8721
6.576926	86.623	-80.2215
6.624585	86.689	-80.5809
6.672590	86.753	-80.9499
6.720942	86.816	-81.3274
6.769645	86.878	-81.7121
6.818700	86.938	-82.1020
6.868111	86.997	-82.4953
6.917881	87.055	-82.8905
6.968010	87.111	-83.2866
7.018504	87.166	-83.6829
7.069362	87.220	-84.0789
7.120590	87.272	-84.4738
7.172189	87.324	-84.8665
7.224161	87.375	-85.2558
7.276511	87.425	-85.6404
7.329239	87.476	-86.0196
7.382350	87.526	-86.3929
7.435845	87.576	-86.7604
7.489729	87.626	-87.1222
7.544002	87.676	-87.4785
7.598669	87.727	-87.8296
7.653732	87.779	-88.1757
7.709194	87.832	-88.5168
7.765058	87.886	-88.8533
7.821327	87.941	-89.1860
7.878004	87.997	-89.5157
7.935091	88.055	-89.8436
7.992592	88.114	-90.1710
8.050510	88.175	-90.4987
8.108847	88.236	-90.8274
8.167607	88.300	-91.1579
8.226793	88.364	-91.4908
8.286408	88.430	-91.8271
8.346454	88.497	-92.1677
8.406936	88.565	-92.5134
8.467856	88.634	-92.8647
8.529218	88.703	-93.2218
8.591024	88.773	-93.5846
8.653278	88.844	-93.9530
8.715983	88.914	-94.3270
8.779143	88.985	-94.7063
8.842760	89.055	-95.0908
8.906839	89.126	-95.4798
8.971381	89.196	-95.8726
9.036392	89.265	-96.2682
9.101873	89.334	-96.6657
9.167829	89.402	-97.0641
9.234263	89.469	-97.4629
9.301178	89.536	-97.8610
9.368578	89.602	-98.2576
9.436467	89.667	-98.6515
9.504847	89.732	-99.0420
9.573723	89.795	-99.4283
9.643099	89.858	-99.8098
9.712976	89.919	-100.1862
9.783361	89.978	-100.5570
9.854255	90.035	-100.9220
9.925663	90.090	-101.2809
9.997588	90.143	-101.6338
10.070035	90.193	-101.9809
10.143007	90.241	-102.3225
10.216507	90.288	-102.6591
10.290540	90.334	-102.9910
10.365109	90.379	-103.3189
10.440219	90.423	-103.6432
10.515873	90.467	-103.9647
10.592076	90.511	-104.2840
10.668830	90.554	-104.6017
10.746141	90.598	-104.9184
10.824012	90.641	-105.2346
10.902447	90.685	-105.5506
10.981451	90.728	-105.8670
11.061027	90.771	-106.1840
11.141180	90.813	-106.5018
11.221913	90.855	-106.8204
11.303232	90.897	-107.1397
11.385140	90.937	-107.4598
11.467641	90.977	-107.7806
11.550741	91.017	-108.1017
11.634442	91.055	-108.4229
11.718750	91.093	-108.7439
11.803669	91.131	-109.0645
11.889203	91.168	-109.3844
11.975357	91.204	-109.7033
12.062136	91.240	-110.0209
12.149543	91.275	-110.3372
12.237583	91.310	-110.6519
12.326262	91.344	-110.9650
12.415583	91.378	-111.2766
12.505552	91.411	-111.5866
12.596172	91.443	-111.8953
12.687449	91.475	-112.2028
12.779387	91.506	-112.5096
12.871992	91.537	-112.8158
12.965268	91.567	-113.1219
13.059220	91.598	-113.4284
13.153852	91.628	-113.7357
13.249170	91.658	-114.0444
13.345179	91.688	-114.3549
13.441884	91.718	-114.6677
13.539289	91.748	-114.9833
13.637401	91.778	-115.3022
13.736223	91.808	-115.6247
13.835761	91.838	-115.9512
13.936021	91.867	-116.2819
14.037007	91.896	-116.6170
14.138725	91.925	-116.9566
14.241180	91.953	-117.3007
14.344377	91.980	-117.6491
14.448323	92.007	-118.0017
14.553021	92.034	-118.3582
14.658478	92.060	-118.7182
14.764700	92.085	-119.0814
14.871691	92.110	-119.4472
14.979457	92.134	-119.8154
15.088005	92.159	-120.1854
15.197339	92.183	-120.5568
15.307465	92.207	-120.9294
15.418389	92.232	-121.3028
15.530117	92.256	-121.6771
15.642655	92.280	-122.0520
15.756008	92.304	-122.4277
15.870182	92.329	-122.8042
15.985184	92.354	-123.1817
16.101019	92.379	-123.5605
16.217694	92.404	-123.9409
16.335214	92.430	-124.3230
16.453586	92.457	-124.7069
16.572815	92.483	-125.0929
16.692909	92.511	-125.4808
16.813872	92.538	-125.8705
16.935713	92.566	-126.2618
17.058436	92.595	-126.6542
17.182048	92.624	-127.0473
17.306556	92.653	-127.4404
17.431967	92.681	-127.8329
17.558286	92.710	-128.2243
17.685521	92.739	-128.6139
17.813677	92.767	-129.0011
17.942762	92.796	-129.3856
18.072783	92.824	-129.7671
18.203746	92.853	-130.1454
18.335658	92.881	-130.5205
18.468526	92.910	-130.8926
18.602356	92.938	-131.2619
18.737156	92.967	-131.6288
18.872934	92.996	-131.9935
19.009695	93.025	-132.3565
19.147447	93.054	-132.7180
19.286197	93.083	-133.0783
19.425953	93.112	-133.4373
19.566721	93.140	-133.7950
19.708510	93.168	-134.1512
19.851326	93.194	-134.5053
19.995177	93.220	-134.8570
20.140070	93.245	-135.2058
20.286013	93.269	-135.5512
20.433014	93.292	-135.8929
20.581080	93.315	-136.2309
20.730219	93.337	-136.5652
20.880439	93.359	-136.8965
21.031747	93.380	-137.2254
21.184152	93.402	-137.5531
21.337661	93.423	-137.8809
21.492282	93.444	-138.2100
21.648024	93.466	-138.5418
21.804895	93.486	-138.8771
21.962902	93.507	-139.2166
22.122054	93.526	-139.5601
22.282360	93.544	-139.9072
22.443827	93.560	-140.2566
22.606464	93.576	-140.6065
22.770280	93.589	-140.9550
22.935283	93.602	-141.2998
23.101481	93.613	-141.6392
23.268884	93.624	-141.9718
23.437500	93.635	-142.2969
23.607338	93.646	-142.6150
23.778406	93.658	-142.9274
23.950714	93.671	-143.2363
24.124271	93.685	-143.5446
24.299086	93.702	-143.8555
24.475167	93.719	-144.1721
24.652524	93.738	-144.4970
24.831166	93.759	-144.8319
25.011103	93.779	-145.1775
25.192344	93.800	-145.5335
25.374898	93.821	-145.8986
25.558775	93.841	-146.2707
25.743984	93.860	-146.6476
25.930536	93.878	-147.0271
26.118439	93.897	-147.4073
26.307704	93.914	-147.7868
26.498341	93.932	-148.1651
26.690359	93.949	-148.5421
26.883768	93.966	-148.9180
27.078579	93.983	-149.2932
27.274801	93.999	-149.6679
27.472446	94.016	-150.0420
27.671522	94.031	-150.4149
27.872042	94.046	-150.7856
28.074014	94.059	-151.1530
28.277450	94.072	-151.5160
28.482360	94.085	-151.8737
28.688755	94.096	-152.2259
28.896645	94.108	-152.5728
29.106042	94.119	-152.9152
29.316957	94.130	-153.2542
29.529400	94.140	-153.5911
29.743382	94.151	-153.9271
29.958915	94.162	-154.2630
30.176009	94.172	-154.5993
30.394677	94.182	-154.9361
30.614929	94.192	-155.2732
30.836778	94.201	-155.6104
31.060234	94.209	-155.9475
31.285309	94.217	-156.2847
31.512015	94.225	-156.6224
31.740364	94.233	-156.9614
31.970368	94.240	-157.3024
32.202039	94.247	-157.6461
32.435388	94.253	-157.9927
32.670428	94.260	-158.3420
32.907171	94.265	-158.6935
33.145630	94.270	-159.0461
33.385817	94.274	-159.3987
33.627745	94.278	-159.7503
33.871425	94.281	-160.1001
34.116871	94.284	-160.4481
34.364096	94.287	-160.7945
34.613113	94.290	-161.1399
34.863934	94.293	-161.4849
35.116572	94.296	-161.8298
35.371041	94.298	-162.1746
35.627354	94.300	-162.5188
35.885525	94.302	-162.8616
36.145566	94.303	-163.2024
36.407492	94.303	-163.5407
36.671316	94.304	-163.8766
36.937051	94.304	-164.2107
37.204712	94.304	-164.5441
37.474313	94.305	-164.8781
37.745867	94.304	-165.2133
38.019389	94.304	-165.5500
38.294893	94.302	-165.8875
38.572394	94.299	-166.2243
38.851905	94.296	-166.5584
39.133442	94.291	-166.8875
39.417019	94.286	-167.2097
39.702651	94.280	-167.5241
39.990353	94.275	-167.8309
40.280140	94.271	-168.1321
40.572026	94.267	-168.4304
40.866028	94.265	-168.7293
41.162160	94.263	-169.0316
41.460438	94.262	-169.3390
41.760877	94.260	-169.6509
42.063494	94.258	-169.9653
42.368303	94.255	-170.2791
42.675322	94.251	-170.5896
42.984565	94.247	-170.8956
43.296048	94.243	-171.1980
43.609789	94.239	-171.4988
43.925804	94.236	-171.8002
44.244108	94.232	-172.1037
44.564719	94.228	-172.4093
44.887654	94.224	-172.7160
45.212928	94.219	-173.0233
45.540560	94.215	-173.3321
45.870565	94.210	-173.6448
46.202962	94.206	-173.9644
46.537768	94.200	-174.2923
46.875000	94.193	-174.6274
47.214676	94.185	-174.9655
47.556813	94.174	-175.3003
47.901429	94.162	-175.6264
48.248542	94.149	-175.9403
48.598171	94.137	-176.2420
48.950334	94.126	-176.5343
49.305048	94.116	-176.8213
49.662333	94.108	-177.1075
50.022206	94.102	-177.3960
50.384688	94.096	-177.6889
50.749796	94.090	-177.9866
51.117550	94.084	-178.2886
51.487969	94.078	-178.5937
51.861072	94.072	-178.9004
52.236879	94.064	-179.2071
52.615409	94.055	-179.5119
52.996681	94.046	-179.8128
53.380717	94.035	179.8923
53.767536	94.024	179.6047
54.157158	94.013	179.3241
54.549603	94.003	179.0482
54.944892	93.993	178.7733
55.343045	93.983	178.4964
55.744084	93.974	178.2158
56.148028	93.964	177.9319
56.554900	93.954	177.6460
56.964720	93.944	177.3587
57.377510	93.933	177.0699
57.793291	93.922	176.7787
58.212085	93.911	176.4848
58.633914	93.900	176.1888
59.058799	93.888	175.8911
59.486764	93.875	175.5919
59.917829	93.862	175.2917
60.352019	93.848	174.9915
60.789354	93.832	174.6937
61.229859	93.816	174.4004
61.673556	93.799	174.1125
62.120468	93.782	173.8286
62.570618	93.765	173.5459
63.024031	93.748	173.2631
63.480729	93.730	172.9805
63.940736	93.712	172.7000
64.404077	93.694	172.4228
64.870776	93.675	172.1485
65.340856	93.656	171.8758
65.814343	93.638	171.6041
66.291261	93.619	171.3347
66.771635	93.599	171.0696
67.255489	93.580	170.8102
67.742850	93.561	170.5554
68.233743	93.542	170.3026
68.728193	93.523	170.0493
69.226226	93.503	169.7963
69.727867	93.483	169.5463
70.233144	93.461	169.3022
70.742083	93.440	169.0637
71.254709	93.419	168.8270
71.771050	93.398	168.5865
72.291132	93.378	168.3387
72.814984	93.356	168.0845
73.342631	93.334	167.8280
73.874102	93.310	167.5741
74.409424	93.287	167.3253
74.948626	93.264	167.0804
75.491734	93.243	166.8365
76.038779	93.222	166.5914
76.589787	93.201	166.3453
77.144788	93.181	166.1003
77.703811	93.161	165.8587
78.266885	93.141	165.6216
78.834039	93.121	165.3883
79.405303	93.101	165.1578
79.980706	93.080	164.9293
80.560280	93.059	164.7031
81.144053	93.037	164.4793
81.732056	93.015	164.2567
82.324320	92.992	164.0316
82.920876	92.970	163.7993
83.521755	92.947	163.5565
84.126988	92.924	163.3032
84.736607	92.899	163.0426
85.350643	92.875	162.7791
85.969129	92.850	162.5159
86.592097	92.825	162.2554
87.219579	92.801	161.9986
87.851608	92.778	161.7467
