* Measurement data measured by REW V5.31
* Source: EXCL: Microphone (USB Sound Device        ), MICROPHONE (Master Volume), L, volume: 0.390
* Format: 256k Log Swept Sine, 1 sweep at -10.0 dBFS with no timing reference
* Dated: Nov 4, 2024 12:31:06 AM
* REW Settings:
*  C-weighting compensation: Off
*  Target level: 75.0 dB
* Note: NF Acous NE4 Pop L
* Measurement: L NF Acous NE4 Pop
* Smoothing: 1/12 octave
* Frequency Step: 96 ppo
* Start Frequency: 0.36621094 Hz
*
* Freq(Hz)	SPL(dB)	Phase(degrees)
0.366211	93.166	159.9295
0.368865	93.158	159.9097
0.371538	93.145	159.8800
0.374230	93.128	159.8426
0.376942	93.110	159.7993
0.379673	93.090	159.7516
0.382424	93.070	159.7005
0.385196	93.049	159.6463
0.387987	93.027	159.5895
0.390798	93.006	159.5302
0.393630	92.984	159.4685
0.396483	92.962	159.4044
0.399356	92.940	159.3379
0.402250	92.917	159.2691
0.405165	92.894	159.1978
0.408101	92.872	159.1242
0.411058	92.849	159.0480
0.414037	92.826	158.9694
0.417037	92.802	158.8883
0.420059	92.779	158.8047
0.423103	92.755	158.7185
0.426169	92.732	158.6297
0.429257	92.708	158.5384
0.432368	92.684	158.4444
0.435501	92.659	158.3477
0.438656	92.635	158.2484
0.441835	92.610	158.1464
0.445037	92.585	158.0416
0.448262	92.560	157.9342
0.451510	92.535	157.8239
0.454782	92.510	157.7109
0.458077	92.484	157.5950
0.461397	92.458	157.4763
0.464740	92.432	157.3548
0.468108	92.406	157.2304
0.471500	92.380	157.1031
0.474917	92.354	156.9728
0.478358	92.327	156.8397
0.481825	92.300	156.7036
0.485316	92.273	156.5645
0.488833	92.246	156.4225
0.492375	92.218	156.2775
0.495943	92.190	156.1294
0.499537	92.163	155.9784
0.503157	92.135	155.8243
0.506803	92.106	155.6672
0.510475	92.078	155.5071
0.514175	92.049	155.3439
0.517900	92.020	155.1776
0.521653	91.991	155.0083
0.525434	91.962	154.8360
0.529241	91.932	154.6606
0.533076	91.903	154.4821
0.536939	91.873	154.3006
0.540830	91.842	154.1161
0.544749	91.812	153.9285
0.548696	91.781	153.7380
0.552673	91.751	153.5444
0.556677	91.720	153.3479
0.560711	91.688	153.1484
0.564774	91.657	152.9460
0.568867	91.625	152.7407
0.572989	91.593	152.5326
0.577141	91.561	152.3216
0.581324	91.528	152.1079
0.585536	91.496	151.8914
0.589779	91.463	151.6722
0.594053	91.430	151.4504
0.598358	91.396	151.2261
0.602694	91.363	150.9992
0.607061	91.329	150.7700
0.611460	91.295	150.5383
0.615891	91.260	150.3044
0.620354	91.226	150.0684
0.624849	91.191	149.8303
0.629377	91.156	149.5902
0.633938	91.120	149.3483
0.638532	91.085	149.1046
0.643159	91.049	148.8593
0.647819	91.013	148.6126
0.652514	90.976	148.3646
0.657242	90.940	148.1154
0.662005	90.903	147.8652
0.666802	90.866	147.6143
0.671634	90.828	147.3627
0.676501	90.790	147.1108
0.681403	90.752	146.8586
0.686341	90.714	146.6065
0.691314	90.675	146.3547
0.696324	90.636	146.1034
0.701370	90.596	145.8527
0.706452	90.556	145.6030
0.711571	90.514	145.3542
0.716728	90.471	145.1064
0.721921	90.425	144.8593
0.727153	90.375	144.6123
0.732422	90.319	144.3645
0.737729	90.258	144.1148
0.743075	90.192	143.8619
0.748460	90.120	143.6046
0.753883	90.043	143.3422
0.759346	89.963	143.0738
0.764849	89.879	142.7991
0.770391	89.792	142.5178
0.775974	89.703	142.2294
0.781597	89.611	141.9339
0.787261	89.516	141.6309
0.792966	89.419	141.3204
0.798712	89.319	141.0021
0.804500	89.217	140.6759
0.810329	89.113	140.3415
0.816201	89.006	139.9988
0.822116	88.897	139.6477
0.828073	88.786	139.2878
0.834074	88.672	138.9191
0.840118	88.557	138.5412
0.846206	88.439	138.1541
0.852338	88.318	137.7575
0.858514	88.196	137.3512
0.864735	88.072	136.9351
0.871001	87.946	136.5088
0.877313	87.818	136.0722
0.883670	87.688	135.6251
0.890074	87.556	135.1673
0.896524	87.423	134.6985
0.903020	87.288	134.2186
0.909564	87.151	133.7273
0.916155	87.013	133.2246
0.922794	86.874	132.7101
0.929481	86.733	132.1837
0.936216	86.591	131.6452
0.943000	86.448	131.0945
0.949834	86.304	130.5314
0.956717	86.159	129.9557
0.963649	86.013	129.3674
0.970632	85.866	128.7663
0.977666	85.719	128.1524
0.984750	85.572	127.5255
0.991886	85.424	126.8858
0.999074	85.276	126.2331
1.006314	85.128	125.5675
1.013606	84.980	124.8891
1.020951	84.833	124.1981
1.028349	84.686	123.4946
1.035801	84.540	122.7788
1.043307	84.394	122.0509
1.050867	84.249	121.3114
1.058482	84.105	120.5603
1.066152	83.963	119.7979
1.073878	83.821	119.0242
1.081660	83.680	118.2386
1.089498	83.540	117.4400
1.097393	83.399	116.6263
1.105345	83.256	115.7944
1.113355	83.111	114.9401
1.121423	82.963	114.0587
1.129549	82.810	113.1451
1.137734	82.653	112.1936
1.145979	82.491	111.1982
1.154283	82.325	110.1522
1.162647	82.155	109.0478
1.171072	81.981	107.8760
1.179558	81.804	106.6263
1.188106	81.623	105.2863
1.196715	81.440	103.8410
1.205387	81.256	102.2727
1.214122	81.069	100.5596
1.222920	80.882	98.6753
1.231782	80.694	96.5878
1.240708	80.507	94.2573
1.249699	80.321	91.6350
1.258754	80.136	88.6609
1.267876	79.954	85.2617
1.277063	79.774	81.3490
1.286318	79.598	76.8200
1.295639	79.427	71.5615
1.305027	79.262	65.4636
1.314484	79.102	58.4465
1.324009	78.950	50.5058
1.333604	78.806	41.7649
1.343268	78.672	32.5073
1.353002	78.548	23.1470
1.362806	78.435	14.1268
1.372681	78.334	5.7995
1.382628	78.248	-1.6381
1.392647	78.176	-8.1374
1.402739	78.121	-13.7501
1.412904	78.084	-18.5777
1.423142	78.065	-22.7355
1.433455	78.068	-26.3344
1.443843	78.094	-29.4728
1.454305	78.144	-32.2347
1.464844	78.219	-34.6906
1.475459	78.323	-36.8983
1.486150	78.454	-38.9038
1.496920	78.615	-40.7428
1.507767	78.804	-42.4423
1.518693	79.022	-44.0233
1.529698	79.266	-45.5019
1.540783	79.536	-46.8913
1.551948	79.830	-48.2019
1.563194	80.147	-49.4427
1.574521	80.484	-50.6211
1.585931	80.841	-51.7435
1.597423	81.214	-52.8153
1.608999	81.602	-53.8414
1.620658	82.004	-54.8259
1.632402	82.416	-55.7725
1.644232	82.837	-56.6843
1.656146	83.265	-57.5643
1.668147	83.696	-58.4151
1.680235	84.130	-59.2388
1.692411	84.562	-60.0376
1.704675	84.991	-60.8133
1.717028	85.415	-61.5677
1.729470	85.830	-62.3023
1.742003	86.234	-63.0186
1.754626	86.624	-63.7180
1.767341	86.999	-64.4021
1.780147	87.357	-65.0725
1.793047	87.694	-65.7309
1.806040	88.012	-66.3797
1.819128	88.309	-67.0214
1.832310	88.587	-67.6592
1.845587	88.847	-68.2959
1.858961	89.092	-68.9343
1.872432	89.323	-69.5759
1.886001	89.541	-70.2213
1.899667	89.749	-70.8705
1.913433	89.946	-71.5227
1.927299	90.133	-72.1771
1.941265	90.311	-72.8326
1.955332	90.481	-73.4881
1.969501	90.643	-74.1423
1.983773	90.798	-74.7941
1.998148	90.946	-75.4425
2.012627	91.088	-76.0863
2.027212	91.224	-76.7247
2.041902	91.356	-77.3565
2.056698	91.484	-77.9810
2.071602	91.609	-78.5972
2.086614	91.731	-79.2045
2.101734	91.851	-79.8021
2.116964	91.971	-80.3896
2.132304	92.090	-80.9667
2.147756	92.209	-81.5335
2.163320	92.329	-82.0908
2.178996	92.450	-82.6399
2.194786	92.570	-83.1830
2.210690	92.689	-83.7225
2.226710	92.807	-84.2613
2.242845	92.922	-84.8013
2.259098	93.034	-85.3437
2.275468	93.142	-85.8889
2.291957	93.247	-86.4368
2.308566	93.349	-86.9867
2.325295	93.446	-87.5379
2.342145	93.541	-88.0892
2.359117	93.632	-88.6397
2.376212	93.721	-89.1881
2.393431	93.806	-89.7333
2.410775	93.890	-90.2741
2.428244	93.971	-90.8092
2.445840	94.050	-91.3374
2.463564	94.128	-91.8577
2.481416	94.204	-92.3691
2.499397	94.279	-92.8708
2.517509	94.353	-93.3623
2.535752	94.426	-93.8440
2.554127	94.498	-94.3165
2.572635	94.568	-94.7813
2.591277	94.637	-95.2403
2.610055	94.703	-95.6951
2.628968	94.767	-96.1470
2.648019	94.829	-96.5967
2.667208	94.888	-97.0444
2.686535	94.945	-97.4899
2.706003	94.999	-97.9328
2.725612	95.052	-98.3727
2.745363	95.102	-98.8087
2.765257	95.151	-99.2400
2.785295	95.199	-99.6659
2.805478	95.245	-100.0853
2.825808	95.290	-100.4974
2.846285	95.334	-100.9013
2.866910	95.378	-101.2963
2.887685	95.420	-101.6817
2.908611	95.462	-102.0573
2.929688	95.503	-102.4233
2.950917	95.543	-102.7801
2.972301	95.582	-103.1285
2.993839	95.620	-103.4692
3.015534	95.656	-103.8028
3.037386	95.690	-104.1297
3.059396	95.724	-104.4501
3.081565	95.756	-104.7642
3.103896	95.787	-105.0721
3.126388	95.817	-105.3737
3.149043	95.846	-105.6689
3.171862	95.876	-105.9575
3.194847	95.905	-106.2394
3.217998	95.933	-106.5143
3.241317	95.962	-106.7817
3.264805	95.991	-107.0414
3.288463	96.021	-107.2927
3.312293	96.050	-107.5354
3.336295	96.079	-107.7692
3.360471	96.108	-107.9941
3.384822	96.137	-108.2105
3.409350	96.166	-108.4190
3.434056	96.195	-108.6205
3.458940	96.223	-108.8159
3.484005	96.252	-109.0063
3.509252	96.281	-109.1928
3.534681	96.310	-109.3762
3.560295	96.339	-109.5577
3.586094	96.369	-109.7378
3.612081	96.399	-109.9173
3.638255	96.430	-110.0961
3.664620	96.462	-110.2741
3.691175	96.495	-110.4507
3.717923	96.528	-110.6256
3.744864	96.562	-110.7984
3.772001	96.597	-110.9695
3.799335	96.632	-111.1393
3.826866	96.667	-111.3087
3.854597	96.703	-111.4787
3.882529	96.739	-111.6503
3.910664	96.776	-111.8247
3.939002	96.813	-112.0029
3.967546	96.850	-112.1856
3.996296	96.887	-112.3736
4.025255	96.924	-112.5671
4.054423	96.962	-112.7660
4.083804	97.000	-112.9701
4.113396	97.039	-113.1792
4.143204	97.078	-113.3930
4.173227	97.117	-113.6115
4.203468	97.155	-113.8349
4.233928	97.194	-114.0633
4.264609	97.233	-114.2971
4.295512	97.271	-114.5367
4.326639	97.308	-114.7823
4.357992	97.345	-115.0344
4.389572	97.382	-115.2934
4.421380	97.417	-115.5597
4.453419	97.452	-115.8332
4.485691	97.487	-116.1138
4.518196	97.520	-116.4010
4.550936	97.553	-116.6940
4.583914	97.585	-116.9922
4.617131	97.616	-117.2946
4.650589	97.646	-117.6005
4.684289	97.676	-117.9093
4.718233	97.704	-118.2207
4.752424	97.730	-118.5346
4.786862	97.756	-118.8513
4.821549	97.780	-119.1711
4.856488	97.803	-119.4938
4.891680	97.825	-119.8191
4.927127	97.846	-120.1462
4.962831	97.865	-120.4742
4.998794	97.884	-120.8018
5.035017	97.901	-121.1280
5.071503	97.918	-121.4519
5.108253	97.933	-121.7730
5.145270	97.948	-122.0909
5.182555	97.961	-122.4059
5.220110	97.973	-122.7179
5.257937	97.985	-123.0270
5.296038	97.996	-123.3330
5.334415	98.006	-123.6354
5.373071	98.015	-123.9337
5.412006	98.025	-124.2273
5.451224	98.034	-124.5157
5.490725	98.043	-124.7984
5.530514	98.052	-125.0751
5.570590	98.061	-125.3461
5.610957	98.069	-125.6115
5.651616	98.078	-125.8718
5.692570	98.088	-126.1275
5.733821	98.097	-126.3792
5.775370	98.107	-126.6273
5.817221	98.118	-126.8720
5.859375	98.130	-127.1134
5.901834	98.142	-127.3516
5.944602	98.156	-127.5867
5.987679	98.170	-127.8193
6.031068	98.185	-128.0500
6.074771	98.201	-128.2801
6.118792	98.218	-128.5105
6.163131	98.236	-128.7423
6.207792	98.255	-128.9762
6.252776	98.275	-129.2126
6.298086	98.296	-129.4516
6.343725	98.318	-129.6935
6.389694	98.341	-129.9387
6.435996	98.365	-130.1877
6.482634	98.389	-130.4411
6.529610	98.414	-130.6997
6.576926	98.439	-130.9638
6.624585	98.465	-131.2338
6.672590	98.491	-131.5096
6.720942	98.517	-131.7912
6.769645	98.544	-132.0780
6.818700	98.570	-132.3699
6.868111	98.597	-132.6663
6.917881	98.623	-132.9671
6.968010	98.649	-133.2721
7.018504	98.674	-133.5811
7.069362	98.699	-133.8936
7.120590	98.724	-134.2089
7.172189	98.748	-134.5260
7.224161	98.771	-134.8440
7.276511	98.794	-135.1619
7.329239	98.816	-135.4790
7.382350	98.838	-135.7949
7.435845	98.859	-136.1089
7.489729	98.879	-136.4206
7.544002	98.900	-136.7291
7.598669	98.919	-137.0336
7.653732	98.939	-137.3333
7.709194	98.958	-137.6275
7.765058	98.977	-137.9160
7.821327	98.996	-138.1986
7.878004	99.015	-138.4751
7.935091	99.034	-138.7456
7.992592	99.053	-139.0098
8.050510	99.073	-139.2678
8.108847	99.093	-139.5196
8.167607	99.113	-139.7653
8.226793	99.135	-140.0054
8.286408	99.156	-140.2405
8.346454	99.179	-140.4712
8.406936	99.202	-140.6981
8.467856	99.226	-140.9215
8.529218	99.251	-141.1420
8.591024	99.277	-141.3601
8.653278	99.303	-141.5764
8.715983	99.329	-141.7917
8.779143	99.357	-142.0064
8.842760	99.384	-142.2210
8.906839	99.412	-142.4358
8.971381	99.441	-142.6509
9.036392	99.469	-142.8665
9.101873	99.497	-143.0825
9.167829	99.526	-143.2992
9.234263	99.554	-143.5163
9.301178	99.581	-143.7337
9.368578	99.608	-143.9508
9.436467	99.635	-144.1673
9.504847	99.661	-144.3825
9.573723	99.686	-144.5960
9.643099	99.709	-144.8073
9.712976	99.732	-145.0159
9.783361	99.751	-145.2211
9.854255	99.769	-145.4222
9.925663	99.783	-145.6188
9.997588	99.795	-145.8103
10.070035	99.804	-145.9966
10.143007	99.810	-146.1772
10.216507	99.814	-146.3520
10.290540	99.817	-146.5209
10.365109	99.817	-146.6838
10.440219	99.817	-146.8410
10.515873	99.816	-146.9928
10.592076	99.815	-147.1395
10.668830	99.813	-147.2817
10.746141	99.812	-147.4199
10.824012	99.810	-147.5546
10.902447	99.809	-147.6868
10.981451	99.807	-147.8171
11.061027	99.806	-147.9464
11.141180	99.805	-148.0752
11.221913	99.804	-148.2045
11.303232	99.802	-148.3349
11.385140	99.801	-148.4671
11.467641	99.800	-148.6017
11.550741	99.799	-148.7391
11.634442	99.797	-148.8797
11.718750	99.796	-149.0239
11.803669	99.794	-149.1719
11.889203	99.792	-149.3238
11.975357	99.790	-149.4795
12.062136	99.787	-149.6390
12.149543	99.784	-149.8020
12.237583	99.781	-149.9685
12.326262	99.777	-150.1380
12.415583	99.772	-150.3102
12.505552	99.766	-150.4847
12.596172	99.759	-150.6612
12.687449	99.751	-150.8391
12.779387	99.742	-151.0182
12.871992	99.733	-151.1981
12.965268	99.722	-151.3785
13.059220	99.712	-151.5592
13.153852	99.701	-151.7401
13.249170	99.689	-151.9210
13.345179	99.678	-152.1021
13.441884	99.667	-152.2834
13.539289	99.656	-152.4652
13.637401	99.645	-152.6479
13.736223	99.635	-152.8317
13.835761	99.625	-153.0172
13.936021	99.615	-153.2049
14.037007	99.605	-153.3953
14.138725	99.596	-153.5888
14.241180	99.587	-153.7860
14.344377	99.579	-153.9872
14.448323	99.570	-154.1928
14.553021	99.562	-154.4030
14.658478	99.554	-154.6178
14.764700	99.546	-154.8371
14.871691	99.539	-155.0608
14.979457	99.532	-155.2886
15.088005	99.525	-155.5199
15.197339	99.518	-155.7543
15.307465	99.512	-155.9911
15.418389	99.506	-156.2296
15.530117	99.500	-156.4693
15.642655	99.494	-156.7095
15.756008	99.488	-156.9497
15.870182	99.483	-157.1894
15.985184	99.478	-157.4282
16.101019	99.474	-157.6660
16.217694	99.470	-157.9024
16.335214	99.467	-158.1376
16.453586	99.465	-158.3715
16.572815	99.464	-158.6043
16.692909	99.463	-158.8359
16.813872	99.463	-159.0665
16.935713	99.465	-159.2962
17.058436	99.467	-159.5248
17.182048	99.470	-159.7523
17.306556	99.473	-159.9784
17.431967	99.477	-160.2029
17.558286	99.481	-160.4255
17.685521	99.485	-160.6457
17.813677	99.489	-160.8631
17.942762	99.493	-161.0774
18.072783	99.498	-161.2882
18.203746	99.502	-161.4953
18.335658	99.506	-161.6984
18.468526	99.510	-161.8975
18.602356	99.515	-162.0926
18.737156	99.519	-162.2837
18.872934	99.524	-162.4710
19.009695	99.528	-162.6548
19.147447	99.533	-162.8352
19.286197	99.538	-163.0126
19.425953	99.542	-163.1873
19.566721	99.546	-163.3595
19.708510	99.550	-163.5294
19.851326	99.554	-163.6974
19.995177	99.556	-163.8637
20.140070	99.559	-164.0286
20.286013	99.561	-164.1923
20.433014	99.562	-164.3552
20.581080	99.563	-164.5174
20.730219	99.563	-164.6794
20.880439	99.563	-164.8413
21.031747	99.563	-165.0036
21.184152	99.562	-165.1665
21.337661	99.561	-165.3302
21.492282	99.560	-165.4953
21.648024	99.559	-165.6619
21.804895	99.557	-165.8304
21.962902	99.556	-166.0011
22.122054	99.554	-166.1744
22.282360	99.552	-166.3505
22.443827	99.550	-166.5298
22.606464	99.547	-166.7125
22.770280	99.545	-166.8988
22.935283	99.543	-167.0887
23.101481	99.540	-167.2823
23.268884	99.538	-167.4793
23.437500	99.535	-167.6796
23.607338	99.533	-167.8829
23.778406	99.530	-168.0889
23.950714	99.528	-168.2972
24.124271	99.525	-168.5073
24.299086	99.523	-168.7190
24.475167	99.521	-168.9319
24.652524	99.520	-169.1456
24.831166	99.519	-169.3601
25.011103	99.519	-169.5750
25.192344	99.519	-169.7901
25.374898	99.520	-170.0053
25.558775	99.521	-170.2205
25.743984	99.523	-170.4355
25.930536	99.525	-170.6501
26.118439	99.528	-170.8643
26.307704	99.530	-171.0778
26.498341	99.533	-171.2902
26.690359	99.537	-171.5014
26.883768	99.540	-171.7106
27.078579	99.543	-171.9175
27.274801	99.545	-172.1215
27.472446	99.548	-172.3219
27.671522	99.550	-172.5186
27.872042	99.552	-172.7113
28.074014	99.554	-172.9003
28.277450	99.555	-173.0860
28.482360	99.557	-173.2693
28.688755	99.558	-173.4512
28.896645	99.559	-173.6329
29.106042	99.560	-173.8152
29.316957	99.561	-173.9991
29.529400	99.561	-174.1848
29.743382	99.561	-174.3726
29.958915	99.560	-174.5621
30.176009	99.559	-174.7528
30.394677	99.557	-174.9444
30.614929	99.554	-175.1365
30.836778	99.552	-175.3290
31.060234	99.549	-175.5222
31.285309	99.546	-175.7164
31.512015	99.543	-175.9124
31.740364	99.540	-176.1108
31.970368	99.538	-176.3122
32.202039	99.536	-176.5169
32.435388	99.534	-176.7251
32.670428	99.532	-176.9365
32.907171	99.530	-177.1508
33.145630	99.528	-177.3674
33.385817	99.527	-177.5857
33.627745	99.525	-177.8053
33.871425	99.524	-178.0255
34.116871	99.523	-178.2460
34.364096	99.522	-178.4663
34.613113	99.522	-178.6862
34.863934	99.521	-178.9055
35.116572	99.521	-179.1238
35.371041	99.521	-179.3410
35.627354	99.520	-179.5569
35.885525	99.520	-179.7714
36.145566	99.519	-179.9844
36.407492	99.519	179.8043
36.671316	99.518	179.5945
36.937051	99.517	179.3864
37.204712	99.516	179.1798
37.474313	99.514	178.9744
37.745867	99.512	178.7699
38.019389	99.511	178.5660
38.294893	99.509	178.3622
38.572394	99.506	178.1584
38.851905	99.504	177.9540
39.133442	99.502	177.7490
39.417019	99.499	177.5429
39.702651	99.497	177.3358
39.990353	99.494	177.1276
40.280140	99.491	176.9184
40.572026	99.489	176.7081
40.866028	99.486	176.4967
41.162160	99.484	176.2841
41.460438	99.481	176.0703
41.760877	99.479	175.8552
42.063494	99.477	175.6390
42.368303	99.474	175.4227
42.675322	99.471	175.2073
42.984565	99.468	174.9941
43.296048	99.464	174.7839
43.609789	99.461	174.5771
43.925804	99.458	174.3730
44.244108	99.455	174.1698
44.564719	99.453	173.9657
44.887654	99.451	173.7593
45.212928	99.448	173.5498
45.540560	99.445	173.3375
45.870565	99.442	173.1236
46.202962	99.438	172.9091
46.537768	99.433	172.6949
46.875000	99.428	172.4814
47.214676	99.424	172.2683
47.556813	99.419	172.0552
47.901429	99.414	171.8417
48.248542	99.409	171.6280
48.598171	99.405	171.4139
48.950334	99.401	171.1991
49.305048	99.397	170.9832
49.662333	99.393	170.7654
50.022206	99.390	170.5455
50.384688	99.386	170.3232
50.749796	99.382	170.0993
51.117550	99.379	169.8746
51.487969	99.375	169.6501
51.861072	99.370	169.4265
52.236879	99.366	169.2045
52.615409	99.361	168.9841
52.996681	99.357	168.7652
53.380717	99.353	168.5472
53.767536	99.349	168.3293
54.157158	99.345	168.1108
54.549603	99.342	167.8905
54.944892	99.339	167.6679
55.343045	99.336	167.4426
55.744084	99.333	167.2142
56.148028	99.330	166.9825
56.554900	99.327	166.7473
56.964720	99.325	166.5079
57.377510	99.322	166.2645
57.793291	99.319	166.0175
58.212085	99.316	165.7674
58.633914	99.312	165.5154
59.058799	99.307	165.2625
59.486764	99.302	165.0096
59.917829	99.297	164.7575
60.352019	99.291	164.5070
60.789354	99.284	164.2587
61.229859	99.277	164.0126
61.673556	99.270	163.7682
62.120468	99.262	163.5247
62.570618	99.254	163.2813
63.024031	99.247	163.0375
63.480729	99.239	162.7929
63.940736	99.231	162.5467
64.404077	99.223	162.2979
64.870776	99.215	162.0457
65.340856	99.207	161.7904
65.814343	99.198	161.5337
66.291261	99.188	161.2776
66.771635	99.179	161.0237
67.255489	99.169	160.7722
67.742850	99.159	160.5220
68.233743	99.149	160.2721
68.728193	99.140	160.0214
69.226226	99.131	159.7695
69.727867	99.121	159.5164
70.233144	99.111	159.2622
70.742083	99.102	159.0071
71.254709	99.092	158.7513
71.771050	99.082	158.4944
72.291132	99.072	158.2365
72.814984	99.063	157.9775
73.342631	99.053	157.7176
73.874102	99.043	157.4570
74.409424	99.033	157.1960
74.948626	99.023	156.9342
75.491734	99.014	156.6716
76.038779	99.004	156.4080
76.589787	98.995	156.1431
77.144788	98.986	155.8765
77.703811	98.976	155.6071
78.266885	98.967	155.3340
78.834039	98.958	155.0559
79.405303	98.949	154.7720
79.980706	98.940	154.4812
80.560280	98.930	154.1826
81.144053	98.920	153.8757
81.732056	98.908	153.5610
82.324320	98.895	153.2398
82.920876	98.881	152.9145
83.521755	98.865	152.5876
84.126988	98.848	152.2623
