* Measurement data measured by REW V5.31.3
* Source: EXCL: Microphone (USB Sound Device        ), no input selected, R, volume: 0.390
* Format: 256k Log Swept Sine, 1 sweep at -15.0 dBFS with no timing reference
* Dated: May 4, 2025 11:47:44 PM
* REW Settings:
*  C-weighting compensation: Off
*  Target level: 75.0 dB
* Note: L NF Acous NA20
* Measurement: L NF Acous NA20
* Smoothing: 1/12 octave
* Frequency Step: 96 ppo
* Start Frequency: 0.36621094 Hz
*
* Freq(Hz) SPL(dB) Phase(degrees)
0.366211 94.027 158.8913
0.368865 94.022 158.8692
0.371538 94.013 158.8362
0.374230 94.003 158.7946
0.376942 93.991 158.7468
0.379673 93.978 158.6942
0.382424 93.965 158.6379
0.385196 93.951 158.5785
0.387987 93.937 158.5164
0.390798 93.923 158.4518
0.393630 93.909 158.3848
0.396483 93.895 158.3154
0.399356 93.881 158.2436
0.402250 93.866 158.1695
0.405165 93.851 158.0929
0.408101 93.837 158.0139
0.411058 93.822 157.9325
0.414037 93.807 157.8486
0.417037 93.792 157.7622
0.420059 93.777 157.6733
0.423103 93.761 157.5818
0.426169 93.746 157.4879
0.429257 93.731 157.3913
0.432368 93.715 157.2921
0.435501 93.699 157.1903
0.438656 93.683 157.0858
0.441835 93.667 156.9787
0.445037 93.651 156.8689
0.448262 93.635 156.7563
0.451510 93.619 156.6411
0.454782 93.602 156.5231
0.458077 93.586 156.4023
0.461397 93.569 156.2788
0.464740 93.552 156.1524
0.468108 93.536 156.0233
0.471500 93.519 155.8913
0.474917 93.501 155.7564
0.478358 93.484 155.6187
0.481825 93.467 155.4782
0.485316 93.449 155.3347
0.488833 93.432 155.1884
0.492375 93.414 155.0391
0.495943 93.396 154.8869
0.499537 93.378 154.7319
0.503157 93.360 154.5739
0.506803 93.341 154.4129
0.510475 93.323 154.2491
0.514175 93.304 154.0823
0.517900 93.286 153.9126
0.521653 93.267 153.7399
0.525434 93.248 153.5643
0.529241 93.229 153.3859
0.533076 93.210 153.2045
0.536939 93.190 153.0202
0.540830 93.171 152.8331
0.544749 93.151 152.6430
0.548696 93.131 152.4502
0.552673 93.111 152.2545
0.556677 93.091 152.0560
0.560711 93.071 151.8548
0.564774 93.050 151.6508
0.568867 93.030 151.4441
0.572989 93.009 151.2347
0.577141 92.988 151.0227
0.581324 92.967 150.8081
0.585536 92.946 150.5910
0.589779 92.925 150.3714
0.594053 92.904 150.1494
0.598358 92.882 149.9250
0.602694 92.860 149.6984
0.607061 92.838 149.4695
0.611460 92.816 149.2384
0.615891 92.794 149.0053
0.620354 92.772 148.7702
0.624849 92.749 148.5332
0.629377 92.726 148.2944
0.633938 92.703 148.0540
0.638532 92.680 147.8120
0.643159 92.657 147.5685
0.647819 92.634 147.3237
0.652514 92.610 147.0776
0.657242 92.586 146.8306
0.662005 92.563 146.5826
0.666802 92.539 146.3339
0.671634 92.514 146.0845
0.676501 92.490 145.8348
0.681403 92.465 145.5848
0.686341 92.440 145.3348
0.691314 92.415 145.0849
0.696324 92.390 144.8354
0.701370 92.365 144.5863
0.706452 92.339 144.3379
0.711571 92.312 144.0902
0.716728 92.285 143.8432
0.721921 92.257 143.5967
0.727153 92.227 143.3501
0.732422 92.196 143.1030
0.737729 92.162 142.8542
0.743075 92.126 142.6028
0.748460 92.089 142.3480
0.753883 92.051 142.0891
0.759346 92.011 141.8256
0.764849 91.971 141.5573
0.770391 91.930 141.2839
0.775974 91.889 141.0052
0.781597 91.847 140.7212
0.787261 91.804 140.4317
0.792966 91.761 140.1368
0.798712 91.717 139.8363
0.804500 91.673 139.5302
0.810329 91.628 139.2185
0.816201 91.583 138.9011
0.822116 91.537 138.5780
0.828073 91.490 138.2492
0.834074 91.442 137.9146
0.840118 91.394 137.5742
0.846206 91.345 137.2280
0.852338 91.295 136.8760
0.858514 91.245 136.5182
0.864735 91.193 136.1547
0.871001 91.141 135.7853
0.877313 91.087 135.4102
0.883670 91.033 135.0294
0.890074 90.978 134.6430
0.896524 90.922 134.2509
0.903020 90.864 133.8534
0.909564 90.806 133.4504
0.916155 90.746 133.0421
0.922794 90.686 132.6286
0.929481 90.624 132.2101
0.936216 90.561 131.7866
0.943000 90.496 131.3584
0.949834 90.430 130.9257
0.956717 90.363 130.4887
0.963649 90.294 130.0477
0.970632 90.224 129.6029
0.977666 90.152 129.1546
0.984750 90.079 128.7032
0.991886 90.004 128.2491
0.999074 89.927 127.7926
1.006314 89.848 127.3342
1.013606 89.768 126.8743
1.020951 89.685 126.4135
1.028349 89.601 125.9524
1.035801 89.515 125.4915
1.043307 89.426 125.0315
1.050867 89.336 124.5730
1.058482 89.243 124.1167
1.066152 89.148 123.6634
1.073878 89.051 123.2136
1.081660 88.952 122.7678
1.089498 88.851 122.3262
1.097393 88.749 121.8891
1.105345 88.646 121.4559
1.113355 88.542 121.0262
1.121423 88.438 120.5993
1.129549 88.334 120.1748
1.137734 88.230 119.7521
1.145979 88.127 119.3307
1.154283 88.023 118.9103
1.162647 87.919 118.4905
1.171072 87.814 118.0710
1.179558 87.709 117.6515
1.188106 87.602 117.2315
1.196715 87.495 116.8107
1.205387 87.386 116.3887
1.214122 87.275 115.9653
1.222920 87.161 115.5398
1.231782 87.046 115.1120
1.240708 86.927 114.6814
1.249699 86.805 114.2475
1.258754 86.679 113.8098
1.267876 86.549 113.3677
1.277063 86.415 112.9208
1.286318 86.276 112.4685
1.295639 86.131 112.0101
1.305027 85.981 111.5450
1.314484 85.824 111.0726
1.324009 85.661 110.5920
1.333604 85.490 110.1027
1.343268 85.312 109.6038
1.353002 85.125 109.0946
1.362806 84.929 108.5741
1.372681 84.724 108.0416
1.382628 84.509 107.4962
1.392647 84.283 106.9371
1.402739 84.045 106.3634
1.412904 83.795 105.7744
1.423142 83.532 105.1696
1.433455 83.255 104.5485
1.443843 82.962 103.9112
1.454305 82.650 103.2579
1.464844 82.318 102.5894
1.475459 81.962 101.9067
1.486150 81.579 101.2106
1.496920 81.167 100.5014
1.507767 80.725 99.7788
1.518693 80.253 99.0416
1.529698 79.751 98.2883
1.540783 79.220 97.5167
1.551948 78.663 96.7241
1.563194 78.080 95.9073
1.574521 77.474 95.0624
1.585931 76.847 94.1851
1.597423 76.203 93.2700
1.608999 75.544 92.3109
1.620658 74.873 91.3003
1.632402 74.193 90.2293
1.644232 73.508 89.0872
1.656146 72.822 87.8607
1.668147 72.138 86.5340
1.680235 71.461 85.0870
1.692411 70.795 83.4950
1.704675 70.146 81.7267
1.717028 69.518 79.7423
1.729470 68.917 77.4910
1.742003 68.350 74.9067
1.754626 67.824 71.9037
1.767341 67.345 68.3704
1.780147 66.921 64.1618
1.793047 66.559 59.0927
1.806040 66.268 52.9355
1.819128 66.053 45.4334
1.832310 65.921 36.3513
1.845587 65.874 25.5949
1.858961 65.914 13.3985
1.872432 66.037 0.4577
1.886001 66.241 -12.2230
1.899667 66.521 -23.7578
1.913433 66.870 -33.6991
1.927299 67.281 -42.0165
1.941265 67.748 -48.9038
1.955332 68.263 -54.6174
1.969501 68.819 -59.3959
1.983773 69.409 -63.4352
1.998148 70.024 -66.8874
2.012627 70.659 -69.8688
2.027212 71.304 -72.4673
2.041902 71.954 -74.7499
2.056698 72.600 -76.7676
2.071602 73.237 -78.5601
2.086614 73.856 -80.1584
2.101734 74.452 -81.5869
2.116964 75.019 -82.8659
2.132304 75.550 -84.0126
2.147756 76.043 -85.0427
2.163320 76.494 -85.9717
2.178996 76.902 -86.8163
2.194786 77.269 -87.5944
2.210690 77.599 -88.3247
2.226710 77.896 -89.0243
2.242845 78.165 -89.7060
2.259098 78.409 -90.3780
2.275468 78.631 -91.0444
2.291957 78.833 -91.7062
2.308566 79.016 -92.3623
2.325295 79.182 -93.0105
2.342145 79.333 -93.6477
2.359117 79.469 -94.2703
2.376212 79.592 -94.8744
2.393431 79.704 -95.4557
2.410775 79.805 -96.0099
2.428244 79.898 -96.5324
2.445840 79.984 -97.0186
2.463564 80.064 -97.4639
2.481416 80.139 -97.8640
2.499397 80.211 -98.2152
2.517509 80.280 -98.5149
2.535752 80.347 -98.7623
2.554127 80.411 -98.9585
2.572635 80.469 -99.1070
2.591277 80.522 -99.2128
2.610055 80.565 -99.2804
2.628968 80.600 -99.3136
2.648019 80.625 -99.3141
2.667208 80.641 -99.2828
2.686535 80.648 -99.2191
2.706003 80.648 -99.1218
2.725612 80.641 -98.9893
2.745363 80.630 -98.8194
2.765257 80.615 -98.6099
2.785295 80.598 -98.3583
2.805478 80.581 -98.0620
2.825808 80.566 -97.7185
2.846285 80.553 -97.3251
2.866910 80.545 -96.8794
2.887685 80.542 -96.3785
2.908611 80.545 -95.8198
2.929688 80.553 -95.2005
2.950917 80.565 -94.5180
2.972301 80.581 -93.7710
2.993839 80.600 -92.9596
3.015534 80.622 -92.0857
3.037386 80.646 -91.1530
3.059396 80.673 -90.1669
3.081565 80.703 -89.1340
3.103896 80.737 -88.0620
3.126388 80.777 -86.9596
3.149043 80.822 -85.8359
3.171862 80.874 -84.7006
3.194847 80.934 -83.5633
3.217998 81.004 -82.4325
3.241317 81.083 -81.3154
3.264805 81.174 -80.2168
3.288463 81.276 -79.1385
3.312293 81.392 -78.0801
3.336295 81.520 -77.0400
3.360471 81.661 -76.0184
3.384822 81.813 -75.0179
3.409350 81.976 -74.0434
3.434056 82.149 -73.1011
3.458940 82.329 -72.1982
3.484005 82.515 -71.3418
3.509252 82.705 -70.5387
3.534681 82.897 -69.7947
3.560295 83.089 -69.1149
3.586094 83.282 -68.5029
3.612081 83.472 -67.9609
3.638255 83.660 -67.4891
3.664620 83.846 -67.0859
3.691175 84.031 -66.7480
3.717923 84.215 -66.4710
3.744864 84.398 -66.2501
3.772001 84.580 -66.0805
3.799335 84.762 -65.9579
3.826866 84.942 -65.8783
3.854597 85.120 -65.8379
3.882529 85.295 -65.8334
3.910664 85.466 -65.8620
3.939002 85.632 -65.9217
3.967546 85.793 -66.0110
3.996296 85.947 -66.1295
4.025255 86.096 -66.2775
4.054423 86.237 -66.4555
4.083804 86.373 -66.6635
4.113396 86.502 -66.9005
4.143204 86.625 -67.1636
4.173227 86.743 -67.4490
4.203468 86.854 -67.7522
4.233928 86.961 -68.0682
4.264609 87.062 -68.3924
4.295512 87.157 -68.7208
4.326639 87.247 -69.0503
4.357992 87.332 -69.3795
4.389572 87.411 -69.7083
4.421380 87.485 -70.0380
4.453419 87.552 -70.3702
4.485691 87.613 -70.7054
4.518196 87.669 -71.0427
4.550936 87.719 -71.3795
4.583914 87.764 -71.7124
4.617131 87.805 -72.0370
4.650589 87.842 -72.3491
4.684289 87.875 -72.6447
4.718233 87.905 -72.9205
4.752424 87.931 -73.1748
4.786862 87.955 -73.4070
4.821549 87.975 -73.6178
4.856488 87.991 -73.8082
4.891680 88.004 -73.9788
4.927127 88.015 -74.1301
4.962831 88.024 -74.2620
4.998794 88.032 -74.3740
5.035017 88.040 -74.4652
5.071503 88.049 -74.5345
5.108253 88.058 -74.5807
5.145270 88.068 -74.6028
5.182555 88.080 -74.6005
5.220110 88.093 -74.5750
5.257937 88.107 -74.5286
5.296038 88.123 -74.4649
5.334415 88.142 -74.3883
5.373071 88.162 -74.3032
5.412006 88.187 -74.2136
5.451224 88.214 -74.1226
5.490725 88.246 -74.0319
5.530514 88.283 -73.9424
5.570590 88.323 -73.8550
5.610957 88.368 -73.7716
5.651616 88.416 -73.6954
5.692570 88.467 -73.6308
5.733821 88.522 -73.5828
5.775370 88.579 -73.5560
5.817221 88.639 -73.5542
5.859375 88.701 -73.5799
5.901834 88.766 -73.6341
5.944602 88.832 -73.7168
5.987679 88.901 -73.8280
6.031068 88.971 -73.9678
6.074771 89.041 -74.1364
6.118792 89.111 -74.3348
6.163131 89.181 -74.5639
6.207792 89.249 -74.8243
6.252776 89.316 -75.1166
6.298086 89.382 -75.4402
6.343725 89.445 -75.7934
6.389694 89.507 -76.1736
6.435996 89.567 -76.5775
6.482634 89.624 -77.0020
6.529610 89.678 -77.4445
6.576926 89.729 -77.9032
6.624585 89.776 -78.3771
6.672590 89.821 -78.8653
6.720942 89.862 -79.3661
6.769645 89.900 -79.8767
6.818700 89.936 -80.3935
6.868111 89.968 -80.9129
6.917881 89.998 -81.4317
6.968010 90.026 -81.9476
7.018504 90.052 -82.4596
7.069362 90.075 -82.9668
7.120590 90.097 -83.4683
7.172189 90.117 -83.9625
7.224161 90.137 -84.4476
7.276511 90.157 -84.9218
7.329239 90.177 -85.3837
7.382350 90.197 -85.8327
7.435845 90.218 -86.2690
7.489729 90.240 -86.6937
7.544002 90.264 -87.1081
7.598669 90.291 -87.5134
7.653732 90.319 -87.9109
7.709194 90.351 -88.3012
7.765058 90.385 -88.6854
7.821327 90.423 -89.0651
7.878004 90.464 -89.4424
7.935091 90.508 -89.8201
7.992592 90.555 -90.2008
8.050510 90.606 -90.5867
8.108847 90.660 -90.9793
8.167607 90.717 -91.3796
8.226793 90.777 -91.7887
8.286408 90.839 -92.2076
8.346454 90.904 -92.6378
8.406936 90.970 -93.0801
8.467856 91.037 -93.5350
8.529218 91.106 -94.0023
8.591024 91.176 -94.4809
8.653278 91.246 -94.9698
8.715983 91.316 -95.4677
8.779143 91.386 -95.9733
8.842760 91.455 -96.4855
8.906839 91.524 -97.0028
8.971381 91.593 -97.5230
9.036392 91.660 -98.0440
9.101873 91.726 -98.5631
9.167829 91.792 -99.0785
9.234263 91.857 -99.5884
9.301178 91.920 -100.0915
9.368578 91.983 -100.5860
9.436467 92.045 -101.0703
9.504847 92.107 -101.5429
9.573723 92.168 -102.0027
9.643099 92.229 -102.4494
9.712976 92.291 -102.8826
9.783361 92.352 -103.3023
9.854255 92.414 -103.7088
9.925663 92.476 -104.1022
9.997588 92.539 -104.4831
10.070035 92.603 -104.8524
10.143007 92.667 -105.2112
10.216507 92.732 -105.5607
10.290540 92.798 -105.9020
10.365109 92.864 -106.2361
10.440219 92.931 -106.5639
10.515873 92.998 -106.8865
10.592076 93.065 -107.2048
10.668830 93.133 -107.5196
10.746141 93.200 -107.8313
10.824012 93.267 -108.1402
10.902447 93.333 -108.4465
10.981451 93.399 -108.7502
11.061027 93.463 -109.0512
11.141180 93.527 -109.3494
11.221913 93.589 -109.6444
11.303232 93.651 -109.9359
11.385140 93.711 -110.2236
11.467641 93.769 -110.5072
11.550741 93.827 -110.7865
11.634442 93.883 -111.0614
11.718750 93.938 -111.3320
11.803669 93.991 -111.5982
11.889203 94.044 -111.8603
11.975357 94.095 -112.1187
12.062136 94.145 -112.3738
12.149543 94.194 -112.6262
12.237583 94.242 -112.8763
12.326262 94.288 -113.1248
12.415583 94.334 -113.3722
12.505552 94.378 -113.6191
12.596172 94.421 -113.8660
12.687449 94.463 -114.1132
12.779387 94.503 -114.3612
12.871992 94.542 -114.6101
12.965268 94.580 -114.8603
13.059220 94.617 -115.1119
13.153852 94.652 -115.3650
13.249170 94.686 -115.6199
13.345179 94.719 -115.8768
13.441884 94.750 -116.1359
13.539289 94.781 -116.3977
13.637401 94.810 -116.6624
13.736223 94.839 -116.9306
13.835761 94.867 -117.2030
13.936021 94.894 -117.4801
14.037007 94.921 -117.7627
14.138725 94.947 -118.0513
14.241180 94.972 -118.3465
14.344377 94.996 -118.6489
14.448323 95.020 -118.9587
14.553021 95.044 -119.2761
14.658478 95.066 -119.6011
14.764700 95.088 -119.9335
14.871691 95.109 -120.2729
14.979457 95.130 -120.6189
15.088005 95.150 -120.9708
15.197339 95.169 -121.3279
15.307465 95.188 -121.6896
15.418389 95.207 -122.0552
15.530117 95.226 -122.4242
15.642655 95.245 -122.7963
15.756008 95.264 -123.1712
15.870182 95.284 -123.5488
15.985184 95.304 -123.9292
16.101019 95.325 -124.3127
16.217694 95.347 -124.6993
16.335214 95.370 -125.0893
16.453586 95.393 -125.4829
16.572815 95.417 -125.8801
16.692909 95.442 -126.2806
16.813872 95.468 -126.6841
16.935713 95.494 -127.0899
17.058436 95.521 -127.4972
17.182048 95.548 -127.9051
17.306556 95.575 -128.3124
17.431967 95.603 -128.7180
17.558286 95.631 -129.1209
17.685521 95.659 -129.5199
17.813677 95.688 -129.9143
17.942762 95.717 -130.3033
18.072783 95.746 -130.6866
18.203746 95.776 -131.0638
18.335658 95.806 -131.4349
18.468526 95.836 -131.7998
18.602356 95.867 -132.1587
18.737156 95.898 -132.5117
18.872934 95.929 -132.8588
19.009695 95.959 -133.2003
19.147447 95.990 -133.5361
19.286197 96.020 -133.8662
19.425953 96.050 -134.1906
19.566721 96.079 -134.5095
19.708510 96.107 -134.8227
19.851326 96.134 -135.1304
19.995177 96.161 -135.4330
20.140070 96.187 -135.7305
20.286013 96.212 -136.0235
20.433014 96.235 -136.3122
20.581080 96.258 -136.5972
20.730219 96.279 -136.8787
20.880439 96.299 -137.1572
21.031747 96.318 -137.4329
21.184152 96.336 -137.7064
21.337661 96.352 -137.9780
21.492282 96.367 -138.2482
21.648024 96.381 -138.5177
21.804895 96.395 -138.7871
21.962902 96.407 -139.0573
22.122054 96.418 -139.3293
22.282360 96.428 -139.6042
22.443827 96.438 -139.8828
22.606464 96.447 -140.1658
22.770280 96.455 -140.4541
22.935283 96.462 -140.7478
23.101481 96.469 -141.0470
23.268884 96.474 -141.3516
23.437500 96.479 -141.6613
23.607338 96.484 -141.9755
23.778406 96.488 -142.2938
23.950714 96.492 -142.6156
24.124271 96.496 -142.9408
24.299086 96.499 -143.2689
24.475167 96.503 -143.5998
24.652524 96.508 -143.9333
24.831166 96.513 -144.2693
25.011103 96.518 -144.6076
25.192344 96.524 -144.9477
25.374898 96.530 -145.2891
25.558775 96.537 -145.6313
25.743984 96.544 -145.9736
25.930536 96.552 -146.3152
26.118439 96.560 -146.6555
26.307704 96.569 -146.9936
26.498341 96.578 -147.3288
26.690359 96.587 -147.6602
26.883768 96.597 -147.9872
27.078579 96.606 -148.3087
27.274801 96.615 -148.6242
27.472446 96.625 -148.9327
27.671522 96.634 -149.2337
27.872042 96.643 -149.5270
28.074014 96.652 -149.8123
28.277450 96.661 -150.0901
28.482360 96.670 -150.3609
28.688755 96.679 -150.6255
28.896645 96.687 -150.8852
29.106042 96.695 -151.1410
29.316957 96.703 -151.3941
29.529400 96.711 -151.6457
29.743382 96.718 -151.8967
29.958915 96.724 -152.1482
30.176009 96.729 -152.4008
30.394677 96.734 -152.6553
30.614929 96.738 -152.9124
30.836778 96.741 -153.1723
31.060234 96.743 -153.4355
31.285309 96.744 -153.7022
31.512015 96.745 -153.9726
31.740364 96.745 -154.2468
31.970368 96.744 -154.5248
32.202039 96.742 -154.8066
32.435388 96.741 -155.0922
32.670428 96.738 -155.3814
32.907171 96.736 -155.6738
33.145630 96.733 -155.9691
33.385817 96.730 -156.2668
33.627745 96.727 -156.5663
33.871425 96.724 -156.8667
34.116871 96.721 -157.1673
34.364096 96.718 -157.4673
34.613113 96.715 -157.7661
34.863934 96.712 -158.0628
35.116572 96.709 -158.3568
35.371041 96.707 -158.6476
35.627354 96.704 -158.9347
35.885525 96.701 -159.2179
36.145566 96.698 -159.4971
36.407492 96.696 -159.7721
36.671316 96.693 -160.0431
36.937051 96.689 -160.3099
37.204712 96.686 -160.5727
37.474313 96.681 -160.8317
37.745867 96.677 -161.0870
38.019389 96.672 -161.3390
38.294893 96.667 -161.5884
38.572394 96.661 -161.8357
38.851905 96.654 -162.0816
39.133442 96.648 -162.3266
39.417019 96.640 -162.5711
39.702651 96.632 -162.8153
39.990353 96.624 -163.0592
40.280140 96.615 -163.3030
40.572026 96.606 -163.5469
40.866028 96.597 -163.7910
41.162160 96.587 -164.0357
41.460438 96.578 -164.2810
41.760877 96.568 -164.5271
42.063494 96.559 -164.7737
42.368303 96.549 -165.0204
42.675322 96.539 -165.2667
42.984565 96.529 -165.5119
43.296048 96.519 -165.7554
43.609789 96.508 -165.9968
43.925804 96.498 -166.2359
44.244108 96.487 -166.4726
44.564719 96.477 -166.7071
44.887654 96.466 -166.9394
45.212928 96.456 -167.1699
45.540560 96.445 -167.3985
45.870565 96.434 -167.6255
46.202962 96.422 -167.8510
46.537768 96.411 -168.0752
46.875000 96.399 -168.2984
47.214676 96.387 -168.5204
47.556813 96.374 -168.7414
47.901429 96.361 -168.9610
48.248542 96.348 -169.1794
48.598171 96.335 -169.3964
48.950334 96.322 -169.6123
49.305048 96.308 -169.8271
49.662333 96.294 -170.0408
50.022206 96.281 -170.2531
50.384688 96.267 -170.4635
50.749796 96.252 -170.6714
51.117550 96.238 -170.8767
51.487969 96.223 -171.0788
51.861072 96.208 -171.2778
52.236879 96.193 -171.4735
52.615409 96.178 -171.6661
52.996681 96.163 -171.8559
53.380717 96.147 -172.0433
53.767536 96.132 -172.2289
54.157158 96.117 -172.4136
54.549603 96.101 -172.5981
54.944892 96.086 -172.7830
55.343045 96.071 -172.9689
55.744084 96.056 -173.1561
56.148028 96.041 -173.3451
56.554900 96.026 -173.5363
56.964720 96.011 -173.7300
57.377510 95.996 -173.9260
57.793291 95.981 -174.1239
58.212085 95.965 -174.3230
58.633914 95.949 -174.5222
59.058799 95.933 -174.7206
59.486764 95.915 -174.9172
59.917829 95.898 -175.1113
60.352019 95.880 -175.3025
60.789354 95.861 -175.4904
61.229859 95.841 -175.6750
61.673556 95.821 -175.8560
62.120468 95.801 -176.0336
62.570618 95.780 -176.2081
63.024031 95.759 -176.3801
63.480729 95.737 -176.5504
63.940736 95.716 -176.7193
64.404077 95.694 -176.8870
64.870776 95.672 -177.0531
65.340856 95.651 -177.2171
65.814343 95.629 -177.3790
66.291261 95.607 -177.5389
66.771635 95.585 -177.6970
67.255489 95.564 -177.8533
67.742850 95.542 -178.0076
68.233743 95.520 -178.1598
68.728193 95.498 -178.3096
69.226226 95.476 -178.4570
69.727867 95.453 -178.6018
70.233144 95.431 -178.7439
70.742083 95.408 -178.8831
71.254709 95.385 -179.0195
71.771050 95.362 -179.1538
72.291132 95.339 -179.2869
72.814984 95.316 -179.4196
73.342631 95.293 -179.5524
73.874102 95.271 -179.6852
74.409424 95.248 -179.8174
74.948626 95.226 -179.9484
75.491734 95.203 179.9223
76.038779 95.181 179.7948
76.589787 95.158 179.6684
77.144788 95.136 179.5423
77.703811 95.114 179.4158
78.266885 95.092 179.2884
78.834039 95.070 179.1590
79.405303 95.047 179.0265
79.980706 95.025 178.8895
80.560280 95.002 178.7473
81.144053 94.979 178.5994
81.732056 94.954 178.4466
82.324320 94.929 178.2904
82.920876 94.901 178.1331
83.521755 94.872 177.9772
84.126988 94.842 177.8258
84.736607 94.810 177.6815
85.350643 94.776 177.5462
85.969129 94.742 177.4213
86.592097 94.707 177.3067
