* Measurement data measured by REW V5.31.3
* Source: EXCL: Microphone (USB Sound Device        ), no input selected, R, volume: 0.390
* Format: 256k Log Swept Sine, 1 sweep at -15.0 dBFS with no timing reference
* Dated: May 4, 2025 11:49:18 PM
* REW Settings:
*  C-weighting compensation: Off
*  Target level: 75.0 dB
* Note: NFAcous NA20 R
* Measurement: R L NF Acous NA20
* Smoothing: 1/12 octave
* Frequency Step: 96 ppo
* Start Frequency: 0.36621094 Hz
*
* Freq(Hz) SPL(dB) Phase(degrees)
0.366211 94.081 159.1217
0.368865 94.076 159.0998
0.371538 94.067 159.0670
0.374230 94.057 159.0258
0.376942 94.045 158.9783
0.379673 94.033 158.9262
0.382424 94.020 158.8703
0.385196 94.006 158.8115
0.387987 93.993 158.7499
0.390798 93.979 158.6859
0.393630 93.965 158.6194
0.396483 93.951 158.5506
0.399356 93.937 158.4795
0.402250 93.922 158.4060
0.405165 93.908 158.3301
0.408101 93.893 158.2518
0.411058 93.879 158.1712
0.414037 93.864 158.0880
0.417037 93.849 158.0024
0.420059 93.834 157.9144
0.423103 93.819 157.8238
0.426169 93.804 157.7307
0.429257 93.789 157.6350
0.432368 93.773 157.5368
0.435501 93.758 157.4360
0.438656 93.742 157.3325
0.441835 93.726 157.2265
0.445037 93.711 157.1177
0.448262 93.695 157.0063
0.451510 93.679 156.8922
0.454782 93.662 156.7754
0.458077 93.646 156.6559
0.461397 93.630 156.5336
0.464740 93.613 156.4085
0.468108 93.596 156.2807
0.471500 93.580 156.1500
0.474917 93.563 156.0166
0.478358 93.546 155.8803
0.481825 93.529 155.7412
0.485316 93.511 155.5992
0.488833 93.494 155.4544
0.492375 93.476 155.3067
0.495943 93.459 155.1562
0.499537 93.441 155.0027
0.503157 93.423 154.8464
0.506803 93.405 154.6872
0.510475 93.387 154.5251
0.514175 93.369 154.3601
0.517900 93.350 154.1922
0.521653 93.332 154.0214
0.525434 93.313 153.8477
0.529241 93.294 153.6712
0.533076 93.275 153.4918
0.536939 93.256 153.3096
0.540830 93.237 153.1245
0.544749 93.217 152.9365
0.548696 93.198 152.7458
0.552673 93.178 152.5523
0.556677 93.158 152.3560
0.560711 93.138 152.1570
0.564774 93.118 151.9552
0.568867 93.098 151.7509
0.572989 93.078 151.5438
0.577141 93.057 151.3342
0.581324 93.036 151.1220
0.585536 93.016 150.9074
0.589779 92.995 150.6902
0.594053 92.973 150.4707
0.598358 92.952 150.2489
0.602694 92.931 150.0247
0.607061 92.909 149.7984
0.611460 92.887 149.5700
0.615891 92.865 149.3395
0.620354 92.843 149.1070
0.624849 92.821 148.8727
0.629377 92.799 148.6366
0.633938 92.776 148.3988
0.638532 92.753 148.1595
0.643159 92.730 147.9187
0.647819 92.707 147.6767
0.652514 92.684 147.4334
0.657242 92.661 147.1891
0.662005 92.637 146.9438
0.666802 92.613 146.6978
0.671634 92.590 146.4512
0.676501 92.565 146.2042
0.681403 92.541 145.9570
0.686341 92.517 145.7097
0.691314 92.492 145.4624
0.696324 92.467 145.2155
0.701370 92.442 144.9691
0.706452 92.416 144.7233
0.711571 92.390 144.4781
0.716728 92.364 144.2336
0.721921 92.336 143.9896
0.727153 92.307 143.7455
0.732422 92.276 143.5008
0.737729 92.242 143.2544
0.743075 92.207 143.0055
0.748460 92.171 142.7532
0.753883 92.133 142.4969
0.759346 92.094 142.2360
0.764849 92.054 141.9703
0.770391 92.014 141.6996
0.775974 91.973 141.4237
0.781597 91.932 141.1425
0.787261 91.890 140.8560
0.792966 91.847 140.5641
0.798712 91.804 140.2667
0.804500 91.761 139.9638
0.810329 91.717 139.6553
0.816201 91.672 139.3412
0.822116 91.626 139.0215
0.828073 91.580 138.6962
0.834074 91.533 138.3651
0.840118 91.486 138.0284
0.846206 91.437 137.6860
0.852338 91.388 137.3379
0.858514 91.338 136.9841
0.864735 91.287 136.6246
0.871001 91.236 136.2594
0.877313 91.183 135.8885
0.883670 91.130 135.5121
0.890074 91.075 135.1301
0.896524 91.020 134.7427
0.903020 90.964 134.3498
0.909564 90.906 133.9516
0.916155 90.847 133.5482
0.922794 90.788 133.1397
0.929481 90.727 132.7262
0.936216 90.664 132.3080
0.943000 90.601 131.8851
0.949834 90.536 131.4578
0.956717 90.470 131.0263
0.963649 90.402 130.5908
0.970632 90.333 130.1516
0.977666 90.263 129.7091
0.984750 90.191 129.2635
0.991886 90.117 128.8152
0.999074 90.041 128.3646
1.006314 89.964 127.9121
1.013606 89.885 127.4582
1.020951 89.805 127.0034
1.028349 89.722 126.5482
1.035801 89.637 126.0933
1.043307 89.551 125.6392
1.050867 89.462 125.1866
1.058482 89.371 124.7362
1.066152 89.279 124.2885
1.073878 89.184 123.8443
1.081660 89.087 123.4040
1.089498 88.988 122.9679
1.097393 88.888 122.5359
1.105345 88.787 122.1077
1.113355 88.686 121.6829
1.121423 88.584 121.2608
1.129549 88.482 120.8409
1.137734 88.379 120.4227
1.145979 88.277 120.0058
1.154283 88.175 119.5897
1.162647 88.073 119.1741
1.171072 87.969 118.7588
1.179558 87.865 118.3432
1.188106 87.761 117.9273
1.196715 87.654 117.5104
1.205387 87.546 117.0924
1.214122 87.437 116.6729
1.222920 87.325 116.2513
1.231782 87.211 115.8274
1.240708 87.093 115.4007
1.249699 86.973 114.9707
1.258754 86.849 114.5370
1.267876 86.722 114.0990
1.277063 86.590 113.6563
1.286318 86.453 113.2082
1.295639 86.311 112.7542
1.305027 86.164 112.2936
1.314484 86.011 111.8259
1.324009 85.851 111.3503
1.333604 85.685 110.8661
1.343268 85.511 110.3727
1.353002 85.329 109.8692
1.362806 85.139 109.3549
1.372681 84.940 108.8289
1.382628 84.732 108.2905
1.392647 84.514 107.7388
1.402739 84.284 107.1730
1.412904 84.044 106.5926
1.423142 83.791 105.9968
1.433455 83.524 105.3855
1.443843 83.242 104.7584
1.454305 82.944 104.1160
1.464844 82.626 103.4590
1.475459 82.285 102.7882
1.486150 81.920 102.1044
1.496920 81.528 101.4079
1.507767 81.108 100.6983
1.518693 80.659 99.9748
1.529698 80.182 99.2357
1.540783 79.679 98.4791
1.551948 79.151 97.7026
1.563194 78.599 96.9031
1.574521 78.026 96.0774
1.585931 77.434 95.2214
1.597423 76.826 94.3303
1.608999 76.204 93.3987
1.620658 75.570 92.4201
1.632402 74.929 91.3868
1.644232 74.283 90.2896
1.656146 73.636 89.1174
1.668147 72.991 87.8569
1.680235 72.353 86.4917
1.692411 71.725 85.0018
1.704675 71.112 83.3625
1.717028 70.519 81.5428
1.729470 69.951 79.5040
1.742003 69.415 77.1971
1.754626 68.915 74.5596
1.767341 68.459 71.5125
1.780147 68.052 67.9549
1.793047 67.703 63.7598
1.806040 67.417 58.7693
1.819128 67.201 52.7945
1.832310 67.058 45.6257
1.845587 66.993 37.0676
1.858961 67.004 27.0253
1.872432 67.091 15.6473
1.886001 67.250 3.4506
1.899667 67.477 -8.7408
1.913433 67.766 -20.1005
1.927299 68.113 -30.1079
1.941265 68.511 -38.6181
1.955332 68.953 -45.7369
1.969501 69.434 -51.6724
1.983773 69.947 -56.6428
1.998148 70.485 -60.8390
2.012627 71.042 -64.4148
2.027212 71.611 -67.4902
2.041902 72.187 -70.1578
2.056698 72.761 -72.4884
2.071602 73.329 -74.5368
2.086614 73.884 -76.3457
2.101734 74.419 -77.9487
2.116964 74.930 -79.3730
2.132304 75.412 -80.6412
2.147756 75.860 -81.7734
2.163320 76.272 -82.7888
2.178996 76.648 -83.7066
2.194786 76.989 -84.5471
2.210690 77.299 -85.3308
2.226710 77.581 -86.0761
2.242845 77.841 -86.7971
2.259098 78.080 -87.5027
2.275468 78.302 -88.1976
2.291957 78.508 -88.8834
2.308566 78.700 -89.5596
2.325295 78.878 -90.2243
2.342145 79.044 -90.8748
2.359117 79.198 -91.5078
2.376212 79.341 -92.1198
2.393431 79.475 -92.7070
2.410775 79.601 -93.2651
2.428244 79.718 -93.7901
2.445840 79.829 -94.2776
2.463564 79.934 -94.7233
2.481416 80.034 -95.1234
2.499397 80.130 -95.4744
2.517509 80.221 -95.7741
2.535752 80.309 -96.0217
2.554127 80.391 -96.2187
2.572635 80.467 -96.3685
2.591277 80.536 -96.4762
2.610055 80.596 -96.5462
2.628968 80.646 -96.5823
2.648019 80.686 -96.5865
2.667208 80.717 -96.5598
2.686535 80.739 -96.5018
2.706003 80.754 -96.4117
2.725612 80.763 -96.2882
2.745363 80.766 -96.1296
2.765257 80.766 -95.9340
2.785295 80.765 -95.6993
2.805478 80.762 -95.4237
2.825808 80.762 -95.1049
2.846285 80.763 -94.7408
2.866910 80.769 -94.3294
2.887685 80.780 -93.8684
2.908611 80.795 -93.3555
2.929688 80.816 -92.7883
2.950917 80.841 -92.1648
2.972301 80.869 -91.4837
2.993839 80.900 -90.7454
3.015534 80.934 -89.9518
3.037386 80.969 -89.1066
3.059396 81.007 -88.2146
3.081565 81.047 -87.2819
3.103896 81.091 -86.3156
3.126388 81.140 -85.3232
3.149043 81.194 -84.3131
3.171862 81.254 -83.2936
3.194847 81.320 -82.2729
3.217998 81.395 -81.2585
3.241317 81.479 -80.2562
3.264805 81.572 -79.2701
3.288463 81.676 -78.3012
3.312293 81.791 -77.3486
3.336295 81.917 -76.4107
3.360471 82.054 -75.4872
3.384822 82.201 -74.5802
3.409350 82.358 -73.6942
3.434056 82.523 -72.8350
3.458940 82.694 -72.0090
3.484005 82.871 -71.2233
3.509252 83.051 -70.4840
3.534681 83.233 -69.7971
3.560295 83.416 -69.1675
3.586094 83.599 -68.5990
3.612081 83.780 -68.0938
3.638255 83.960 -67.6525
3.664620 84.138 -67.2738
3.691175 84.315 -66.9547
3.717923 84.492 -66.6912
3.744864 84.668 -66.4790
3.772001 84.844 -66.3140
3.799335 85.019 -66.1925
3.826866 85.193 -66.1109
3.854597 85.365 -66.0661
3.882529 85.534 -66.0553
3.910664 85.700 -66.0763
3.939002 85.861 -66.1272
3.967546 86.017 -66.2070
3.996296 86.168 -66.3152
4.025255 86.313 -66.4522
4.054423 86.452 -66.6184
4.083804 86.585 -66.8139
4.113396 86.712 -67.0373
4.143204 86.834 -67.2861
4.173227 86.951 -67.5568
4.203468 87.062 -67.8450
4.233928 87.168 -68.1463
4.264609 87.269 -68.4565
4.295512 87.365 -68.7717
4.326639 87.456 -69.0893
4.357992 87.542 -69.4079
4.389572 87.622 -69.7274
4.421380 87.697 -70.0493
4.453419 87.766 -70.3748
4.485691 87.829 -70.7043
4.518196 87.887 -71.0370
4.550936 87.939 -71.3704
4.583914 87.987 -71.7010
4.617131 88.031 -72.0248
4.650589 88.070 -72.3377
4.684289 88.106 -72.6359
4.718233 88.139 -72.9165
4.752424 88.169 -73.1778
4.786862 88.195 -73.4194
4.821549 88.218 -73.6420
4.856488 88.237 -73.8465
4.891680 88.253 -74.0335
4.927127 88.267 -74.2033
4.962831 88.279 -74.3554
4.998794 88.289 -74.4894
5.035017 88.300 -74.6042
5.071503 88.310 -74.6985
5.108253 88.321 -74.7712
5.145270 88.333 -74.8213
5.182555 88.345 -74.8486
5.220110 88.359 -74.8540
5.257937 88.373 -74.8397
5.296038 88.389 -74.8089
5.334415 88.406 -74.7653
5.373071 88.426 -74.7129
5.412006 88.448 -74.6551
5.451224 88.474 -74.5946
5.490725 88.504 -74.5327
5.530514 88.537 -74.4703
5.570590 88.574 -74.4081
5.610957 88.615 -74.3479
5.651616 88.659 -74.2927
5.692570 88.706 -74.2467
5.733821 88.756 -74.2146
5.775370 88.809 -74.2006
5.817221 88.864 -74.2086
5.859375 88.922 -74.2406
5.901834 88.981 -74.2979
5.944602 89.043 -74.3805
5.987679 89.107 -74.4885
6.031068 89.173 -74.6222
6.074771 89.239 -74.7825
6.118792 89.305 -74.9703
6.163131 89.371 -75.1868
6.207792 89.436 -75.4329
6.252776 89.500 -75.7090
6.298086 89.563 -76.0149
6.343725 89.624 -76.3489
6.389694 89.684 -76.7089
6.435996 89.742 -77.0919
6.482634 89.798 -77.4953
6.529610 89.851 -77.9168
6.576926 89.901 -78.3548
6.624585 89.949 -78.8086
6.672590 89.994 -79.2772
6.720942 90.035 -79.7591
6.769645 90.074 -80.2516
6.818700 90.111 -80.7515
6.868111 90.144 -81.2552
6.917881 90.176 -81.7598
6.968010 90.205 -82.2633
7.018504 90.232 -82.7646
7.069362 90.257 -83.2629
7.120590 90.280 -83.7572
7.172189 90.302 -84.2458
7.224161 90.324 -84.7270
7.276511 90.345 -85.1988
7.329239 90.366 -85.6598
7.382350 90.387 -86.1094
7.435845 90.409 -86.5478
7.489729 90.432 -86.9757
7.544002 90.457 -87.3940
7.598669 90.483 -87.8038
7.653732 90.511 -88.2059
7.709194 90.542 -88.6008
7.765058 90.576 -88.9894
7.821327 90.612 -89.3730
7.878004 90.652 -89.7535
7.935091 90.694 -90.1334
7.992592 90.740 -90.5151
8.050510 90.788 -90.9004
8.108847 90.840 -91.2907
8.167607 90.895 -91.6870
8.226793 90.952 -92.0903
8.286408 91.012 -92.5019
8.346454 91.074 -92.9231
8.406936 91.138 -93.3548
8.467856 91.204 -93.7977
8.529218 91.270 -94.2515
8.591024 91.338 -94.7157
8.653278 91.407 -95.1893
8.715983 91.476 -95.6714
8.779143 91.545 -96.1611
8.842760 91.614 -96.6574
8.906839 91.683 -97.1591
8.971381 91.751 -97.6643
9.036392 91.819 -98.1710
9.101873 91.885 -98.6772
9.167829 91.952 -99.1809
9.234263 92.017 -99.6808
9.301178 92.081 -100.1756
9.368578 92.145 -100.6635
9.436467 92.208 -101.1430
9.504847 92.271 -101.6128
9.573723 92.333 -102.0718
9.643099 92.395 -102.5193
9.712976 92.457 -102.9551
9.783361 92.519 -103.3789
9.854255 92.581 -103.7907
9.925663 92.644 -104.1904
9.997588 92.707 -104.5784
10.070035 92.770 -104.9552
10.143007 92.833 -105.3218
10.216507 92.897 -105.6789
10.290540 92.962 -106.0274
10.365109 93.027 -106.3680
10.440219 93.092 -106.7015
10.515873 93.158 -107.0287
10.592076 93.224 -107.3505
10.668830 93.289 -107.6674
10.746141 93.355 -107.9801
10.824012 93.420 -108.2887
10.902447 93.485 -108.5936
10.981451 93.549 -108.8949
11.061027 93.612 -109.1928
11.141180 93.675 -109.4873
11.221913 93.736 -109.7783
11.303232 93.797 -110.0657
11.385140 93.857 -110.3496
11.467641 93.915 -110.6298
11.550741 93.973 -110.9065
11.634442 94.029 -111.1797
11.718750 94.084 -111.4496
11.803669 94.138 -111.7164
11.889203 94.191 -111.9804
11.975357 94.242 -112.2420
12.062136 94.293 -112.5015
12.149543 94.342 -112.7595
12.237583 94.389 -113.0161
12.326262 94.436 -113.2719
12.415583 94.481 -113.5272
12.505552 94.525 -113.7821
12.596172 94.567 -114.0370
12.687449 94.608 -114.2918
12.779387 94.647 -114.5466
12.871992 94.685 -114.8015
12.965268 94.721 -115.0563
13.059220 94.756 -115.3111
13.153852 94.789 -115.5659
13.249170 94.821 -115.8206
13.345179 94.852 -116.0755
13.441884 94.882 -116.3309
13.539289 94.911 -116.5872
13.637401 94.939 -116.8449
13.736223 94.967 -117.1048
13.835761 94.994 -117.3678
13.936021 95.020 -117.6348
14.037007 95.046 -117.9067
14.138725 95.072 -118.1846
14.241180 95.097 -118.4693
14.344377 95.122 -118.7617
14.448323 95.147 -119.0625
14.553021 95.171 -119.3719
14.658478 95.194 -119.6902
14.764700 95.217 -120.0173
14.871691 95.239 -120.3528
14.979457 95.260 -120.6963
15.088005 95.281 -121.0470
15.197339 95.301 -121.4039
15.307465 95.321 -121.7663
15.418389 95.340 -122.1332
15.530117 95.358 -122.5038
15.642655 95.377 -122.8773
15.756008 95.396 -123.2532
15.870182 95.415 -123.6311
15.985184 95.434 -124.0109
16.101019 95.454 -124.3925
16.217694 95.475 -124.7761
16.335214 95.496 -125.1618
16.453586 95.518 -125.5498
16.572815 95.542 -125.9402
16.692909 95.566 -126.3331
16.813872 95.590 -126.7283
16.935713 95.616 -127.1255
17.058436 95.642 -127.5241
17.182048 95.669 -127.9234
17.306556 95.696 -128.3226
17.431967 95.723 -128.7208
17.558286 95.751 -129.1171
17.685521 95.779 -129.5104
17.813677 95.808 -129.8999
17.942762 95.836 -130.2850
18.072783 95.865 -130.6651
18.203746 95.895 -131.0397
18.335658 95.924 -131.4085
18.468526 95.954 -131.7715
18.602356 95.984 -132.1284
18.737156 96.014 -132.4793
18.872934 96.044 -132.8241
19.009695 96.074 -133.1628
19.147447 96.103 -133.4953
19.286197 96.132 -133.8216
19.425953 96.161 -134.1417
19.566721 96.189 -134.4556
19.708510 96.216 -134.7634
19.851326 96.243 -135.0652
19.995177 96.269 -135.3613
20.140070 96.294 -135.6520
20.286013 96.318 -135.9380
20.433014 96.341 -136.2196
20.581080 96.364 -136.4976
20.730219 96.385 -136.7723
20.880439 96.405 -137.0444
21.031747 96.424 -137.3145
21.184152 96.442 -137.5829
21.337661 96.458 -137.8502
21.492282 96.474 -138.1169
21.648024 96.488 -138.3833
21.804895 96.501 -138.6502
21.962902 96.513 -138.9182
22.122054 96.524 -139.1879
22.282360 96.535 -139.4600
22.443827 96.544 -139.7352
22.606464 96.552 -140.0141
22.770280 96.560 -140.2973
22.935283 96.567 -140.5851
23.101481 96.574 -140.8777
23.268884 96.580 -141.1751
23.437500 96.585 -141.4773
23.607338 96.590 -141.7841
23.778406 96.594 -142.0952
23.950714 96.599 -142.4106
24.124271 96.603 -142.7299
24.299086 96.608 -143.0529
24.475167 96.612 -143.3795
24.652524 96.617 -143.7094
24.831166 96.622 -144.0424
25.011103 96.628 -144.3781
25.192344 96.634 -144.7159
25.374898 96.641 -145.0554
25.558775 96.648 -145.3957
25.743984 96.655 -145.7361
25.930536 96.663 -146.0757
26.118439 96.671 -146.4137
26.307704 96.680 -146.7490
26.498341 96.689 -147.0810
26.690359 96.697 -147.4085
26.883768 96.707 -147.7309
27.078579 96.716 -148.0475
27.274801 96.725 -148.3577
27.472446 96.735 -148.6611
27.671522 96.744 -148.9576
27.872042 96.754 -149.2475
28.074014 96.763 -149.5311
28.277450 96.773 -149.8089
28.482360 96.782 -150.0817
28.688755 96.791 -150.3502
28.896645 96.799 -150.6148
29.106042 96.807 -150.8763
29.316957 96.814 -151.1350
29.529400 96.820 -151.3914
29.743382 96.825 -151.6459
29.958915 96.830 -151.8990
30.176009 96.834 -152.1512
30.394677 96.837 -152.4033
30.614929 96.839 -152.6559
30.836778 96.840 -152.9098
31.060234 96.841 -153.1654
31.285309 96.841 -153.4234
31.512015 96.840 -153.6842
31.740364 96.839 -153.9480
31.970368 96.837 -154.2151
32.202039 96.835 -154.4857
32.435388 96.833 -154.7601
32.670428 96.831 -155.0383
32.907171 96.829 -155.3203
33.145630 96.827 -155.6059
33.385817 96.824 -155.8948
33.627745 96.822 -156.1866
33.871425 96.820 -156.4805
34.116871 96.818 -156.7761
34.364096 96.816 -157.0726
34.613113 96.814 -157.3690
34.863934 96.812 -157.6647
35.116572 96.810 -157.9587
35.371041 96.808 -158.2501
35.627354 96.806 -158.5380
35.885525 96.804 -158.8218
36.145566 96.801 -159.1011
36.407492 96.799 -159.3757
36.671316 96.796 -159.6459
36.937051 96.793 -159.9120
37.204712 96.790 -160.1744
37.474313 96.786 -160.4336
37.745867 96.782 -160.6897
38.019389 96.778 -160.9431
38.294893 96.773 -161.1938
38.572394 96.767 -161.4421
38.851905 96.761 -161.6884
39.133442 96.754 -161.9332
39.417019 96.747 -162.1768
39.702651 96.739 -162.4199
39.990353 96.731 -162.6630
40.280140 96.723 -162.9063
40.572026 96.714 -163.1501
40.866028 96.705 -163.3945
41.162160 96.696 -163.6393
41.460438 96.687 -163.8844
41.760877 96.678 -164.1299
42.063494 96.669 -164.3753
42.368303 96.660 -164.6205
42.675322 96.651 -164.8650
42.984565 96.641 -165.1084
43.296048 96.632 -165.3501
43.609789 96.622 -165.5897
43.925804 96.613 -165.8270
44.244108 96.604 -166.0617
44.564719 96.594 -166.2943
44.887654 96.585 -166.5250
45.212928 96.575 -166.7541
45.540560 96.565 -166.9819
45.870565 96.554 -167.2083
46.202962 96.544 -167.4332
46.537768 96.532 -167.6563
46.875000 96.521 -167.8774
47.214676 96.509 -168.0966
47.556813 96.496 -168.3141
47.901429 96.484 -168.5304
48.248542 96.471 -168.7458
48.598171 96.458 -168.9608
48.950334 96.445 -169.1755
49.305048 96.432 -169.3896
49.662333 96.419 -169.6029
50.022206 96.405 -169.8150
50.384688 96.391 -170.0255
50.749796 96.377 -170.2341
51.117550 96.363 -170.4403
51.487969 96.348 -170.6436
51.861072 96.333 -170.8434
52.236879 96.319 -171.0394
52.615409 96.304 -171.2318
52.996681 96.289 -171.4211
53.380717 96.275 -171.6082
53.767536 96.260 -171.7941
54.157158 96.246 -171.9794
54.549603 96.232 -172.1645
54.944892 96.218 -172.3497
55.343045 96.203 -172.5351
55.744084 96.189 -172.7215
56.148028 96.175 -172.9095
56.554900 96.161 -173.0999
56.964720 96.147 -173.2934
57.377510 96.133 -173.4900
57.793291 96.119 -173.6892
58.212085 96.104 -173.8902
58.633914 96.089 -174.0915
59.058799 96.072 -174.2916
59.486764 96.056 -174.4891
59.917829 96.038 -174.6832
60.352019 96.020 -174.8736
60.789354 96.002 -175.0604
61.229859 95.983 -175.2441
61.673556 95.964 -175.4250
62.120468 95.944 -175.6031
62.570618 95.924 -175.7786
63.024031 95.904 -175.9517
63.480729 95.884 -176.1228
63.940736 95.863 -176.2923
64.404077 95.842 -176.4605
64.870776 95.821 -176.6274
65.340856 95.800 -176.7929
65.814343 95.779 -176.9568
66.291261 95.758 -177.1191
66.771635 95.737 -177.2797
67.255489 95.716 -177.4385
67.742850 95.695 -177.5951
68.233743 95.673 -177.7491
68.728193 95.651 -177.9000
69.226226 95.630 -178.0479
69.727867 95.608 -178.1933
70.233144 95.586 -178.3367
70.742083 95.564 -178.4788
71.254709 95.541 -178.6200
71.771050 95.519 -178.7603
72.291132 95.496 -178.8991
72.814984 95.474 -179.0363
73.342631 95.451 -179.1717
73.874102 95.429 -179.3053
74.409424 95.406 -179.4375
74.948626 95.384 -179.5682
75.491734 95.362 -179.6977
76.038779 95.340 -179.8259
76.589787 95.318 -179.9531
77.144788 95.296 179.9201
77.703811 95.275 179.7928
78.266885 95.254 179.6637
78.834039 95.233 179.5315
79.405303 95.211 179.3951
79.980706 95.190 179.2535
80.560280 95.168 179.1064
81.144053 95.146 178.9542
81.732056 95.122 178.7975
82.324320 95.097 178.6382
82.920876 95.071 178.4782
83.521755 95.043 178.3198
84.126988 95.013 178.1658
84.736607 94.982 178.0187
85.350643 94.949 177.8806
85.969129 94.916 177.7527
