* Measurement data measured by REW V5.30 beta 4
* Source: EXCL: Microphone (Realtek(R) Audio), MICROPHONE (Master Volume), L, volume: 0.250
* Format: 256k Log Swept Sine, 1 sweep at -27.0 dBFS with no timing reference
* Dated: Dec 13, 2023 11:49:42 PM
* REW Settings:
*  C-weighting compensation: Off
*  Target level: 75.0 dB
* Note: 
* Measurement: R Oriolus Isabellae
* Smoothing: 1/24 octave
* Frequency Step: 96 ppo
* Start Frequency: 0.36621094 Hz
*
* Freq(Hz) SPL(dB) Phase(degrees)
0.366211 61.120 0.3034
0.368865 61.153 0.2746
0.371538 61.202 0.2335
0.374230 61.256 0.1877
0.376942 61.313 0.1407
0.379673 61.372 0.0936
0.382424 61.430 0.0469
0.385196 61.489 0.0006
0.387987 61.549 -0.0453
0.390798 61.609 -0.0907
0.393630 61.670 -0.1357
0.396483 61.730 -0.1803
0.399356 61.792 -0.2245
0.402250 61.854 -0.2684
0.405165 61.916 -0.3119
0.408101 61.978 -0.3550
0.411058 62.042 -0.3979
0.414037 62.105 -0.4405
0.417037 62.169 -0.4828
0.420059 62.234 -0.5249
0.423103 62.299 -0.5668
0.426169 62.364 -0.6085
0.429257 62.430 -0.6500
0.432367 62.497 -0.6915
0.435501 62.564 -0.7328
0.438656 62.631 -0.7741
0.441835 62.699 -0.8153
0.445037 62.767 -0.8565
0.448262 62.836 -0.8977
0.451510 62.905 -0.9390
0.454782 62.975 -0.9804
0.458077 63.046 -1.0219
0.461397 63.117 -1.0635
0.464740 63.188 -1.1054
0.468108 63.260 -1.1475
0.471500 63.332 -1.1898
0.474917 63.405 -1.2324
0.478358 63.479 -1.2754
0.481825 63.553 -1.3188
0.485316 63.627 -1.3625
0.488833 63.702 -1.4067
0.492375 63.778 -1.4515
0.495943 63.854 -1.4967
0.499537 63.931 -1.5425
0.503157 64.008 -1.5889
0.506803 64.086 -1.6360
0.510475 64.165 -1.6838
0.514174 64.244 -1.7323
0.517900 64.323 -1.7816
0.521653 64.403 -1.8317
0.525433 64.484 -1.8826
0.529241 64.565 -1.9345
0.533076 64.647 -1.9873
0.536939 64.730 -2.0412
0.540830 64.813 -2.0960
0.544749 64.897 -2.1520
0.548696 64.981 -2.2091
0.552673 65.066 -2.2673
0.556677 65.151 -2.3268
0.560711 65.237 -2.3875
0.564774 65.324 -2.4495
0.568867 65.412 -2.5129
0.572989 65.500 -2.5777
0.577141 65.588 -2.6439
0.581324 65.678 -2.7116
0.585536 65.768 -2.7809
0.589779 65.858 -2.8517
0.594053 65.949 -2.9242
0.598358 66.041 -2.9983
0.602694 66.134 -3.0742
0.607061 66.227 -3.1518
0.611460 66.321 -3.2312
0.615891 66.416 -3.3125
0.620354 66.511 -3.3957
0.624849 66.607 -3.4808
0.629377 66.704 -3.5679
0.633938 66.801 -3.6571
0.638532 66.899 -3.7483
0.643159 66.998 -3.8417
0.647819 67.098 -3.9373
0.652514 67.198 -4.0351
0.657242 67.299 -4.1351
0.662005 67.401 -4.2375
0.666802 67.503 -4.3422
0.671634 67.606 -4.4494
0.676501 67.710 -4.5590
0.681403 67.815 -4.6711
0.686341 67.920 -4.7857
0.691314 68.027 -4.9030
0.696324 68.134 -5.0228
0.701369 68.241 -5.1454
0.706452 68.350 -5.2707
0.711571 68.459 -5.3987
0.716727 68.569 -5.5295
0.721921 68.679 -5.6631
0.727153 68.789 -5.7991
0.732422 68.897 -5.9370
0.737729 69.001 -6.0756
0.743075 69.103 -6.2138
0.748460 69.205 -6.3509
0.753883 69.306 -6.4869
0.759346 69.407 -6.6216
0.764849 69.509 -6.7552
0.770391 69.611 -6.8876
0.775974 69.713 -7.0191
0.781597 69.816 -7.1497
0.787261 69.919 -7.2794
0.792965 70.022 -7.4084
0.798712 70.125 -7.5368
0.804499 70.229 -7.6647
0.810329 70.333 -7.7921
0.816201 70.437 -7.9191
0.822116 70.541 -8.0460
0.828073 70.646 -8.1726
0.834073 70.751 -8.2993
0.840118 70.856 -8.4259
0.846205 70.962 -8.5528
0.852337 71.067 -8.6799
0.858514 71.173 -8.8073
0.864735 71.280 -8.9352
0.871001 71.386 -9.0637
0.877313 71.493 -9.1928
0.883670 71.600 -9.3227
0.890074 71.707 -9.4535
0.896523 71.815 -9.5852
0.903020 71.923 -9.7181
0.909564 72.031 -9.8521
0.916155 72.139 -9.9874
0.922793 72.248 -10.1241
0.929480 72.357 -10.2623
0.936216 72.466 -10.4022
0.943000 72.575 -10.5437
0.949833 72.685 -10.6871
0.956716 72.795 -10.8324
0.963649 72.905 -10.9798
0.970632 73.015 -11.1293
0.977666 73.126 -11.2811
0.984750 73.237 -11.4352
0.991886 73.348 -11.5919
0.999074 73.460 -11.7511
1.006313 73.571 -11.9131
1.013605 73.683 -12.0779
1.020950 73.795 -12.2456
1.028349 73.908 -12.4164
1.035801 74.021 -12.5904
1.043306 74.134 -12.7676
1.050867 74.247 -12.9483
1.058482 74.361 -13.1325
1.066152 74.474 -13.3203
1.073878 74.588 -13.5119
1.081659 74.703 -13.7073
1.089498 74.817 -13.9064
1.097393 74.932 -14.1087
1.105345 75.047 -14.3134
1.113355 75.162 -14.5194
1.121422 75.277 -14.7261
1.129549 75.392 -14.9332
1.137734 75.507 -15.1406
1.145978 75.622 -15.3485
1.154283 75.737 -15.5568
1.162647 75.852 -15.7655
1.171072 75.967 -15.9747
1.179558 76.081 -16.1845
1.188106 76.196 -16.3949
1.196715 76.311 -16.6060
1.205387 76.425 -16.8179
1.214122 76.540 -17.0305
1.222920 76.655 -17.2440
1.231781 76.769 -17.4584
1.240708 76.884 -17.6737
1.249698 76.999 -17.8902
1.258754 77.113 -18.1078
1.267875 77.228 -18.3265
1.277063 77.342 -18.5466
1.286317 77.457 -18.7680
1.295638 77.571 -18.9908
1.305027 77.686 -19.2152
1.314484 77.801 -19.4412
1.324009 77.915 -19.6688
1.333603 78.030 -19.8983
1.343267 78.145 -20.1296
1.353001 78.260 -20.3629
1.362805 78.375 -20.5982
1.372681 78.490 -20.8357
1.382628 78.605 -21.0755
1.392647 78.721 -21.3176
1.402739 78.836 -21.5622
1.412904 78.952 -21.8094
1.423142 79.068 -22.0593
1.433455 79.184 -22.3119
1.443842 79.300 -22.5674
1.454305 79.416 -22.8257
1.464843 79.533 -23.0863
1.475458 79.649 -23.3488
1.486150 79.766 -23.6122
1.496919 79.882 -23.8764
1.507766 79.997 -24.1411
1.518692 80.113 -24.4064
1.529697 80.228 -24.6725
1.540782 80.343 -24.9392
1.551947 80.458 -25.2069
1.563193 80.573 -25.4755
1.574521 80.687 -25.7452
1.585931 80.801 -26.0161
1.597423 80.915 -26.2882
1.608998 81.029 -26.5618
1.620658 81.142 -26.8369
1.632402 81.255 -27.1137
1.644231 81.368 -27.3922
1.656146 81.481 -27.6727
1.668147 81.594 -27.9552
1.680235 81.706 -28.2400
1.692410 81.819 -28.5270
1.704674 81.931 -28.8166
1.717027 82.043 -29.1088
1.729469 82.155 -29.4039
1.742002 82.267 -29.7018
1.754625 82.378 -30.0030
1.767340 82.490 -30.3074
1.780147 82.602 -30.6153
1.793046 82.713 -30.9268
1.806040 82.825 -31.2422
1.819127 82.936 -31.5615
1.832309 83.047 -31.8849
1.845587 83.159 -32.2122
1.858961 83.269 -32.5431
1.872431 83.380 -32.8776
1.886000 83.489 -33.2152
1.899666 83.599 -33.5558
1.913432 83.707 -33.8992
1.927298 83.816 -34.2451
1.941264 83.924 -34.5933
1.955331 84.031 -34.9438
1.969500 84.138 -35.2962
1.983772 84.245 -35.6505
1.998147 84.351 -36.0065
2.012626 84.456 -36.3641
2.027211 84.562 -36.7231
2.041901 84.667 -37.0835
2.056697 84.771 -37.4452
2.071601 84.875 -37.8080
2.086613 84.979 -38.1719
2.101733 85.083 -38.5369
2.116963 85.186 -38.9028
2.132303 85.289 -39.2698
2.147755 85.391 -39.6377
2.163318 85.494 -40.0067
2.178995 85.596 -40.3769
2.194785 85.698 -40.7488
2.210689 85.800 -41.1232
2.226709 85.900 -41.5010
2.242844 86.001 -41.8824
2.259097 86.100 -42.2673
2.275467 86.199 -42.6553
2.291956 86.297 -43.0461
2.308565 86.394 -43.4394
2.325294 86.491 -43.8348
2.342144 86.587 -44.2319
2.359116 86.682 -44.6303
2.376211 86.777 -45.0297
2.393430 86.872 -45.4299
2.410774 86.965 -45.8304
2.428243 87.058 -46.2309
2.445839 87.151 -46.6312
2.463562 87.243 -47.0310
2.481415 87.335 -47.4300
2.499396 87.426 -47.8279
2.517508 87.517 -48.2246
2.535750 87.608 -48.6200
2.554126 87.698 -49.0146
2.572634 87.788 -49.4093
2.591276 87.877 -49.8056
2.610054 87.965 -50.2043
2.628967 88.052 -50.6058
2.648018 88.139 -51.0095
2.667206 88.224 -51.4153
2.686534 88.309 -51.8225
2.706002 88.393 -52.2308
2.725610 88.476 -52.6395
2.745361 88.559 -53.0484
2.765255 88.641 -53.4567
2.785294 88.722 -53.8641
2.805477 88.803 -54.2701
2.825807 88.883 -54.6742
2.846284 88.963 -55.0759
2.866909 89.042 -55.4748
2.887684 89.121 -55.8705
2.908609 89.200 -56.2629
2.929686 89.278 -56.6526
2.950916 89.356 -57.0409
2.972299 89.433 -57.4291
2.993838 89.509 -57.8179
3.015532 89.584 -58.2072
3.037384 89.658 -58.5967
3.059394 89.732 -58.9860
3.081564 89.804 -59.3747
3.103894 89.877 -59.7624
3.126386 89.948 -60.1485
3.149041 90.019 -60.5327
3.171861 90.090 -60.9143
3.194845 90.160 -61.2929
3.217996 90.230 -61.6680
3.241315 90.300 -62.0392
3.264803 90.370 -62.4059
3.288461 90.440 -62.7684
3.312291 90.509 -63.1270
3.336293 90.578 -63.4828
3.360469 90.646 -63.8364
3.384820 90.713 -64.1879
3.409348 90.780 -64.5375
3.434054 90.847 -64.8850
3.458938 90.913 -65.2304
3.484003 90.978 -65.5736
3.509250 91.044 -65.9143
3.534679 91.109 -66.2525
3.560293 91.174 -66.5880
3.586092 91.239 -66.9205
3.612079 91.305 -67.2500
3.638253 91.370 -67.5761
3.664618 91.436 -67.8989
3.691173 91.501 -68.2182
3.717921 91.567 -68.5343
3.744862 91.632 -68.8474
3.771999 91.697 -69.1576
3.799332 91.762 -69.4655
3.826864 91.826 -69.7711
3.854595 91.891 -70.0747
3.882527 91.956 -70.3768
3.910661 92.021 -70.6774
3.938999 92.086 -70.9768
3.967543 92.151 -71.2753
3.996294 92.217 -71.5730
4.025252 92.283 -71.8696
4.054421 92.349 -72.1647
4.083801 92.415 -72.4580
4.113394 92.482 -72.7494
4.143201 92.549 -73.0391
4.173225 92.616 -73.3276
4.203466 92.683 -73.6154
4.233926 92.750 -73.9030
4.264606 92.817 -74.1909
4.295509 92.885 -74.4796
4.326636 92.952 -74.7696
4.357989 93.020 -75.0612
4.389569 93.088 -75.3546
4.421378 93.157 -75.6495
4.453417 93.225 -75.9453
4.485688 93.294 -76.2418
4.518193 93.363 -76.5392
4.550934 93.432 -76.8376
4.583912 93.501 -77.1372
4.617129 93.570 -77.4384
4.650587 93.639 -77.7414
4.684287 93.708 -78.0465
4.718231 93.776 -78.3540
4.752421 93.845 -78.6640
4.786859 93.914 -78.9769
4.821547 93.982 -79.2925
4.856485 94.051 -79.6106
4.891677 94.119 -79.9311
4.927125 94.187 -80.2537
4.962829 94.255 -80.5782
4.998791 94.323 -80.9044
5.035015 94.391 -81.2321
5.071500 94.458 -81.5611
5.108251 94.524 -81.8917
5.145267 94.591 -82.2241
5.182552 94.657 -82.5587
5.220107 94.722 -82.8957
5.257934 94.787 -83.2349
5.296035 94.852 -83.5757
5.334412 94.917 -83.9177
5.373067 94.981 -84.2602
5.412003 95.044 -84.6027
5.451221 95.107 -84.9449
5.490722 95.170 -85.2867
5.530510 95.233 -85.6285
5.570587 95.295 -85.9710
5.610953 95.356 -86.3141
5.651613 95.417 -86.6576
5.692567 95.477 -87.0010
5.733818 95.538 -87.3440
5.775367 95.598 -87.6859
5.817218 95.657 -88.0264
5.859372 95.717 -88.3654
5.901831 95.776 -88.7030
5.944598 95.835 -89.0395
5.987675 95.894 -89.3751
6.031065 95.952 -89.7099
6.074768 96.010 -90.0439
6.118788 96.068 -90.3771
6.163127 96.127 -90.7092
6.207788 96.185 -91.0403
6.252772 96.243 -91.3703
6.298082 96.301 -91.6990
6.343721 96.359 -92.0267
6.389690 96.417 -92.3537
6.435992 96.476 -92.6804
6.482630 96.534 -93.0069
6.529606 96.592 -93.3337
6.576922 96.650 -93.6610
6.624581 96.709 -93.9886
6.672585 96.767 -94.3163
6.720938 96.826 -94.6444
6.769640 96.885 -94.9729
6.818696 96.944 -95.3022
6.868107 97.003 -95.6328
6.917876 97.061 -95.9648
6.968006 97.120 -96.2986
7.018499 97.179 -96.6341
7.069358 97.238 -96.9712
7.120586 97.297 -97.3098
7.172184 97.355 -97.6500
7.224157 97.414 -97.9916
7.276506 97.472 -98.3347
7.329235 97.530 -98.6795
7.382345 97.588 -99.0262
7.435841 97.646 -99.3747
7.489724 97.703 -99.7249
7.543997 97.760 -100.0763
7.598664 97.817 -100.4286
7.653728 97.874 -100.7813
7.709189 97.930 -101.1347
7.765053 97.985 -101.4888
7.821322 98.041 -101.8438
7.877998 98.096 -102.1993
7.935086 98.150 -102.5549
7.992587 98.205 -102.9102
8.050504 98.259 -103.2647
8.108841 98.312 -103.6187
8.167601 98.365 -103.9722
8.226787 98.418 -104.3253
8.286402 98.471 -104.6779
8.346449 98.524 -105.0296
8.406931 98.576 -105.3804
8.467851 98.628 -105.7301
8.529212 98.680 -106.0789
8.591018 98.732 -106.4270
8.653272 98.784 -106.7744
8.715977 98.835 -107.1213
8.779137 98.886 -107.4678
8.842754 98.938 -107.8139
8.906833 98.989 -108.1595
8.971375 99.040 -108.5050
9.036386 99.091 -108.8504
9.101867 99.142 -109.1960
9.167823 99.193 -109.5419
9.234257 99.243 -109.8882
9.301172 99.294 -110.2349
9.368572 99.344 -110.5820
9.436460 99.394 -110.9295
9.504841 99.443 -111.2773
9.573717 99.493 -111.6257
9.643092 99.542 -111.9746
9.712970 99.590 -112.3239
9.783354 99.639 -112.6733
9.854248 99.686 -113.0225
9.925656 99.734 -113.3715
9.997581 99.781 -113.7204
10.070028 99.828 -114.0691
10.143000 99.874 -114.4171
10.216500 99.920 -114.7642
10.290533 99.965 -115.1103
10.365103 100.010 -115.4553
10.440212 100.055 -115.7992
10.515866 100.099 -116.1420
10.592069 100.143 -116.4834
10.668823 100.186 -116.8233
10.746134 100.230 -117.1619
10.824005 100.273 -117.4992
10.902440 100.316 -117.8354
10.981443 100.358 -118.1706
11.061020 100.400 -118.5047
11.141172 100.443 -118.8380
11.221906 100.484 -119.1705
11.303225 100.526 -119.5027
11.385133 100.568 -119.8345
11.467634 100.609 -120.1663
11.550734 100.650 -120.4979
11.634435 100.691 -120.8297
11.718742 100.731 -121.1617
11.803661 100.771 -121.4941
11.889195 100.811 -121.8268
11.975349 100.851 -122.1600
12.062128 100.890 -122.4934
12.149535 100.929 -122.8272
12.237576 100.967 -123.1614
12.326254 101.005 -123.4958
12.415575 101.042 -123.8302
12.505544 101.079 -124.1645
12.596164 101.115 -124.4988
12.687441 101.151 -124.8329
12.779379 101.187 -125.1666
12.871984 101.222 -125.4997
12.965260 101.256 -125.8323
13.059211 101.290 -126.1642
13.153843 101.324 -126.4954
13.249161 101.357 -126.8258
13.345170 101.390 -127.1552
13.441875 101.422 -127.4839
13.539280 101.454 -127.8116
13.637391 101.486 -128.1385
13.736214 101.518 -128.4645
13.835752 101.549 -128.7897
13.936011 101.580 -129.1142
14.036998 101.610 -129.4381
14.138716 101.641 -129.7614
14.241171 101.671 -130.0843
14.344368 101.701 -130.4069
14.448313 101.730 -130.7292
14.553011 101.760 -131.0516
14.658468 101.789 -131.3741
14.764689 101.818 -131.6968
14.871680 101.847 -132.0199
14.979446 101.876 -132.3434
15.087994 101.904 -132.6674
15.197328 101.933 -132.9919
15.307454 101.960 -133.3169
15.418378 101.988 -133.6422
15.530106 102.015 -133.9679
15.642643 102.042 -134.2937
15.755996 102.068 -134.6193
15.870171 102.094 -134.9446
15.985172 102.120 -135.2694
16.101007 102.145 -135.5933
16.217682 102.170 -135.9162
16.335201 102.195 -136.2379
16.453573 102.219 -136.5583
16.572803 102.244 -136.8774
16.692898 102.268 -137.1951
16.813862 102.292 -137.5117
16.935701 102.316 -137.8272
17.058424 102.339 -138.1418
17.182035 102.363 -138.4559
17.306543 102.387 -138.7697
17.431953 102.410 -139.0833
17.558273 102.434 -139.3970
17.685509 102.457 -139.7109
17.813665 102.480 -140.0249
17.942751 102.503 -140.3391
18.072771 102.525 -140.6532
18.203733 102.547 -140.9669
18.335646 102.569 -141.2800
18.468513 102.590 -141.5920
18.602345 102.611 -141.9026
18.737144 102.631 -142.2114
18.872921 102.651 -142.5183
19.009682 102.671 -142.8230
19.147434 102.691 -143.1255
19.286184 102.710 -143.4259
19.425940 102.730 -143.7244
19.566708 102.749 -144.0213
19.708496 102.768 -144.3171
19.851313 102.788 -144.6122
19.995163 102.807 -144.9069
20.140057 102.826 -145.2017
20.285999 102.845 -145.4968
20.433001 102.863 -145.7923
20.581066 102.882 -146.0883
20.730206 102.900 -146.3846
20.880424 102.917 -146.6809
21.031733 102.934 -146.9769
21.184137 102.950 -147.2721
21.337646 102.966 -147.5661
21.492268 102.982 -147.8585
21.648010 102.997 -148.1489
21.804880 103.012 -148.4372
21.962887 103.026 -148.7234
22.122040 103.040 -149.0074
22.282345 103.055 -149.2897
22.443811 103.069 -149.5707
22.606449 103.083 -149.8507
22.770266 103.097 -150.1303
22.935268 103.111 -150.4100
23.101467 103.125 -150.6901
23.268869 103.139 -150.9710
23.437485 103.153 -151.2526
23.607323 103.167 -151.5349
23.778391 103.180 -151.8176
23.950699 103.193 -152.1003
24.124256 103.205 -152.3827
24.299070 103.217 -152.6643
24.475151 103.229 -152.9448
24.652508 103.241 -153.2240
24.831150 103.252 -153.5017
25.011087 103.263 -153.7781
25.192327 103.275 -154.0533
25.374882 103.286 -154.3276
25.558758 103.297 -154.6013
25.743967 103.308 -154.8746
25.930519 103.319 -155.1476
26.118422 103.330 -155.4203
26.307686 103.340 -155.6926
26.498322 103.350 -155.9642
26.690340 103.360 -156.2349
26.883749 103.370 -156.5044
27.078560 103.380 -156.7726
27.274782 103.389 -157.0394
27.472427 103.399 -157.3047
27.671503 103.408 -157.5687
27.872023 103.417 -157.8317
28.073996 103.425 -158.0938
28.277431 103.434 -158.3552
28.482342 103.443 -158.6160
28.688736 103.451 -158.8760
28.896626 103.459 -159.1353
29.106022 103.466 -159.3937
29.316936 103.474 -159.6510
29.529379 103.481 -159.9073
29.743361 103.488 -160.1625
29.958893 103.495 -160.4168
30.175987 103.502 -160.6704
30.394655 103.508 -160.9236
30.614908 103.515 -161.1768
30.836756 103.521 -161.4300
31.060211 103.527 -161.6833
31.285286 103.532 -161.9364
31.511992 103.538 -162.1891
31.740341 103.543 -162.4408
31.970345 103.548 -162.6913
32.202015 103.552 -162.9404
32.435364 103.557 -163.1880
32.670403 103.562 -163.4347
32.907146 103.566 -163.6810
33.145607 103.571 -163.9276
33.385796 103.576 -164.1753
33.627724 103.581 -164.4244
33.871403 103.586 -164.6748
34.116848 103.590 -164.9259
34.364071 103.594 -165.1768
34.613087 103.597 -165.4262
34.863907 103.600 -165.6730
35.116547 103.603 -165.9163
35.371017 103.606 -166.1561
35.627331 103.609 -166.3928
35.885502 103.612 -166.6276
36.145542 103.615 -166.8620
36.407467 103.619 -167.0974
36.671291 103.622 -167.3345
36.937027 103.625 -167.5735
37.204689 103.628 -167.8134
37.474289 103.630 -168.0529
37.745842 103.631 -168.2903
38.019363 103.632 -168.5247
38.294868 103.633 -168.7561
38.572369 103.634 -168.9855
38.851879 103.635 -169.2146
39.133415 103.636 -169.4448
39.416992 103.637 -169.6770
39.702625 103.637 -169.9102
39.990326 103.637 -170.1428
40.280113 103.636 -170.3727
40.571999 103.635 -170.5988
40.866001 103.634 -170.8217
41.162132 103.634 -171.0439
41.460411 103.635 -171.2688
41.760849 103.636 -171.4992
42.063465 103.636 -171.7359
42.368275 103.636 -171.9769
42.675293 103.635 -172.2186
42.984535 103.632 -172.4571
43.296021 103.629 -172.6896
43.609760 103.626 -172.9160
43.925774 103.624 -173.1379
44.244080 103.622 -173.3580
44.564690 103.620 -173.5787
44.887623 103.619 -173.8006
45.212898 103.617 -174.0239
45.540531 103.615 -174.2479
45.870537 103.613 -174.4725
46.202934 103.611 -174.6976
46.537739 103.608 -174.9232
46.874969 103.605 -175.1483
47.214645 103.601 -175.3716
47.556782 103.597 -175.5924
47.901398 103.593 -175.8115
48.248512 103.589 -176.0315
48.598141 103.585 -176.2546
48.950302 103.581 -176.4813
49.305016 103.576 -176.7091
49.662300 103.569 -176.9332
50.022175 103.562 -177.1491
50.384655 103.555 -177.3554
50.749763 103.549 -177.5551
51.117516 103.545 -177.7548
51.487934 103.542 -177.9610
51.861038 103.539 -178.1768
52.236843 103.534 -178.3994
52.615372 103.528 -178.6210
52.996643 103.520 -178.8328
53.380680 103.511 -179.0295
53.767498 103.504 -179.2121
54.157120 103.498 -179.3881
54.549564 103.494 -179.5670
54.944855 103.491 -179.7555
55.343006 103.487 -179.9553
55.744045 103.482 179.8370
56.147991 103.476 179.6254
56.554863 103.469 179.4123
56.964684 103.461 179.1982
57.377472 103.452 178.9830
57.793251 103.443 178.7672
58.212044 103.433 178.5506
58.633873 103.423 178.3316
59.058758 103.413 178.1087
59.486721 103.402 177.8839
59.917786 103.390 177.6645
60.351974 103.377 177.4589
60.789310 103.366 177.2692
61.229816 103.358 177.0875
61.673512 103.353 176.9003
62.120422 103.349 176.6982
62.570572 103.343 176.4835
63.023983 103.335 176.2678
63.480682 103.324 176.0635
63.940689 103.311 175.8769
64.404030 103.298 175.7076
64.870728 103.284 175.5534
65.340805 103.270 175.4112
65.814293 103.258 175.2743
66.291214 103.247 175.1288
66.771591 103.237 174.9590
67.255447 103.223 174.7608
67.742805 103.205 174.5491
68.233696 103.182 174.3489
68.728142 103.159 174.1718
69.226173 103.139 174.0004
69.727814 103.123 173.8040
70.233093 103.106 173.5710
70.742035 103.083 173.3260
71.254662 103.057 173.1082
71.771004 103.031 172.9341
72.291084 103.010 172.7849
72.814934 102.993 172.6337
73.342583 102.976 172.4791
73.874054 102.957 172.3458
74.409378 102.938 172.2546
74.948578 102.923 172.1971
75.491684 102.913 172.1450
76.038727 102.904 172.0791
76.589737 102.895 172.0056
77.144737 102.884 171.9417
77.703758 102.873 171.8922
78.266830 102.866 171.8434
78.833984 102.861 171.7775
79.405251 102.857 171.6878
79.980652 102.852 171.5796
80.560226 102.847 171.4597
81.143997 102.842 171.3312
81.732002 102.837 171.1926
82.324265 102.833 171.0411
