* Measurement data measured by REW V5.31.3
* Source: EXCL: Microphone (USB Sound Device        ), MICROPHONE (Master Volume), R, volume: 0.390
* Format: 256k Log Swept Sine, 1 sweep at -12.0 dBFS with no timing reference
* Dated: Jul 10, 2025 12:00:18 AM
* REW Settings:
*  C-weighting compensation: Off
*  Target level: 75.0 dB
* Note: Plunge Dynamic L
* Measurement: L Jul 10
* Smoothing: 1/12 octave
* Frequency Step: 96 ppo
* Start Frequency: 0.36621094 Hz
*
* Freq(Hz) SPL(dB) Phase(degrees)
0.366211 93.194 160.3750
0.368865 93.188 160.3546
0.371538 93.179 160.3240
0.374230 93.168 160.2856
0.376942 93.156 160.2413
0.379673 93.143 160.1926
0.382424 93.129 160.1404
0.385196 93.115 160.0854
0.387987 93.101 160.0279
0.390798 93.087 159.9681
0.393630 93.072 159.9060
0.396483 93.057 159.8417
0.399356 93.043 159.7752
0.402250 93.028 159.7064
0.405165 93.013 159.6355
0.408101 92.997 159.5622
0.411058 92.982 159.4867
0.414037 92.967 159.4090
0.417037 92.951 159.3288
0.420059 92.936 159.2464
0.423103 92.920 159.1616
0.426169 92.904 159.0744
0.429257 92.888 158.9849
0.432368 92.872 158.8929
0.435501 92.856 158.7984
0.438656 92.840 158.7016
0.441835 92.823 158.6022
0.445037 92.807 158.5004
0.448262 92.790 158.3960
0.451510 92.773 158.2891
0.454782 92.756 158.1796
0.458077 92.739 158.0676
0.461397 92.722 157.9530
0.464740 92.705 157.8358
0.468108 92.687 157.7160
0.471500 92.670 157.5935
0.474917 92.652 157.4684
0.478358 92.634 157.3407
0.481825 92.617 157.2103
0.485316 92.599 157.0772
0.488833 92.580 156.9414
0.492375 92.562 156.8030
0.495943 92.544 156.6618
0.499537 92.525 156.5179
0.503157 92.506 156.3714
0.506803 92.488 156.2221
0.510475 92.469 156.0701
0.514175 92.449 155.9153
0.517900 92.430 155.7579
0.521653 92.411 155.5977
0.525434 92.391 155.4348
0.529241 92.372 155.2693
0.533076 92.352 155.1010
0.536939 92.332 154.9300
0.540830 92.312 154.7564
0.544749 92.292 154.5801
0.548696 92.271 154.4012
0.552673 92.251 154.2197
0.556677 92.230 154.0356
0.560711 92.209 153.8488
0.564774 92.188 153.6596
0.568867 92.167 153.4678
0.572989 92.146 153.2736
0.577141 92.124 153.0769
0.581324 92.103 152.8779
0.585536 92.081 152.6765
0.589779 92.059 152.4727
0.594053 92.037 152.2668
0.598358 92.015 152.0586
0.602694 91.992 151.8483
0.607061 91.970 151.6359
0.611460 91.947 151.4216
0.615891 91.924 151.2053
0.620354 91.901 150.9872
0.624849 91.878 150.7673
0.629377 91.854 150.5458
0.633938 91.831 150.3227
0.638532 91.807 150.0982
0.643159 91.783 149.8723
0.647819 91.759 149.6452
0.652514 91.735 149.4170
0.657242 91.711 149.1878
0.662005 91.686 148.9578
0.666802 91.661 148.7271
0.671634 91.636 148.4958
0.676501 91.611 148.2642
0.681403 91.586 148.0324
0.686341 91.560 147.8006
0.691314 91.534 147.5689
0.696324 91.508 147.3376
0.701370 91.482 147.1067
0.706452 91.455 146.8765
0.711571 91.428 146.6470
0.716728 91.400 146.4181
0.721921 91.371 146.1898
0.727153 91.340 145.9615
0.732422 91.308 145.7325
0.737729 91.273 145.5022
0.743075 91.236 145.2693
0.748460 91.197 145.0334
0.753883 91.158 144.7935
0.759346 91.117 144.5494
0.764849 91.075 144.3007
0.770391 91.033 144.0472
0.775974 90.990 143.7888
0.781597 90.947 143.5254
0.787261 90.903 143.2569
0.792966 90.859 142.9832
0.798712 90.814 142.7043
0.804500 90.768 142.4202
0.810329 90.722 142.1307
0.816201 90.676 141.8360
0.822116 90.628 141.5358
0.828073 90.580 141.2302
0.834074 90.532 140.9191
0.840118 90.482 140.6026
0.846206 90.432 140.2807
0.852338 90.381 139.9532
0.858514 90.329 139.6202
0.864735 90.276 139.2818
0.871001 90.222 138.9379
0.877313 90.168 138.5885
0.883670 90.112 138.2337
0.890074 90.055 137.8735
0.896524 89.997 137.5079
0.903020 89.938 137.1371
0.909564 89.877 136.7611
0.916155 89.816 136.3800
0.922794 89.753 135.9939
0.929481 89.688 135.6028
0.936216 89.622 135.2071
0.943000 89.555 134.8067
0.949834 89.486 134.4020
0.956717 89.415 133.9930
0.963649 89.343 133.5800
0.970632 89.269 133.1633
0.977666 89.194 132.7432
0.984750 89.116 132.3198
0.991886 89.036 131.8937
0.999074 88.955 131.4651
1.006314 88.871 131.0345
1.013606 88.785 130.6022
1.020951 88.696 130.1689
1.028349 88.606 129.7349
1.035801 88.513 129.3009
1.043307 88.417 128.8674
1.050867 88.319 128.4352
1.058482 88.218 128.0048
1.066152 88.114 127.5769
1.073878 88.008 127.1521
1.081660 87.898 126.7308
1.089498 87.786 126.3134
1.097393 87.671 125.8998
1.105345 87.553 125.4897
1.113355 87.432 125.0827
1.121423 87.309 124.6782
1.129549 87.183 124.2756
1.137734 87.055 123.8744
1.145979 86.924 123.4743
1.154283 86.790 123.0747
1.162647 86.654 122.6755
1.171072 86.515 122.2762
1.179558 86.374 121.8765
1.188106 86.229 121.4760
1.196715 86.082 121.0745
1.205387 85.932 120.6714
1.214122 85.778 120.2665
1.222920 85.622 119.8592
1.231782 85.462 119.4491
1.240708 85.299 119.0357
1.249699 85.132 118.6186
1.258754 84.963 118.1971
1.267876 84.789 117.7706
1.277063 84.612 117.3385
1.286318 84.431 116.9002
1.295639 84.247 116.4549
1.305027 84.058 116.0018
1.314484 83.865 115.5401
1.324009 83.669 115.0688
1.333604 83.468 114.5871
1.343268 83.262 114.0938
1.353002 83.053 113.5878
1.362806 82.838 113.0680
1.372681 82.619 112.5331
1.382628 82.395 111.9816
1.392647 82.167 111.4123
1.402739 81.933 110.8236
1.412904 81.693 110.2139
1.423142 81.448 109.5819
1.433455 81.195 108.9261
1.443843 80.936 108.2454
1.454305 80.667 107.5388
1.464844 80.387 106.8056
1.475459 80.093 106.0452
1.486150 79.783 105.2565
1.496920 79.455 104.4376
1.507767 79.107 103.5855
1.518693 78.741 102.6963
1.529698 78.355 101.7645
1.540783 77.951 100.7834
1.551948 77.530 99.7449
1.563194 77.094 98.6386
1.574521 76.645 97.4521
1.585931 76.184 96.1699
1.597423 75.713 94.7725
1.608999 75.236 93.2353
1.620658 74.754 91.5268
1.632402 74.270 89.6061
1.644232 73.786 87.4196
1.656146 73.306 84.8956
1.668147 72.832 81.9377
1.680235 72.368 78.4143
1.692411 71.918 74.1455
1.704675 71.484 68.8868
1.717028 71.072 62.3179
1.729470 70.685 54.0600
1.742003 70.328 43.7760
1.754626 70.006 31.4324
1.767341 69.724 17.6591
1.780147 69.487 3.7816
1.793047 69.301 -8.8215
1.806040 69.172 -19.4231
1.819128 69.104 -27.9983
1.832310 69.102 -34.8722
1.845587 69.168 -40.4338
1.858961 69.304 -45.0145
1.872432 69.508 -48.8635
1.886001 69.778 -52.1598
1.899667 70.110 -55.0301
1.913433 70.499 -57.5650
1.927299 70.939 -59.8300
1.941265 71.425 -61.8735
1.955332 71.951 -63.7318
1.969501 72.510 -65.4327
1.983773 73.097 -66.9978
1.998148 73.705 -68.4441
2.012627 74.328 -69.7850
2.027212 74.959 -71.0314
2.041902 75.592 -72.1919
2.056698 76.222 -73.2737
2.071602 76.841 -74.2827
2.086614 77.444 -75.2238
2.101734 78.026 -76.1012
2.116964 78.580 -76.9189
2.132304 79.102 -77.6807
2.147756 79.588 -78.3907
2.163320 80.035 -79.0541
2.178996 80.443 -79.6770
2.194786 80.813 -80.2672
2.210690 81.147 -80.8330
2.226710 81.450 -81.3827
2.242845 81.724 -81.9224
2.259098 81.974 -82.4561
2.275468 82.201 -82.9856
2.291957 82.408 -83.5115
2.308566 82.596 -84.0331
2.325295 82.768 -84.5492
2.342145 82.924 -85.0582
2.359117 83.066 -85.5581
2.376212 83.196 -86.0472
2.393431 83.316 -86.5232
2.410775 83.427 -86.9841
2.428244 83.531 -87.4276
2.445840 83.631 -87.8517
2.463564 83.727 -88.2543
2.481416 83.823 -88.6334
2.499397 83.918 -88.9876
2.517509 84.015 -89.3159
2.535752 84.114 -89.6183
2.554127 84.214 -89.8956
2.572635 84.314 -90.1500
2.591277 84.414 -90.3843
2.610055 84.510 -90.6013
2.628968 84.603 -90.8032
2.648019 84.691 -90.9917
2.667208 84.773 -91.1676
2.686535 84.852 -91.3315
2.706003 84.925 -91.4836
2.725612 84.995 -91.6236
2.745363 85.062 -91.7514
2.765257 85.125 -91.8666
2.785295 85.187 -91.9687
2.805478 85.248 -92.0572
2.825808 85.308 -92.1315
2.846285 85.367 -92.1909
2.866910 85.428 -92.2346
2.887685 85.489 -92.2620
2.908611 85.551 -92.2720
2.929688 85.615 -92.2641
2.950917 85.678 -92.2377
2.972301 85.742 -92.1925
2.993839 85.805 -92.1290
3.015534 85.867 -92.0481
3.037386 85.929 -91.9513
3.059396 85.991 -91.8401
3.081565 86.052 -91.7166
3.103896 86.113 -91.5828
3.126388 86.174 -91.4407
3.149043 86.236 -91.2925
3.171862 86.299 -91.1402
3.194847 86.363 -90.9857
3.217998 86.429 -90.8306
3.241317 86.497 -90.6759
3.264805 86.567 -90.5217
3.288463 86.639 -90.3676
3.312293 86.714 -90.2121
3.336295 86.792 -90.0540
3.360471 86.872 -89.8926
3.384822 86.953 -89.7284
3.409350 87.037 -89.5626
3.434056 87.123 -89.3976
3.458940 87.210 -89.2362
3.484005 87.298 -89.0813
3.509252 87.387 -88.9361
3.534681 87.477 -88.8039
3.560295 87.567 -88.6874
3.586094 87.658 -88.5892
3.612081 87.749 -88.5112
3.638255 87.841 -88.4545
3.664620 87.933 -88.4190
3.691175 88.026 -88.4040
3.717923 88.119 -88.4083
3.744864 88.213 -88.4306
3.772001 88.307 -88.4701
3.799335 88.402 -88.5261
3.826866 88.496 -88.5985
3.854597 88.590 -88.6873
3.882529 88.684 -88.7924
3.910664 88.776 -88.9142
3.939002 88.866 -89.0532
3.967546 88.955 -89.2097
3.996296 89.041 -89.3846
4.025255 89.126 -89.5782
4.054423 89.208 -89.7912
4.083804 89.287 -90.0236
4.113396 89.365 -90.2747
4.143204 89.441 -90.5433
4.173227 89.514 -90.8279
4.203468 89.585 -91.1264
4.233928 89.654 -91.4371
4.264609 89.719 -91.7579
4.295512 89.783 -92.0874
4.326639 89.843 -92.4245
4.357992 89.900 -92.7689
4.389572 89.954 -93.1210
4.421380 90.004 -93.4816
4.453419 90.051 -93.8516
4.485691 90.094 -94.2310
4.518196 90.135 -94.6191
4.550936 90.171 -95.0141
4.583914 90.205 -95.4135
4.617131 90.236 -95.8147
4.650589 90.264 -96.2151
4.684289 90.289 -96.6123
4.718233 90.312 -97.0046
4.752424 90.331 -97.3912
4.786862 90.348 -97.7723
4.821549 90.362 -98.1486
4.856488 90.372 -98.5205
4.891680 90.380 -98.8881
4.927127 90.386 -99.2507
4.962831 90.389 -99.6073
4.998794 90.391 -99.9565
5.035017 90.391 -100.2965
5.071503 90.390 -100.6258
5.108253 90.388 -100.9433
5.145270 90.385 -101.2482
5.182555 90.381 -101.5403
5.220110 90.376 -101.8201
5.257937 90.370 -102.0885
5.296038 90.364 -102.3467
5.334415 90.358 -102.5958
5.373071 90.352 -102.8368
5.412006 90.347 -103.0706
5.451224 90.343 -103.2974
5.490725 90.341 -103.5175
5.530514 90.340 -103.7305
5.570590 90.341 -103.9369
5.610957 90.343 -104.1375
5.651616 90.346 -104.3343
5.692570 90.351 -104.5299
5.733821 90.358 -104.7269
5.775370 90.367 -104.9281
5.817221 90.378 -105.1357
5.859375 90.391 -105.3509
5.901834 90.407 -105.5745
5.944602 90.424 -105.8068
5.987679 90.444 -106.0486
6.031068 90.465 -106.3011
6.074771 90.488 -106.5660
6.118792 90.512 -106.8453
6.163131 90.537 -107.1409
6.207792 90.564 -107.4543
6.252776 90.590 -107.7864
6.298086 90.618 -108.1373
6.343725 90.646 -108.5065
6.389694 90.675 -108.8935
6.435996 90.703 -109.2973
6.482634 90.731 -109.7173
6.529610 90.759 -110.1530
6.576926 90.786 -110.6043
6.624585 90.812 -111.0709
6.672590 90.836 -111.5525
6.720942 90.860 -112.0479
6.769645 90.882 -112.5553
6.818700 90.903 -113.0723
6.868111 90.923 -113.5965
6.917881 90.941 -114.1260
6.968010 90.958 -114.6595
7.018504 90.973 -115.1960
7.069362 90.987 -115.7348
7.120590 90.999 -116.2743
7.172189 91.010 -116.8125
7.224161 91.020 -117.3473
7.276511 91.030 -117.8764
7.329239 91.039 -118.3983
7.382350 91.048 -118.9119
7.435845 91.056 -119.4169
7.489729 91.064 -119.9128
7.544002 91.073 -120.3992
7.598669 91.082 -120.8755
7.653732 91.092 -121.3412
7.709194 91.104 -121.7959
7.765058 91.117 -122.2394
7.821327 91.131 -122.6723
7.878004 91.147 -123.0956
7.935091 91.165 -123.5104
7.992592 91.185 -123.9180
8.050510 91.208 -124.3194
8.108847 91.232 -124.7153
8.167607 91.259 -125.1066
8.226793 91.289 -125.4942
8.286408 91.320 -125.8798
8.346454 91.354 -126.2647
8.406936 91.389 -126.6502
8.467856 91.426 -127.0372
8.529218 91.465 -127.4261
8.591024 91.505 -127.8172
8.653278 91.546 -128.2107
8.715983 91.588 -128.6067
8.779143 91.630 -129.0052
8.842760 91.673 -129.4063
8.906839 91.716 -129.8093
8.971381 91.759 -130.2133
9.036392 91.802 -130.6173
9.101873 91.844 -131.0199
9.167829 91.885 -131.4202
9.234263 91.926 -131.8171
9.301178 91.965 -132.2096
9.368578 92.004 -132.5963
9.436467 92.042 -132.9759
9.504847 92.079 -133.3470
9.573723 92.115 -133.7087
9.643099 92.151 -134.0602
9.712976 92.185 -134.4010
9.783361 92.219 -134.7306
9.854255 92.253 -135.0485
9.925663 92.286 -135.3546
9.997588 92.319 -135.6488
10.070035 92.352 -135.9316
10.143007 92.384 -136.2035
10.216507 92.416 -136.4651
10.290540 92.449 -136.7171
10.365109 92.481 -136.9601
10.440219 92.514 -137.1951
10.515873 92.546 -137.4230
10.592076 92.578 -137.6447
10.668830 92.610 -137.8610
10.746141 92.641 -138.0726
10.824012 92.672 -138.2800
10.902447 92.703 -138.4838
10.981451 92.732 -138.6845
11.061027 92.761 -138.8823
11.141180 92.789 -139.0775
11.221913 92.816 -139.2700
11.303232 92.842 -139.4598
11.385140 92.867 -139.6471
11.467641 92.890 -139.8317
11.550741 92.912 -140.0136
11.634442 92.934 -140.1929
11.718750 92.953 -140.3696
11.803669 92.972 -140.5439
11.889203 92.989 -140.7158
11.975357 93.006 -140.8859
12.062136 93.021 -141.0545
12.149543 93.035 -141.2220
12.237583 93.048 -141.3889
12.326262 93.060 -141.5557
12.415583 93.071 -141.7230
12.505552 93.081 -141.8913
12.596172 93.090 -142.0609
12.687449 93.098 -142.2323
12.779387 93.104 -142.4058
12.871992 93.110 -142.5815
12.965268 93.114 -142.7596
13.059220 93.117 -142.9402
13.153852 93.120 -143.1232
13.249170 93.121 -143.3085
13.345179 93.121 -143.4964
13.441884 93.121 -143.6868
13.539289 93.120 -143.8799
13.637401 93.119 -144.0760
13.736223 93.117 -144.2754
13.835761 93.115 -144.4788
13.936021 93.113 -144.6868
14.037007 93.111 -144.9001
14.138725 93.109 -145.1196
14.241180 93.107 -145.3462
14.344377 93.106 -145.5807
14.448323 93.104 -145.8237
14.553021 93.103 -146.0757
14.658478 93.103 -146.3372
14.764700 93.102 -146.6080
14.871691 93.101 -146.8879
14.979457 93.100 -147.1764
15.088005 93.099 -147.4725
15.197339 93.098 -147.7753
15.307465 93.097 -148.0833
15.418389 93.096 -148.3951
15.530117 93.095 -148.7094
15.642655 93.094 -149.0248
15.756008 93.093 -149.3400
15.870182 93.093 -149.6539
15.985184 93.094 -149.9658
16.101019 93.096 -150.2751
16.217694 93.099 -150.5816
16.335214 93.103 -150.8853
16.453586 93.109 -151.1863
16.572815 93.116 -151.4850
16.692909 93.125 -151.7818
16.813872 93.135 -152.0770
16.935713 93.147 -152.3707
17.058436 93.160 -152.6631
17.182048 93.174 -152.9539
17.306556 93.189 -153.2427
17.431967 93.204 -153.5289
17.558286 93.220 -153.8115
17.685521 93.236 -154.0897
17.813677 93.252 -154.3623
17.942762 93.269 -154.6283
18.072783 93.285 -154.8865
18.203746 93.301 -155.1362
18.335658 93.317 -155.3766
18.468526 93.333 -155.6073
18.602356 93.349 -155.8280
18.737156 93.365 -156.0388
18.872934 93.381 -156.2398
19.009695 93.396 -156.4316
19.147447 93.411 -156.6147
19.286197 93.426 -156.7901
19.425953 93.441 -156.9586
19.566721 93.455 -157.1211
19.708510 93.469 -157.2785
19.851326 93.481 -157.4319
19.995177 93.493 -157.5820
20.140070 93.504 -157.7294
20.286013 93.514 -157.8747
20.433014 93.522 -158.0182
20.581080 93.529 -158.1601
20.730219 93.534 -158.3004
20.880439 93.538 -158.4392
21.031747 93.540 -158.5763
21.184152 93.541 -158.7119
21.337661 93.540 -158.8460
21.492282 93.539 -158.9793
21.648024 93.536 -159.1124
21.804895 93.533 -159.2466
21.962902 93.530 -159.3831
22.122054 93.526 -159.5233
22.282360 93.521 -159.6690
22.443827 93.517 -159.8214
22.606464 93.512 -159.9817
22.770280 93.507 -160.1505
22.935283 93.502 -160.3281
23.101481 93.496 -160.5142
23.268884 93.490 -160.7079
23.437500 93.483 -160.9083
23.607338 93.476 -161.1140
23.778406 93.470 -161.3240
23.950714 93.463 -161.5371
24.124271 93.457 -161.7527
24.299086 93.452 -161.9702
24.475167 93.448 -162.1895
24.652524 93.445 -162.4107
24.831166 93.443 -162.6338
25.011103 93.442 -162.8590
25.192344 93.443 -163.0860
25.374898 93.445 -163.3143
25.558775 93.447 -163.5432
25.743984 93.451 -163.7715
25.930536 93.455 -163.9980
26.118439 93.460 -164.2215
26.307704 93.465 -164.4407
26.498341 93.471 -164.6545
26.690359 93.477 -164.8622
26.883768 93.484 -165.0631
27.078579 93.491 -165.2570
27.274801 93.498 -165.4437
27.472446 93.505 -165.6235
27.671522 93.512 -165.7965
27.872042 93.519 -165.9630
28.074014 93.526 -166.1234
28.277450 93.532 -166.2780
28.482360 93.538 -166.4272
28.688755 93.542 -166.5713
28.896645 93.546 -166.7106
29.106042 93.549 -166.8457
29.316957 93.551 -166.9771
29.529400 93.552 -167.1055
29.743382 93.552 -167.2318
29.958915 93.552 -167.3572
30.176009 93.551 -167.4827
30.394677 93.549 -167.6097
30.614929 93.546 -167.7392
30.836778 93.543 -167.8721
31.060234 93.540 -168.0093
31.285309 93.536 -168.1512
31.512015 93.532 -168.2981
31.740364 93.527 -168.4504
31.970368 93.522 -168.6081
32.202039 93.517 -168.7715
32.435388 93.513 -168.9402
32.670428 93.508 -169.1142
32.907171 93.503 -169.2927
33.145630 93.499 -169.4751
33.385817 93.495 -169.6603
33.627745 93.491 -169.8472
33.871425 93.488 -170.0349
34.116871 93.485 -170.2225
34.364096 93.483 -170.4092
34.613113 93.481 -170.5945
34.863934 93.480 -170.7776
35.116572 93.478 -170.9577
35.371041 93.478 -171.1339
35.627354 93.477 -171.3053
35.885525 93.476 -171.4714
36.145566 93.476 -171.6318
36.407492 93.476 -171.7868
36.671316 93.476 -171.9372
36.937051 93.476 -172.0843
37.204712 93.476 -172.2292
37.474313 93.475 -172.3728
37.745867 93.475 -172.5160
38.019389 93.473 -172.6587
38.294893 93.471 -172.8009
38.572394 93.468 -172.9424
38.851905 93.464 -173.0827
39.133442 93.459 -173.2219
39.417019 93.454 -173.3601
39.702651 93.449 -173.4977
39.990353 93.443 -173.6351
40.280140 93.438 -173.7730
40.572026 93.432 -173.9119
40.866028 93.426 -174.0521
41.162160 93.421 -174.1938
41.460438 93.415 -174.3369
41.760877 93.410 -174.4812
42.063494 93.405 -174.6265
42.368303 93.401 -174.7725
42.675322 93.396 -174.9190
42.984565 93.392 -175.0659
43.296048 93.388 -175.2131
43.609789 93.384 -175.3601
43.925804 93.380 -175.5064
44.244108 93.376 -175.6515
44.564719 93.372 -175.7950
44.887654 93.367 -175.9367
45.212928 93.363 -176.0765
45.540560 93.358 -176.2146
45.870565 93.353 -176.3515
46.202962 93.348 -176.4873
46.537768 93.343 -176.6222
46.875000 93.338 -176.7563
47.214676 93.332 -176.8900
47.556813 93.327 -177.0236
47.901429 93.321 -177.1574
48.248542 93.316 -177.2917
48.598171 93.310 -177.4266
48.950334 93.305 -177.5620
49.305048 93.299 -177.6973
49.662333 93.293 -177.8322
50.022206 93.288 -177.9662
50.384688 93.282 -178.0991
50.749796 93.277 -178.2307
51.117550 93.271 -178.3606
51.487969 93.265 -178.4883
51.861072 93.259 -178.6132
52.236879 93.253 -178.7351
52.615409 93.248 -178.8542
52.996681 93.242 -178.9714
53.380717 93.236 -179.0879
53.767536 93.231 -179.2046
54.157158 93.225 -179.3221
54.549603 93.220 -179.4406
54.944892 93.214 -179.5604
55.343045 93.209 -179.6817
55.744084 93.205 -179.8052
56.148028 93.200 -179.9319
56.554900 93.196 179.9372
56.964720 93.193 179.8014
57.377510 93.189 179.6604
57.793291 93.186 179.5144
58.212085 93.181 179.3647
58.633914 93.177 179.2133
59.058799 93.171 179.0629
59.486764 93.165 178.9159
59.917829 93.158 178.7737
60.352019 93.151 178.6367
60.789354 93.143 178.5038
61.229859 93.135 178.3736
61.673556 93.128 178.2449
62.120468 93.119 178.1168
62.570618 93.111 177.9888
63.024031 93.102 177.8608
63.480729 93.093 177.7324
63.940736 93.084 177.6031
64.404077 93.074 177.4730
64.870776 93.064 177.3423
65.340856 93.055 177.2117
65.814343 93.045 177.0818
66.291261 93.036 176.9528
66.771635 93.027 176.8248
67.255489 93.018 176.6978
67.742850 93.009 176.5718
68.233743 93.000 176.4474
68.728193 92.991 176.3250
69.226226 92.982 176.2047
69.727867 92.973 176.0861
70.233144 92.964 175.9688
70.742083 92.956 175.8520
71.254709 92.947 175.7346
71.771050 92.938 175.6159
72.291132 92.929 175.4958
72.814984 92.919 175.3747
73.342631 92.910 175.2536
73.874102 92.900 175.1326
74.409424 92.891 175.0114
74.948626 92.882 174.8896
75.491734 92.873 174.7672
76.038779 92.864 174.6445
76.589787 92.856 174.5217
77.144788 92.848 174.3981
77.703811 92.840 174.2729
78.266885 92.833 174.1445
78.834039 92.826 174.0116
79.405303 92.819 173.8729
79.980706 92.812 173.7280
80.560280 92.804 173.5768
81.144053 92.795 173.4193
81.732056 92.785 173.2560
82.324320 92.773 173.0882
82.920876 92.760 172.9175
83.521755 92.746 172.7461
84.126988 92.729 172.5767
84.736607 92.711 172.4117
