* Measurement data measured by REW V5.31.3
* Source: EXCL: Microphone (USB Sound Device        ), no input selected, R, volume: 0.390
* Format: 256k Log Swept Sine, 1 sweep at -15.0 dBFS with no timing reference
* Dated: Jul 7, 2025 1:11:23 PM
* REW Settings:
*  C-weighting compensation: Off
*  Target level: 75.0 dB
* Note: QKZ x HBB L
* Measurement: L QKZ x HBB
* Smoothing: 1/12 octave
* Frequency Step: 96 ppo
* Start Frequency: 0.36621094 Hz
*
* Freq(Hz) SPL(dB) Phase(degrees)
0.366211 89.842 175.7369
0.368865 89.841 175.7271
0.371538 89.840 175.7126
0.374230 89.838 175.6944
0.376942 89.835 175.6735
0.379673 89.833 175.6508
0.382424 89.830 175.6268
0.385196 89.828 175.6016
0.387987 89.825 175.5755
0.390798 89.823 175.5487
0.393630 89.820 175.5210
0.396483 89.817 175.4926
0.399356 89.814 175.4634
0.402250 89.812 175.4335
0.405165 89.809 175.4028
0.408101 89.806 175.3714
0.411058 89.803 175.3392
0.414037 89.800 175.3062
0.417037 89.798 175.2724
0.420059 89.795 175.2379
0.423103 89.792 175.2025
0.426169 89.789 175.1664
0.429257 89.786 175.1294
0.432368 89.783 175.0916
0.435501 89.780 175.0530
0.438656 89.777 175.0135
0.441835 89.774 174.9732
0.445037 89.771 174.9320
0.448262 89.768 174.8900
0.451510 89.765 174.8471
0.454782 89.761 174.8033
0.458077 89.758 174.7586
0.461397 89.755 174.7131
0.464740 89.752 174.6666
0.468108 89.749 174.6192
0.471500 89.746 174.5709
0.474917 89.742 174.5217
0.478358 89.739 174.4715
0.481825 89.736 174.4204
0.485316 89.732 174.3683
0.488833 89.729 174.3153
0.492375 89.726 174.2614
0.495943 89.722 174.2064
0.499537 89.719 174.1505
0.503157 89.715 174.0936
0.506803 89.712 174.0357
0.510475 89.708 173.9768
0.514175 89.705 173.9169
0.517900 89.701 173.8559
0.521653 89.698 173.7940
0.525434 89.694 173.7310
0.529241 89.690 173.6670
0.533076 89.687 173.6020
0.536939 89.683 173.5359
0.540830 89.679 173.4687
0.544749 89.676 173.4005
0.548696 89.672 173.3313
0.552673 89.668 173.2610
0.556677 89.664 173.1895
0.560711 89.660 173.1171
0.564774 89.657 173.0435
0.568867 89.653 172.9688
0.572989 89.649 172.8931
0.577141 89.645 172.8162
0.581324 89.641 172.7382
0.585536 89.637 172.6591
0.589779 89.633 172.5789
0.594053 89.629 172.4976
0.598358 89.624 172.4152
0.602694 89.620 172.3316
0.607061 89.616 172.2469
0.611460 89.612 172.1611
0.615891 89.608 172.0741
0.620354 89.603 171.9859
0.624849 89.599 171.8967
0.629377 89.595 171.8062
0.633938 89.590 171.7146
0.638532 89.586 171.6219
0.643159 89.582 171.5280
0.647819 89.577 171.4329
0.652514 89.573 171.3367
0.657242 89.568 171.2393
0.662005 89.564 171.1407
0.666802 89.559 171.0409
0.671634 89.555 170.9400
0.676501 89.550 170.8379
0.681403 89.545 170.7346
0.686341 89.540 170.6301
0.691314 89.536 170.5244
0.696324 89.531 170.4176
0.701370 89.526 170.3095
0.706452 89.521 170.2002
0.711571 89.516 170.0896
0.716728 89.510 169.9776
0.721921 89.504 169.8641
0.727153 89.497 169.7490
0.732422 89.489 169.6320
0.737729 89.480 169.5128
0.743075 89.470 169.3911
0.748460 89.460 169.2667
0.753883 89.449 169.1393
0.759346 89.437 169.0089
0.764849 89.425 168.8754
0.770391 89.413 168.7388
0.775974 89.401 168.5989
0.781597 89.388 168.4558
0.787261 89.375 168.3094
0.792966 89.362 168.1599
0.798712 89.349 168.0071
0.804500 89.336 167.8511
0.810329 89.322 167.6918
0.816201 89.308 167.5293
0.822116 89.294 167.3636
0.828073 89.280 167.1947
0.834074 89.265 167.0225
0.840118 89.250 166.8472
0.846206 89.234 166.6687
0.852338 89.219 166.4870
0.858514 89.202 166.3022
0.864735 89.186 166.1143
0.871001 89.169 165.9232
0.877313 89.152 165.7291
0.883670 89.134 165.5319
0.890074 89.116 165.3317
0.896524 89.097 165.1285
0.903020 89.078 164.9223
0.909564 89.058 164.7132
0.916155 89.038 164.5012
0.922794 89.017 164.2864
0.929481 88.996 164.0688
0.936216 88.974 163.8484
0.943000 88.951 163.6253
0.949834 88.928 163.3995
0.956717 88.904 163.1712
0.963649 88.879 162.9403
0.970632 88.853 162.7069
0.977666 88.827 162.4711
0.984750 88.800 162.2330
0.991886 88.771 161.9926
0.999074 88.743 161.7501
1.006314 88.713 161.5054
1.013606 88.682 161.2587
1.020951 88.650 161.0101
1.028349 88.617 160.7596
1.035801 88.583 160.5074
1.043307 88.548 160.2535
1.050867 88.512 159.9980
1.058482 88.474 159.7409
1.066152 88.435 159.4823
1.073878 88.396 159.2219
1.081660 88.354 158.9597
1.089498 88.312 158.6952
1.097393 88.269 158.4276
1.105345 88.225 158.1563
1.113355 88.180 157.8803
1.121423 88.134 157.5989
1.129549 88.088 157.3113
1.137734 88.041 157.0172
1.145979 87.993 156.7163
1.154283 87.945 156.4083
1.162647 87.895 156.0931
1.171072 87.846 155.7706
1.179558 87.795 155.4407
1.188106 87.743 155.1034
1.196715 87.690 154.7585
1.205387 87.636 154.4061
1.214122 87.581 154.0460
1.222920 87.524 153.6783
1.231782 87.466 153.3029
1.240708 87.407 152.9198
1.249699 87.346 152.5290
1.258754 87.283 152.1304
1.267876 87.218 151.7241
1.277063 87.152 151.3100
1.286318 87.083 150.8882
1.295639 87.012 150.4588
1.305027 86.939 150.0216
1.314484 86.863 149.5769
1.324009 86.784 149.1246
1.333604 86.703 148.6649
1.343268 86.619 148.1978
1.353002 86.532 147.7235
1.362806 86.442 147.2421
1.372681 86.348 146.7538
1.382628 86.251 146.2586
1.392647 86.150 145.7568
1.402739 86.045 145.2484
1.412904 85.935 144.7336
1.423142 85.822 144.2123
1.433455 85.703 143.6843
1.443843 85.579 143.1488
1.454305 85.450 142.6047
1.464844 85.314 142.0503
1.475459 85.171 141.4834
1.486150 85.020 140.9012
1.496920 84.861 140.3016
1.507767 84.693 139.6824
1.518693 84.517 139.0418
1.529698 84.332 138.3783
1.540783 84.140 137.6905
1.551948 83.940 136.9771
1.563194 83.732 136.2368
1.574521 83.519 135.4682
1.585931 83.299 134.6699
1.597423 83.075 133.8405
1.608999 82.845 132.9783
1.620658 82.612 132.0818
1.632402 82.376 131.1492
1.644232 82.138 130.1785
1.656146 81.898 129.1677
1.668147 81.657 128.1147
1.680235 81.417 127.0170
1.692411 81.178 125.8722
1.704675 80.941 124.6774
1.717028 80.708 123.4297
1.729470 80.479 122.1259
1.742003 80.256 120.7623
1.754626 80.039 119.3348
1.767341 79.830 117.8386
1.780147 79.630 116.2682
1.793047 79.439 114.6165
1.806040 79.258 112.8745
1.819128 79.088 111.0300
1.832310 78.926 109.0677
1.845587 78.773 106.9680
1.858961 78.626 104.7077
1.872432 78.485 102.2612
1.886001 78.349 99.6008
1.899667 78.218 96.6972
1.913433 78.091 93.5199
1.927299 77.970 90.0382
1.941265 77.854 86.2229
1.955332 77.744 82.0487
1.969501 77.642 77.4985
1.983773 77.547 72.5686
1.998148 77.460 67.2744
2.012627 77.383 61.6553
2.027212 77.317 55.7781
2.041902 77.262 49.7347
2.056698 77.219 43.6351
2.071602 77.190 37.5953
2.086614 77.176 31.7235
2.101734 77.177 26.1083
2.116964 77.196 20.8121
2.132304 77.233 15.8696
2.147756 77.292 11.2904
2.163320 77.372 7.0648
2.178996 77.478 3.1688
2.194786 77.611 -0.4293
2.210690 77.773 -3.7640
2.226710 77.966 -6.8679
2.242845 78.190 -9.7682
2.259098 78.446 -12.4867
2.275468 78.730 -15.0405
2.291957 79.040 -17.4432
2.308566 79.375 -19.7066
2.325295 79.729 -21.8407
2.342145 80.101 -23.8546
2.359117 80.485 -25.7565
2.376212 80.879 -27.5541
2.393431 81.278 -29.2544
2.410775 81.679 -30.8638
2.428244 82.078 -32.3886
2.445840 82.471 -33.8345
2.463564 82.854 -35.2071
2.481416 83.224 -36.5120
2.499397 83.577 -37.7548
2.517509 83.913 -38.9419
2.535752 84.228 -40.0804
2.554127 84.523 -41.1781
2.572635 84.799 -42.2435
2.591277 85.057 -43.2847
2.610055 85.300 -44.3077
2.628968 85.530 -45.3166
2.648019 85.747 -46.3131
2.667208 85.954 -47.2974
2.686535 86.151 -48.2685
2.706003 86.339 -49.2249
2.725612 86.519 -50.1649
2.745363 86.691 -51.0862
2.765257 86.857 -51.9870
2.785295 87.016 -52.8652
2.805478 87.171 -53.7191
2.825808 87.321 -54.5471
2.846285 87.467 -55.3481
2.866910 87.610 -56.1219
2.887685 87.749 -56.8692
2.908611 87.886 -57.5920
2.929688 88.019 -58.2938
2.950917 88.148 -58.9791
2.972301 88.271 -59.6522
2.993839 88.390 -60.3163
3.015534 88.502 -60.9731
3.037386 88.609 -61.6230
3.059396 88.711 -62.2651
3.081565 88.807 -62.8978
3.103896 88.898 -63.5193
3.126388 88.984 -64.1269
3.149043 89.067 -64.7183
3.171862 89.147 -65.2907
3.194847 89.224 -65.8418
3.217998 89.298 -66.3692
3.241317 89.370 -66.8713
3.264805 89.439 -67.3473
3.288463 89.507 -67.7975
3.312293 89.571 -68.2234
3.336295 89.633 -68.6269
3.360471 89.691 -69.0102
3.384822 89.745 -69.3749
3.409350 89.796 -69.7218
3.434056 89.844 -70.0513
3.458940 89.889 -70.3632
3.484005 89.932 -70.6572
3.509252 89.974 -70.9324
3.534681 90.014 -71.1878
3.560295 90.054 -71.4223
3.586094 90.093 -71.6346
3.612081 90.133 -71.8234
3.638255 90.174 -71.9874
3.664620 90.214 -72.1257
3.691175 90.255 -72.2376
3.717923 90.296 -72.3231
3.744864 90.337 -72.3831
3.772001 90.377 -72.4192
3.799335 90.418 -72.4333
3.826866 90.459 -72.4278
3.854597 90.501 -72.4055
3.882529 90.544 -72.3689
3.910664 90.589 -72.3205
3.939002 90.636 -72.2624
3.967546 90.686 -72.1960
3.996296 90.739 -72.1221
4.025255 90.795 -72.0402
4.054423 90.854 -71.9495
4.083804 90.917 -71.8492
4.113396 90.983 -71.7397
4.143204 91.052 -71.6226
4.173227 91.123 -71.5007
4.203468 91.198 -71.3779
4.233928 91.274 -71.2583
4.264609 91.353 -71.1463
4.295512 91.434 -71.0457
4.326639 91.517 -70.9599
4.357992 91.602 -70.8910
4.389572 91.690 -70.8400
4.421380 91.779 -70.8066
4.453419 91.871 -70.7899
4.485691 91.966 -70.7892
4.518196 92.062 -70.8046
4.550936 92.160 -70.8366
4.583914 92.259 -70.8864
4.617131 92.358 -70.9555
4.650589 92.457 -71.0454
4.684289 92.556 -71.1577
4.718233 92.654 -71.2938
4.752424 92.752 -71.4543
4.786862 92.847 -71.6395
4.821549 92.942 -71.8489
4.856488 93.036 -72.0813
4.891680 93.129 -72.3351
4.927127 93.220 -72.6083
4.962831 93.310 -72.8992
4.998794 93.397 -73.2061
5.035017 93.483 -73.5276
5.071503 93.565 -73.8629
5.108253 93.645 -74.2119
5.145270 93.722 -74.5749
5.182555 93.795 -74.9521
5.220110 93.866 -75.3431
5.257937 93.933 -75.7464
5.296038 93.998 -76.1596
5.334415 94.059 -76.5799
5.373071 94.118 -77.0044
5.412006 94.174 -77.4305
5.451224 94.227 -77.8562
5.490725 94.277 -78.2807
5.530514 94.324 -78.7038
5.570590 94.368 -79.1259
5.610957 94.409 -79.5466
5.651616 94.448 -79.9650
5.692570 94.484 -80.3796
5.733821 94.519 -80.7884
5.775370 94.552 -81.1892
5.817221 94.583 -81.5803
5.859375 94.613 -81.9605
5.901834 94.642 -82.3294
5.944602 94.670 -82.6873
5.987679 94.697 -83.0347
6.031068 94.724 -83.3723
6.074771 94.750 -83.7007
6.118792 94.776 -84.0201
6.163131 94.804 -84.3309
6.207792 94.832 -84.6329
6.252776 94.861 -84.9261
6.298086 94.892 -85.2110
6.343725 94.924 -85.4885
6.389694 94.957 -85.7605
6.435996 94.992 -86.0293
6.482634 95.029 -86.2975
6.529610 95.068 -86.5671
6.576926 95.109 -86.8398
6.624585 95.152 -87.1165
6.672590 95.197 -87.3980
6.720942 95.244 -87.6854
6.769645 95.293 -87.9800
6.818700 95.344 -88.2840
6.868111 95.397 -88.5994
6.917881 95.450 -88.9279
6.968010 95.505 -89.2708
7.018504 95.561 -89.6287
7.069362 95.618 -90.0014
7.120590 95.675 -90.3889
7.172189 95.733 -90.7907
7.224161 95.790 -91.2069
7.276511 95.848 -91.6372
7.329239 95.904 -92.0816
7.382350 95.960 -92.5399
7.435845 96.015 -93.0111
7.489729 96.070 -93.4939
7.544002 96.122 -93.9862
7.598669 96.174 -94.4862
7.653732 96.224 -94.9922
7.709194 96.273 -95.5029
7.765058 96.320 -96.0173
7.821327 96.366 -96.5342
7.878004 96.410 -97.0519
7.935091 96.453 -97.5685
7.992592 96.494 -98.0818
8.050510 96.535 -98.5904
8.108847 96.575 -99.0930
8.167607 96.613 -99.5890
8.226793 96.652 -100.0779
8.286408 96.690 -100.5591
8.346454 96.728 -101.0318
8.406936 96.766 -101.4955
8.467856 96.804 -101.9500
8.529218 96.843 -102.3954
8.591024 96.883 -102.8324
8.653278 96.923 -103.2617
8.715983 96.965 -103.6844
8.779143 97.008 -104.1013
8.842760 97.052 -104.5132
8.906839 97.097 -104.9209
8.971381 97.144 -105.3256
9.036392 97.192 -105.7285
9.101873 97.241 -106.1309
9.167829 97.291 -106.5339
9.234263 97.342 -106.9383
9.301178 97.394 -107.3445
9.368578 97.446 -107.7530
9.436467 97.498 -108.1641
9.504847 97.551 -108.5781
9.573723 97.604 -108.9950
9.643099 97.656 -109.4146
9.712976 97.708 -109.8363
9.783361 97.759 -110.2593
9.854255 97.810 -110.6829
9.925663 97.859 -111.1063
9.997588 97.908 -111.5288
10.070035 97.955 -111.9493
10.143007 98.002 -112.3670
10.216507 98.048 -112.7809
10.290540 98.092 -113.1900
10.365109 98.136 -113.5938
10.440219 98.178 -113.9920
10.515873 98.220 -114.3841
10.592076 98.261 -114.7699
10.668830 98.302 -115.1493
10.746141 98.342 -115.5223
10.824012 98.381 -115.8895
10.902447 98.420 -116.2512
10.981451 98.459 -116.6080
11.061027 98.497 -116.9603
11.141180 98.534 -117.3089
11.221913 98.572 -117.6543
11.303232 98.608 -117.9970
11.385140 98.645 -118.3378
11.467641 98.680 -118.6768
11.550741 98.715 -119.0143
11.634442 98.748 -119.3505
11.718750 98.781 -119.6854
11.803669 98.813 -120.0188
11.889203 98.843 -120.3507
11.975357 98.873 -120.6807
12.062136 98.901 -121.0085
12.149543 98.928 -121.3337
12.237583 98.954 -121.6562
12.326262 98.979 -121.9757
12.415583 99.003 -122.2924
12.505552 99.026 -122.6061
12.596172 99.049 -122.9172
12.687449 99.071 -123.2262
12.779387 99.092 -123.5337
12.871992 99.113 -123.8405
12.965268 99.133 -124.1473
13.059220 99.153 -124.4553
13.153852 99.173 -124.7653
13.249170 99.193 -125.0784
13.345179 99.212 -125.3954
13.441884 99.230 -125.7170
13.539289 99.248 -126.0440
13.637401 99.265 -126.3765
13.736223 99.282 -126.7149
13.835761 99.298 -127.0591
13.936021 99.312 -127.4088
14.037007 99.326 -127.7637
14.138725 99.338 -128.1233
14.241180 99.350 -128.4869
14.344377 99.361 -128.8540
14.448323 99.371 -129.2240
14.553021 99.380 -129.5965
14.658478 99.388 -129.9712
14.764700 99.396 -130.3479
14.871691 99.403 -130.7265
14.979457 99.411 -131.1073
15.088005 99.418 -131.4904
15.197339 99.425 -131.8761
15.307465 99.432 -132.2649
15.418389 99.439 -132.6570
15.530117 99.446 -133.0527
15.642655 99.454 -133.4520
15.756008 99.461 -133.8548
15.870182 99.468 -134.2610
15.985184 99.475 -134.6700
16.101019 99.482 -135.0813
16.217694 99.489 -135.4941
16.335214 99.496 -135.9077
16.453586 99.503 -136.3213
16.572815 99.510 -136.7342
16.692909 99.517 -137.1457
16.813872 99.524 -137.5555
16.935713 99.531 -137.9630
17.058436 99.539 -138.3683
17.182048 99.548 -138.7713
17.306556 99.556 -139.1721
17.431967 99.566 -139.5708
17.558286 99.575 -139.9675
17.685521 99.585 -140.3624
17.813677 99.596 -140.7553
17.942762 99.606 -141.1461
18.072783 99.617 -141.5345
18.203746 99.627 -141.9202
18.335658 99.638 -142.3026
18.468526 99.648 -142.6814
18.602356 99.658 -143.0561
18.737156 99.668 -143.4264
18.872934 99.678 -143.7920
19.009695 99.687 -144.1530
19.147447 99.696 -144.5092
19.286197 99.705 -144.8610
19.425953 99.714 -145.2086
19.566721 99.722 -145.5523
19.708510 99.729 -145.8924
19.851326 99.736 -146.2290
19.995177 99.743 -146.5625
20.140070 99.749 -146.8928
20.286013 99.754 -147.2199
20.433014 99.758 -147.5439
20.581080 99.761 -147.8649
20.730219 99.764 -148.1830
20.880439 99.765 -148.4984
21.031747 99.767 -148.8114
21.184152 99.767 -149.1226
21.337661 99.767 -149.4326
21.492282 99.766 -149.7419
21.648024 99.765 -150.0513
21.804895 99.763 -150.3614
21.962902 99.761 -150.6727
22.122054 99.758 -150.9857
22.282360 99.755 -151.3008
22.443827 99.751 -151.6182
22.606464 99.747 -151.9384
22.770280 99.743 -152.2615
22.935283 99.738 -152.5878
23.101481 99.733 -152.9178
23.268884 99.729 -153.2515
23.437500 99.723 -153.5893
23.607338 99.718 -153.9311
23.778406 99.713 -154.2769
23.950714 99.708 -154.6262
24.124271 99.702 -154.9786
24.299086 99.697 -155.3334
24.475167 99.691 -155.6898
24.652524 99.686 -156.0472
24.831166 99.681 -156.4049
25.011103 99.676 -156.7623
25.192344 99.671 -157.1192
25.374898 99.667 -157.4752
25.558775 99.664 -157.8303
25.743984 99.660 -158.1842
25.930536 99.658 -158.5368
26.118439 99.655 -158.8878
26.307704 99.653 -159.2366
26.498341 99.651 -159.5829
26.690359 99.649 -159.9261
26.883768 99.648 -160.2658
27.078579 99.646 -160.6015
27.274801 99.645 -160.9331
27.472446 99.643 -161.2604
27.671522 99.641 -161.5836
27.872042 99.639 -161.9026
28.074014 99.637 -162.2177
28.277450 99.635 -162.5288
28.482360 99.632 -162.8362
28.688755 99.629 -163.1400
28.896645 99.625 -163.4406
29.106042 99.621 -163.7383
29.316957 99.617 -164.0338
29.529400 99.612 -164.3276
29.743382 99.606 -164.6205
29.958915 99.601 -164.9131
30.176009 99.594 -165.2060
30.394677 99.587 -165.4998
30.614929 99.580 -165.7946
30.836778 99.572 -166.0907
31.060234 99.563 -166.3884
31.285309 99.554 -166.6876
31.512015 99.545 -166.9887
31.740364 99.535 -167.2916
31.970368 99.525 -167.5966
32.202039 99.516 -167.9035
32.435388 99.506 -168.2125
32.670428 99.496 -168.5233
32.907171 99.486 -168.8359
33.145630 99.476 -169.1501
33.385817 99.467 -169.4657
33.627745 99.458 -169.7826
33.871425 99.448 -170.1004
34.116871 99.439 -170.4187
34.364096 99.431 -170.7370
34.613113 99.422 -171.0549
34.863934 99.413 -171.3714
35.116572 99.404 -171.6860
35.371041 99.395 -171.9980
35.627354 99.386 -172.3069
35.885525 99.377 -172.6122
36.145566 99.368 -172.9136
36.407492 99.358 -173.2111
36.671316 99.349 -173.5045
36.937051 99.339 -173.7943
37.204712 99.329 -174.0806
37.474313 99.319 -174.3641
37.745867 99.308 -174.6452
38.019389 99.297 -174.9243
38.294893 99.286 -175.2019
38.572394 99.275 -175.4782
38.851905 99.263 -175.7536
39.133442 99.251 -176.0282
39.417019 99.238 -176.3024
39.702651 99.225 -176.5763
39.990353 99.212 -176.8503
40.280140 99.199 -177.1244
40.572026 99.185 -177.3987
40.866028 99.171 -177.6730
41.162160 99.157 -177.9473
41.460438 99.144 -178.2216
41.760877 99.130 -178.4958
42.063494 99.116 -178.7700
42.368303 99.102 -179.0438
42.675322 99.088 -179.3170
42.984565 99.074 -179.5892
43.296048 99.060 -179.8600
43.609789 99.047 179.8708
43.925804 99.033 179.6037
44.244108 99.019 179.3384
44.564719 99.005 179.0751
44.887654 98.991 178.8135
45.212928 98.976 178.5533
45.540560 98.962 178.2945
45.870565 98.948 178.0367
46.202962 98.933 177.7800
46.537768 98.919 177.5246
46.875000 98.904 177.2704
47.214676 98.888 177.0175
47.556813 98.873 176.7657
47.901429 98.857 176.5149
48.248542 98.842 176.2649
48.598171 98.826 176.0158
48.950334 98.810 175.7678
49.305048 98.794 175.5210
49.662333 98.777 175.2757
50.022206 98.761 175.0320
50.384688 98.744 174.7899
50.749796 98.727 174.5495
51.117550 98.710 174.3113
51.487969 98.692 174.0756
51.861072 98.675 173.8431
52.236879 98.657 173.6139
52.615409 98.639 173.3878
52.996681 98.622 173.1642
53.380717 98.604 172.9424
53.767536 98.587 172.7215
54.157158 98.570 172.5010
54.549603 98.553 172.2806
54.944892 98.536 172.0601
55.343045 98.519 171.8393
55.744084 98.503 171.6179
56.148028 98.487 171.3950
56.554900 98.472 171.1701
56.964720 98.456 170.9425
57.377510 98.441 170.7118
57.793291 98.425 170.4783
58.212085 98.410 170.2426
58.633914 98.393 170.0057
59.058799 98.376 169.7685
59.486764 98.359 169.5317
59.917829 98.340 169.2962
60.352019 98.321 169.0629
60.789354 98.301 168.8328
61.229859 98.280 168.6063
61.673556 98.259 168.3835
62.120468 98.237 168.1636
62.570618 98.215 167.9455
63.024031 98.193 167.7287
63.480729 98.171 167.5130
63.940736 98.149 167.2987
64.404077 98.126 167.0861
64.870776 98.103 166.8755
65.340856 98.081 166.6670
65.814343 98.058 166.4606
66.291261 98.036 166.2563
66.771635 98.014 166.0542
67.255489 97.992 165.8541
67.742850 97.970 165.6561
68.233743 97.947 165.4601
68.728193 97.925 165.2664
69.226226 97.902 165.0752
69.727867 97.879 164.8865
70.233144 97.856 164.7001
70.742083 97.832 164.5153
71.254709 97.809 164.3320
71.771050 97.785 164.1501
72.291132 97.761 163.9704
72.814984 97.737 163.7932
73.342631 97.713 163.6188
73.874102 97.690 163.4465
74.409424 97.667 163.2754
74.948626 97.644 163.1042
75.491734 97.623 162.9327
76.038779 97.601 162.7611
76.589787 97.579 162.5896
77.144788 97.558 162.4178
77.703811 97.538 162.2447
78.266885 97.517 162.0689
78.834039 97.497 161.8896
79.405303 97.476 161.7060
79.980706 97.456 161.5174
80.560280 97.435 161.3229
81.144053 97.413 161.1214
81.732056 97.391 160.9127
82.324320 97.368 160.6979
82.920876 97.342 160.4792
83.521755 97.315 160.2600
84.126988 97.286 160.0443
84.736607 97.255 159.8355
85.350643 97.223 159.6364
85.969129 97.190 159.4483
86.592097 97.156 159.2714
87.219579 97.122 159.1048
87.851608 97.088 158.9472
