* Measurement data measured by REW V5.30.4
* Source: EXCL: Microphone (Realtek(R) Audio), MICROPHONE (Master Volume), L, volume: 1.000
* Format: 256k Log Swept Sine, 1 sweep at -15.0 dBFS with no timing reference
* Dated: Jan 14, 2024 12:44:25 AM
* REW Settings:
*  C-weighting compensation: Off
*  Target level: 75.0 dB
* Note: ROSE TECHNICS Ceramics Rock
* Measurement: ROSE TECHNICS Ceramics R
* Smoothing: 1/12 octave
* Frequency Step: 96 ppo
* Start Frequency: 0.36621094 Hz
*
* Freq(Hz) SPL(dB) Phase(degrees)
0.366211 72.306 167.8411
0.368865 72.333 167.7985
0.371538 72.372 167.7356
0.374230 72.420 167.6583
0.376942 72.474 167.5715
0.379673 72.532 167.4789
0.382424 72.593 167.3830
0.385196 72.655 167.2851
0.387987 72.718 167.1861
0.390798 72.782 167.0865
0.393630 72.846 166.9865
0.396483 72.911 166.8862
0.399356 72.977 166.7858
0.402250 73.043 166.6853
0.405165 73.109 166.5846
0.408101 73.176 166.4837
0.411058 73.243 166.3828
0.414037 73.311 166.2817
0.417037 73.380 166.1805
0.420059 73.449 166.0791
0.423103 73.518 165.9776
0.426169 73.588 165.8759
0.429257 73.658 165.7740
0.432367 73.729 165.6720
0.435501 73.801 165.5697
0.438656 73.873 165.4673
0.441835 73.945 165.3646
0.445037 74.018 165.2617
0.448262 74.092 165.1586
0.451510 74.166 165.0552
0.454782 74.240 164.9515
0.458077 74.316 164.8475
0.461397 74.391 164.7431
0.464740 74.468 164.6385
0.468108 74.544 164.5335
0.471500 74.622 164.4281
0.474917 74.700 164.3223
0.478358 74.778 164.2161
0.481825 74.857 164.1095
0.485316 74.937 164.0023
0.488833 75.017 163.8947
0.492375 75.098 163.7866
0.495943 75.179 163.6779
0.499537 75.261 163.5686
0.503157 75.344 163.4587
0.506803 75.427 163.3482
0.510475 75.511 163.2370
0.514174 75.595 163.1251
0.517900 75.680 163.0125
0.521653 75.766 162.8991
0.525433 75.852 162.7849
0.529241 75.939 162.6699
0.533076 76.026 162.5540
0.536939 76.114 162.4372
0.540830 76.203 162.3194
0.544749 76.292 162.2007
0.548696 76.383 162.0809
0.552673 76.473 161.9601
0.556677 76.565 161.8382
0.560711 76.657 161.7152
0.564774 76.749 161.5909
0.568867 76.843 161.4654
0.572989 76.937 161.3387
0.577141 77.031 161.2106
0.581324 77.127 161.0812
0.585536 77.223 160.9503
0.589779 77.320 160.8180
0.594053 77.417 160.6842
0.598358 77.515 160.5488
0.602694 77.614 160.4118
0.607061 77.714 160.2732
0.611460 77.814 160.1328
0.615891 77.915 159.9906
0.620354 78.017 159.8467
0.624849 78.120 159.7009
0.629377 78.223 159.5531
0.633938 78.327 159.4033
0.638532 78.432 159.2515
0.643159 78.538 159.0975
0.647819 78.644 158.9414
0.652514 78.751 158.7831
0.657242 78.859 158.6224
0.662005 78.968 158.4594
0.666802 79.077 158.2940
0.671634 79.187 158.1260
0.676501 79.298 157.9555
0.681403 79.410 157.7824
0.686341 79.523 157.6065
0.691314 79.636 157.4279
0.696324 79.750 157.2465
0.701369 79.865 157.0621
0.706452 79.980 156.8749
0.711571 80.095 156.6847
0.716727 80.210 156.4917
0.721921 80.324 156.2960
0.727153 80.437 156.0978
0.732422 80.547 155.8974
0.737729 80.655 155.6954
0.743075 80.760 155.4922
0.748460 80.864 155.2882
0.753883 80.966 155.0837
0.759346 81.068 154.8789
0.764849 81.169 154.6739
0.770391 81.269 154.4689
0.775974 81.370 154.2639
0.781597 81.470 154.0589
0.787261 81.570 153.8540
0.792965 81.671 153.6491
0.798712 81.771 153.4443
0.804499 81.871 153.2395
0.810329 81.971 153.0348
0.816201 82.071 152.8302
0.822116 82.171 152.6256
0.828073 82.270 152.4210
0.834073 82.370 152.2164
0.840118 82.470 152.0118
0.846205 82.569 151.8072
0.852337 82.669 151.6025
0.858514 82.768 151.3976
0.864735 82.868 151.1927
0.871001 82.967 150.9875
0.877313 83.067 150.7822
0.883670 83.166 150.5765
0.890074 83.265 150.3705
0.896523 83.365 150.1642
0.903020 83.464 149.9575
0.909564 83.563 149.7503
0.916155 83.662 149.5425
0.922793 83.761 149.3341
0.929480 83.860 149.1251
0.936216 83.960 148.9153
0.943000 84.059 148.7047
0.949833 84.158 148.4932
0.956716 84.257 148.2808
0.963649 84.356 148.0673
0.970632 84.455 147.8526
0.977666 84.555 147.6368
0.984750 84.654 147.4196
0.991886 84.753 147.2010
0.999074 84.853 146.9809
1.006313 84.952 146.7592
1.013605 85.052 146.5357
1.020950 85.152 146.3105
1.028349 85.252 146.0832
1.035801 85.352 145.8539
1.043306 85.452 145.6225
1.050867 85.552 145.3887
1.058482 85.653 145.1525
1.066152 85.754 144.9137
1.073878 85.855 144.6722
1.081659 85.956 144.4279
1.089498 86.057 144.1808
1.097393 86.158 143.9307
1.105345 86.260 143.6776
1.113355 86.361 143.4216
1.121422 86.461 143.1628
1.129549 86.562 142.9013
1.137734 86.662 142.6371
1.145978 86.762 142.3705
1.154283 86.861 142.1016
1.162647 86.960 141.8306
1.171072 87.059 141.5575
1.179558 87.157 141.2826
1.188106 87.255 141.0059
1.196715 87.353 140.7277
1.205387 87.450 140.4480
1.214122 87.547 140.1670
1.222920 87.643 139.8848
1.231781 87.740 139.6015
1.240708 87.835 139.3173
1.249698 87.931 139.0323
1.258754 88.026 138.7465
1.267875 88.121 138.4602
1.277063 88.216 138.1733
1.286317 88.310 137.8860
1.295638 88.404 137.5984
1.305027 88.498 137.3107
1.314484 88.592 137.0228
1.324009 88.685 136.7348
1.333603 88.779 136.4470
1.343267 88.872 136.1593
1.353001 88.965 135.8717
1.362805 89.058 135.5845
1.372681 89.150 135.2976
1.382628 89.243 135.0111
1.392647 89.336 134.7250
1.402739 89.428 134.4395
1.412904 89.521 134.1544
1.423142 89.614 133.8698
1.433455 89.706 133.5855
1.443842 89.799 133.3016
1.454305 89.892 133.0176
1.464843 89.984 132.7333
1.475458 90.076 132.4483
1.486150 90.168 132.1623
1.496919 90.259 131.8749
1.507766 90.350 131.5861
1.518692 90.440 131.2957
1.529697 90.530 131.0039
1.540782 90.619 130.7106
1.551947 90.708 130.4160
1.563193 90.796 130.1202
1.574521 90.884 129.8234
1.585931 90.971 129.5256
1.597423 91.057 129.2270
1.608998 91.143 128.9278
1.620658 91.229 128.6280
1.632402 91.314 128.3279
1.644231 91.398 128.0274
1.656146 91.483 127.7268
1.668147 91.566 127.4262
1.680235 91.650 127.1257
1.692410 91.733 126.8254
1.704674 91.816 126.5254
1.717027 91.898 126.2259
1.729469 91.980 125.9269
1.742002 92.062 125.6286
1.754625 92.144 125.3309
1.767340 92.226 125.0341
1.780147 92.307 124.7379
1.793046 92.389 124.4425
1.806040 92.470 124.1475
1.819127 92.550 123.8527
1.832309 92.631 123.5575
1.845587 92.711 123.2615
1.858961 92.790 122.9642
1.872431 92.869 122.6653
1.886000 92.948 122.3645
1.899666 93.025 122.0621
1.913432 93.102 121.7580
1.927298 93.178 121.4526
1.941264 93.254 121.1461
1.955331 93.329 120.8387
1.969500 93.404 120.5309
1.983772 93.477 120.2230
1.998147 93.551 119.9152
2.012626 93.623 119.6080
2.027211 93.696 119.3016
2.041901 93.768 118.9965
2.056697 93.839 118.6930
2.071601 93.910 118.3914
2.086613 93.981 118.0921
2.101733 94.052 117.7954
2.116963 94.122 117.5016
2.132303 94.192 117.2110
2.147755 94.262 116.9236
2.163318 94.332 116.6395
2.178995 94.401 116.3587
2.194785 94.470 116.0806
2.210689 94.539 115.8048
2.226709 94.607 115.5308
2.242844 94.675 115.2580
2.259097 94.742 114.9862
2.275467 94.809 114.7153
2.291956 94.874 114.4453
2.308565 94.940 114.1763
2.325294 95.004 113.9086
2.342144 95.069 113.6422
2.359116 95.132 113.3776
2.376211 95.195 113.1150
2.393430 95.258 112.8546
2.410774 95.321 112.5969
2.428243 95.383 112.3420
2.445839 95.446 112.0903
2.463562 95.508 111.8422
2.481415 95.570 111.5979
2.499396 95.632 111.3577
2.517508 95.694 111.1217
2.535750 95.756 110.8902
2.554126 95.818 110.6630
2.572634 95.880 110.4401
2.591276 95.941 110.2213
2.610054 96.003 110.0061
2.628967 96.064 109.7946
2.648018 96.125 109.5863
2.667206 96.185 109.3813
2.686534 96.245 109.1794
2.706002 96.305 108.9805
2.725610 96.365 108.7845
2.745361 96.425 108.5916
2.765255 96.485 108.4015
2.785294 96.544 108.2144
2.805477 96.604 108.0302
2.825807 96.664 107.8489
2.846284 96.725 107.6707
2.866909 96.785 107.4954
2.887684 96.846 107.3233
2.908609 96.908 107.1545
2.929686 96.969 106.9891
2.950916 97.031 106.8273
2.972299 97.094 106.6692
2.993838 97.156 106.5147
3.015532 97.219 106.3638
3.037384 97.282 106.2161
3.059394 97.345 106.0714
3.081564 97.408 105.9293
3.103894 97.472 105.7895
3.126386 97.536 105.6515
3.149041 97.600 105.5151
3.171861 97.664 105.3798
3.194845 97.729 105.2454
3.217996 97.795 105.1115
3.241315 97.861 104.9781
3.264803 97.928 104.8452
3.288461 97.995 104.7128
3.312291 98.063 104.5813
3.336293 98.131 104.4509
3.360469 98.200 104.3218
3.384820 98.270 104.1939
3.409348 98.339 104.0670
3.434054 98.410 103.9407
3.458938 98.481 103.8145
3.484003 98.552 103.6878
3.509250 98.624 103.5601
3.534679 98.696 103.4308
3.560293 98.769 103.2994
3.586092 98.841 103.1654
3.612079 98.915 103.0285
3.638253 98.988 102.8884
3.664618 99.062 102.7454
3.691173 99.136 102.5994
3.717921 99.211 102.4508
3.744862 99.286 102.2998
3.771999 99.362 102.1463
3.799332 99.438 101.9903
3.826864 99.514 101.8317
3.854595 99.590 101.6702
3.882527 99.666 101.5057
3.910661 99.742 101.3377
3.938999 99.819 101.1662
3.967543 99.895 100.9907
3.996294 99.971 100.8111
4.025252 100.047 100.6274
4.054421 100.123 100.4393
4.083801 100.199 100.2471
4.113394 100.275 100.0509
4.143201 100.350 99.8508
4.173225 100.425 99.6472
4.203466 100.500 99.4402
4.233926 100.575 99.2301
4.264606 100.650 99.0170
4.295509 100.724 98.8013
4.326636 100.797 98.5828
4.357989 100.870 98.3616
4.389569 100.943 98.1376
4.421378 101.014 97.9106
4.453417 101.086 97.6805
4.485688 101.156 97.4475
4.518193 101.226 97.2118
4.550934 101.296 96.9739
4.583912 101.364 96.7342
4.617129 101.433 96.4935
4.650587 101.500 96.2522
4.684287 101.567 96.0108
4.718231 101.633 95.7696
4.752421 101.699 95.5286
4.786859 101.763 95.2878
4.821547 101.827 95.0470
4.856485 101.891 94.8063
4.891677 101.953 94.5657
4.927125 102.015 94.3258
4.962829 102.076 94.0870
4.998791 102.137 93.8498
5.035015 102.197 93.6147
5.071500 102.256 93.3823
5.108251 102.315 93.1527
5.145267 102.374 92.9261
5.182552 102.432 92.7023
5.220107 102.489 92.4813
5.257934 102.546 92.2630
5.296035 102.603 92.0476
5.334412 102.659 91.8351
5.373067 102.715 91.6257
5.412003 102.771 91.4195
5.451221 102.827 91.2169
5.490722 102.883 91.0179
5.530510 102.938 90.8224
5.570587 102.994 90.6305
5.610953 103.050 90.4420
5.651613 103.105 90.2566
5.692567 103.161 90.0740
5.733818 103.217 89.8938
5.775367 103.273 89.7159
5.817218 103.329 89.5401
5.859372 103.385 89.3662
5.901831 103.442 89.1943
5.944598 103.499 89.0241
5.987675 103.556 88.8555
6.031065 103.614 88.6880
6.074768 103.672 88.5212
6.118788 103.730 88.3545
6.163127 103.788 88.1874
6.207788 103.847 88.0198
6.252772 103.906 87.8513
6.298082 103.965 87.6819
6.343721 104.025 87.5115
6.389690 104.085 87.3398
6.435992 104.144 87.1667
6.482630 104.204 86.9918
6.529606 104.264 86.8148
6.576922 104.324 86.6356
6.624581 104.384 86.4540
6.672585 104.444 86.2699
6.720938 104.504 86.0836
6.769640 104.563 85.8950
6.818696 104.623 85.7043
6.868107 104.682 85.5117
6.917876 104.741 85.3172
6.968006 104.799 85.1208
7.018499 104.857 84.9227
7.069358 104.915 84.7231
7.120586 104.972 84.5221
7.172184 105.028 84.3203
7.224157 105.085 84.1180
7.276506 105.140 83.9156
7.329235 105.195 83.7134
7.382345 105.250 83.5115
7.435841 105.304 83.3102
7.489724 105.358 83.1096
7.543997 105.411 82.9102
7.598664 105.464 82.7121
7.653728 105.517 82.5159
7.709189 105.569 82.3216
7.765053 105.621 82.1293
7.821322 105.672 81.9392
7.877998 105.724 81.7511
7.935086 105.775 81.5651
7.992587 105.826 81.3812
8.050504 105.877 81.1993
8.108841 105.928 81.0194
8.167601 105.980 80.8413
8.226787 106.031 80.6647
8.286402 106.082 80.4893
8.346449 106.134 80.3148
8.406931 106.185 80.1409
8.467851 106.237 79.9672
8.529212 106.289 79.7935
8.591018 106.341 79.6194
8.653272 106.394 79.4447
8.715977 106.446 79.2688
8.779137 106.499 79.0915
8.842754 106.551 78.9125
8.906833 106.604 78.7317
8.971375 106.656 78.5488
9.036386 106.709 78.3639
9.101867 106.761 78.1768
9.167823 106.813 77.9875
9.234257 106.865 77.7961
9.301172 106.916 77.6026
9.368572 106.967 77.4073
9.436460 107.017 77.2105
9.504841 107.067 77.0125
9.573717 107.117 76.8135
9.643092 107.166 76.6139
9.712970 107.214 76.4140
9.783354 107.262 76.2143
9.854248 107.309 76.0151
9.925656 107.356 75.8168
9.997581 107.402 75.6197
10.070028 107.448 75.4240
10.143000 107.493 75.2299
10.216500 107.539 75.0376
10.290533 107.583 74.8471
10.365103 107.628 74.6586
10.440212 107.672 74.4719
10.515866 107.717 74.2867
10.592069 107.761 74.1030
10.668823 107.805 73.9204
10.746134 107.850 73.7386
10.824005 107.894 73.5572
10.902440 107.938 73.3759
10.981443 107.982 73.1942
11.061020 108.027 73.0118
11.141172 108.071 72.8283
11.221906 108.115 72.6436
11.303225 108.159 72.4573
11.385133 108.203 72.2693
11.467634 108.246 72.0797
11.550734 108.289 71.8884
11.634435 108.331 71.6959
11.718742 108.373 71.5023
11.803661 108.414 71.3080
11.889195 108.455 71.1136
11.975349 108.494 70.9196
12.062128 108.534 70.7267
12.149535 108.572 70.5355
12.237576 108.610 70.3466
12.326254 108.647 70.1607
12.415575 108.683 69.9783
12.505544 108.719 69.8000
12.596164 108.755 69.6259
12.687441 108.790 69.4564
12.779379 108.826 69.2914
12.871984 108.861 69.1310
12.965260 108.896 68.9748
13.059211 108.932 68.8224
13.153843 108.968 68.6732
13.249161 109.005 68.5265
13.345170 109.042 68.3817
13.441875 109.079 68.2380
13.539280 109.117 68.0943
13.637391 109.155 67.9502
13.736214 109.194 67.8047
13.835752 109.233 67.6574
13.936011 109.272 67.5079
14.036998 109.311 67.3558
14.138716 109.350 67.2010
14.241171 109.388 67.0438
14.344368 109.427 66.8843
14.448313 109.465 66.7230
14.553011 109.503 66.5605
14.658468 109.540 66.3973
14.764689 109.576 66.2343
14.871680 109.612 66.0721
14.979446 109.648 65.9113
15.087994 109.683 65.7526
15.197328 109.718 65.5965
15.307454 109.752 65.4432
15.418378 109.786 65.2929
15.530106 109.821 65.1457
15.642643 109.855 65.0014
15.755996 109.889 64.8597
15.870171 109.924 64.7203
15.985172 109.958 64.5828
16.101007 109.993 64.4468
16.217682 110.028 64.3118
16.335201 110.063 64.1776
16.453573 110.098 64.0439
16.572803 110.134 63.9106
16.692898 110.169 63.7776
16.813862 110.204 63.6451
16.935701 110.239 63.5133
17.058424 110.274 63.3823
17.182035 110.309 63.2524
17.306543 110.344 63.1240
17.431953 110.379 62.9971
17.558273 110.414 62.8719
17.685509 110.449 62.7484
17.813665 110.483 62.6265
17.942751 110.518 62.5060
18.072771 110.554 62.3868
18.203733 110.589 62.2685
18.335646 110.624 62.1510
18.468513 110.659 62.0340
18.602345 110.694 61.9176
18.737144 110.729 61.8017
18.872921 110.764 61.6865
19.009682 110.799 61.5725
19.147434 110.834 61.4598
19.286184 110.868 61.3490
19.425940 110.903 61.2405
19.566708 110.937 61.1343
19.708496 110.971 61.0305
19.851313 111.006 60.9291
19.995163 111.041 60.8295
20.140057 111.076 60.7311
20.285999 111.111 60.6331
20.433001 111.147 60.5345
20.581066 111.182 60.4346
20.730206 111.218 60.3326
20.880424 111.254 60.2281
21.031733 111.290 60.1209
21.184137 111.325 60.0114
21.337646 111.360 59.9000
21.492268 111.394 59.7878
21.648010 111.427 59.6757
21.804880 111.460 59.5649
21.962887 111.492 59.4561
22.122040 111.524 59.3498
22.282345 111.555 59.2463
22.443811 111.587 59.1450
22.606449 111.618 59.0453
22.770266 111.650 58.9462
22.935268 111.682 58.8465
23.101467 111.714 58.7455
23.268869 111.746 58.6427
23.437485 111.777 58.5383
23.607323 111.808 58.4328
23.778391 111.839 58.3275
23.950699 111.869 58.2239
24.124256 111.898 58.1234
24.299070 111.928 58.0269
24.475151 111.958 57.9344
24.652508 111.989 57.8452
24.831150 112.020 57.7571
25.011087 112.053 57.6673
25.192327 112.088 57.5723
25.374882 112.123 57.4689
25.558758 112.159 57.3543
25.743967 112.195 57.2275
25.930519 112.230 57.0889
26.118422 112.263 56.9409
26.307686 112.295 56.7874
26.498322 112.325 56.6334
26.690340 112.353 56.4839
26.883749 112.379 56.3433
27.078560 112.405 56.2143
27.274782 112.432 56.0976
27.472427 112.459 55.9912
27.671503 112.489 55.8916
27.872023 112.521 55.7934
28.073996 112.554 55.6914
28.277431 112.590 55.5807
28.482342 112.626 55.4585
28.688736 112.663 55.3238
28.896626 112.698 55.1778
29.106022 112.733 55.0234
29.316936 112.766 54.8646
29.529379 112.797 54.7055
29.743361 112.828 54.5496
29.958893 112.857 54.3992
30.175987 112.886 54.2557
30.394655 112.915 54.1189
30.614908 112.944 53.9884
30.836756 112.973 53.8627
31.060211 113.003 53.7407
31.285286 113.034 53.6207
31.511992 113.065 53.5013
31.740341 113.097 53.3805
31.970345 113.130 53.2562
32.202015 113.163 53.1265
32.435364 113.197 52.9895
32.670403 113.230 52.8445
32.907146 113.262 52.6921
33.145607 113.292 52.5341
33.385796 113.321 52.3737
33.627724 113.349 52.2144
33.871403 113.375 52.0597
34.116848 113.400 51.9115
34.364071 113.426 51.7702
34.613087 113.451 51.6341
34.863907 113.477 51.5005
35.116547 113.504 51.3659
35.371017 113.531 51.2272
35.627331 113.558 51.0827
35.885502 113.585 50.9319
36.145542 113.612 50.7757
36.407467 113.637 50.6159
36.671291 113.662 50.4542
36.937027 113.686 50.2920
37.204689 113.710 50.1301
37.474289 113.733 49.9684
37.745842 113.757 49.8069
38.019363 113.780 49.6451
38.294868 113.803 49.4826
38.572369 113.826 49.3189
38.851879 113.849 49.1533
39.133415 113.873 48.9847
39.416992 113.897 48.8119
39.702625 113.920 48.6338
39.990326 113.943 48.4504
40.280113 113.966 48.2625
40.571999 113.987 48.0724
40.866001 114.007 47.8828
41.162132 114.027 47.6962
41.460411 114.046 47.5139
41.760849 114.065 47.3356
42.063465 114.084 47.1600
42.368275 114.103 46.9854
42.675293 114.122 46.8111
42.984535 114.140 46.6376
43.296021 114.159 46.4663
43.609760 114.177 46.2977
43.925774 114.195 46.1308
44.244080 114.215 45.9620
44.564690 114.234 45.7866
44.887623 114.253 45.6014
45.212898 114.270 45.4065
45.540531 114.285 45.2063
45.870537 114.298 45.0081
46.202934 114.309 44.8185
46.537739 114.318 44.6400
46.874969 114.329 44.4696
47.214645 114.340 44.3002
47.556782 114.353 44.1234
47.901398 114.365 43.9342
48.248512 114.377 43.7317
48.598141 114.387 43.5186
48.950302 114.395 43.2987
49.305016 114.402 43.0747
49.662300 114.407 42.8480
50.022175 114.411 42.6201
50.384655 114.413 42.3941
50.749763 114.413 42.1746
51.117516 114.412 41.9660
51.487934 114.412 41.7700
51.861038 114.412 41.5845
52.236843 114.414 41.4043
52.615372 114.417 41.2237
52.996643 114.421 41.0391
53.380680 114.424 40.8494
53.767498 114.428 40.6563
54.157120 114.430 40.4622
54.549564 114.431 40.2694
54.944855 114.431 40.0793
55.343006 114.430 39.8920
55.744045 114.429 39.7063
56.147991 114.426 39.5199
56.554863 114.423 39.3301
56.964684 114.418 39.1359
57.377472 114.411 38.9384
57.793251 114.401 38.7405
58.212044 114.390 38.5456
58.633873 114.378 38.3553
59.058758 114.365 38.1682
59.486721 114.352 37.9803
59.917786 114.338 37.7867
60.351974 114.324 37.5846
60.789310 114.308 37.3756
61.229816 114.290 37.1672
61.673512 114.269 36.9702
62.120422 114.247 36.7941
62.570572 114.226 36.6415
63.023983 114.207 36.5061
63.480682 114.192 36.3759
63.940689 114.179 36.2391
64.404030 114.167 36.0887
64.870728 114.156 35.9220
65.340805 114.143 35.7386
65.814293 114.127 35.5405
66.291214 114.107 35.3335
66.771591 114.083 35.1278
67.255447 114.054 34.9340
67.742805 114.023 34.7576
68.233696 113.991 34.5965
68.728142 113.958 34.4451
69.226173 113.924 34.2982
69.727814 113.891 34.1527
70.233093 113.857 34.0046
70.742035 113.822 33.8501
71.254662 113.785 33.6896
71.771004 113.746 33.5316
72.291084 113.703 33.3891
72.814934 113.659 33.2701
73.342583 113.616 33.1722
73.874054 113.574 33.0859
74.409378 113.533 33.0033
74.948578 113.493 32.9231
75.491684 113.452 32.8481
76.038727 113.411 32.7798
76.589737 113.370 32.7160
77.144737 113.328 32.6539
77.703758 113.286 32.5930
78.266830 113.243 32.5354
78.833984 113.198 32.4838
79.405251 113.153 32.4395
79.980652 113.107 32.4019
80.560226 113.061 32.3689
81.143997 113.015 32.3378
81.732002 112.969 32.3071
82.324265 112.921 32.2784
82.920822 112.873 32.2548
83.521698 112.825 32.2384
84.126930 112.777 32.2276
84.736549 112.729 32.2195
85.350586 112.680 32.2125
85.969070 112.630 32.2082
86.592041 112.578 32.2104
87.219521 112.524 32.2224
87.851547 112.468 32.2449
88.488159 112.411 32.2760
89.129379 112.352 32.3127
89.775246 112.291 32.3537
90.425797 112.230 32.3990
91.081062 112.168 32.4478
91.741074 112.107 32.4971
