* Measurement data measured by REW V5.30.4
* Source: EXCL: Microphone (Realtek(R) Audio), MICROPHONE (Master Volume), L, volume: 1.000
* Format: 256k Log Swept Sine, 1 sweep at -15.0 dBFS with no timing reference
* Dated: Jan 14, 2024 12:45:04 AM
* REW Settings:
*  C-weighting compensation: Off
*  Target level: 75.0 dB
* Note: ROSE TECHNICS Ceramics Rock Hifi
* Measurement: ROSE TECHNICS Ceramics H
* Smoothing: 1/12 octave
* Frequency Step: 96 ppo
* Start Frequency: 0.36621094 Hz
*
* Freq(Hz) SPL(dB) Phase(degrees)
0.366211 71.757 -172.7555
0.368865 71.785 -172.8334
0.371538 71.827 -172.9485
0.374230 71.878 -173.0903
0.376942 71.936 -173.2499
0.379673 71.997 -173.4207
0.382424 72.062 -173.5984
0.385196 72.127 -173.7802
0.387987 72.194 -173.9648
0.390798 72.262 -174.1512
0.393630 72.331 -174.3389
0.396483 72.400 -174.5276
0.399356 72.469 -174.7172
0.402250 72.540 -174.9077
0.405165 72.610 -175.0989
0.408101 72.681 -175.2908
0.411058 72.753 -175.4834
0.414037 72.825 -175.6766
0.417037 72.898 -175.8704
0.420059 72.971 -176.0648
0.423103 73.045 -176.2597
0.426169 73.119 -176.4552
0.429257 73.194 -176.6512
0.432367 73.269 -176.8477
0.435501 73.345 -177.0446
0.438656 73.422 -177.2421
0.441835 73.499 -177.4399
0.445037 73.576 -177.6382
0.448262 73.655 -177.8369
0.451510 73.733 -178.0360
0.454782 73.813 -178.2355
0.458077 73.893 -178.4354
0.461397 73.973 -178.6357
0.464740 74.054 -178.8364
0.468108 74.136 -179.0374
0.471500 74.218 -179.2388
0.474917 74.301 -179.4407
0.478358 74.384 -179.6429
0.481825 74.468 -179.8455
0.485316 74.553 179.9515
0.488833 74.638 179.7480
0.492375 74.724 179.5441
0.495943 74.810 179.3398
0.499537 74.897 179.1350
0.503157 74.985 178.9297
0.506803 75.074 178.7239
0.510475 75.163 178.5175
0.514174 75.252 178.3106
0.517900 75.343 178.1031
0.521653 75.434 177.8950
0.525433 75.525 177.6862
0.529241 75.617 177.4767
0.533076 75.710 177.2665
0.536939 75.804 177.0556
0.540830 75.898 176.8438
0.544749 75.993 176.6312
0.548696 76.089 176.4177
0.552673 76.186 176.2032
0.556677 76.283 175.9877
0.560711 76.380 175.7712
0.564774 76.479 175.5536
0.568867 76.578 175.3349
0.572989 76.678 175.1149
0.577141 76.779 174.8937
0.581324 76.880 174.6711
0.585536 76.982 174.4471
0.589779 77.085 174.2217
0.594053 77.189 173.9948
0.598358 77.293 173.7661
0.602694 77.398 173.5359
0.607061 77.504 173.3039
0.611460 77.611 173.0700
0.615891 77.718 172.8342
0.620354 77.826 172.5965
0.624849 77.935 172.3566
0.629377 78.045 172.1146
0.633938 78.156 171.8704
0.638532 78.267 171.6237
0.643159 78.379 171.3746
0.647819 78.492 171.1230
0.652514 78.606 170.8688
0.657242 78.721 170.6118
0.662005 78.836 170.3519
0.666802 78.953 170.0891
0.671634 79.070 169.8232
0.676501 79.188 169.5542
0.681403 79.307 169.2818
0.686341 79.426 169.0060
0.691314 79.547 168.7267
0.696324 79.668 168.4438
0.701369 79.790 168.1571
0.706452 79.912 167.8666
0.711571 80.034 167.5723
0.716727 80.156 167.2740
0.721921 80.277 166.9720
0.727153 80.396 166.6665
0.732422 80.512 166.3578
0.737729 80.624 166.0465
0.743075 80.734 165.7330
0.748460 80.842 165.4178
0.753883 80.948 165.1014
0.759346 81.052 164.7840
0.764849 81.157 164.4659
0.770391 81.260 164.1471
0.775974 81.363 163.8280
0.781597 81.466 163.5085
0.787261 81.569 163.1888
0.792965 81.671 162.8690
0.798712 81.773 162.5490
0.804499 81.875 162.2291
0.810329 81.977 161.9092
0.816201 82.078 161.5894
0.822116 82.180 161.2697
0.828073 82.281 160.9501
0.834073 82.382 160.6308
0.840118 82.482 160.3116
0.846205 82.583 159.9927
0.852337 82.683 159.6740
0.858514 82.783 159.3556
0.864735 82.883 159.0373
0.871001 82.982 158.7192
0.877313 83.082 158.4014
0.883670 83.181 158.0837
0.890074 83.280 157.7661
0.896523 83.379 157.4486
0.903020 83.478 157.1311
0.909564 83.577 156.8137
0.916155 83.676 156.4961
0.922793 83.774 156.1784
0.929480 83.873 155.8605
0.936216 83.971 155.5424
0.943000 84.069 155.2238
0.949833 84.167 154.9048
0.956716 84.265 154.5853
0.963649 84.363 154.2651
0.970632 84.461 153.9442
0.977666 84.559 153.6224
0.984750 84.657 153.2997
0.991886 84.755 152.9759
0.999074 84.854 152.6508
1.006313 84.952 152.3243
1.013605 85.050 151.9964
1.020950 85.149 151.6667
1.028349 85.247 151.3353
1.035801 85.346 151.0019
1.043306 85.445 150.6663
1.050867 85.544 150.3284
1.058482 85.643 149.9879
1.066152 85.743 149.6447
1.073878 85.843 149.2985
1.081659 85.943 148.9491
1.089498 86.043 148.5962
1.097393 86.144 148.2396
1.105345 86.244 147.8789
1.113355 86.344 147.5142
1.121422 86.444 147.1453
1.129549 86.544 146.7722
1.137734 86.643 146.3953
1.145978 86.741 146.0145
1.154283 86.840 145.6302
1.162647 86.937 145.2426
1.171072 87.035 144.8520
1.179558 87.132 144.4586
1.188106 87.228 144.0627
1.196715 87.324 143.6644
1.205387 87.420 143.2642
1.214122 87.515 142.8621
1.222920 87.610 142.4586
1.231781 87.704 142.0536
1.240708 87.798 141.6476
1.249698 87.892 141.2407
1.258754 87.985 140.8332
1.267875 88.078 140.4252
1.277063 88.170 140.0169
1.286317 88.262 139.6086
1.295638 88.354 139.2004
1.305027 88.446 138.7925
1.314484 88.537 138.3851
1.324009 88.628 137.9784
1.333603 88.719 137.5725
1.343267 88.810 137.1676
1.353001 88.900 136.7638
1.362805 88.991 136.3612
1.372681 89.081 135.9601
1.382628 89.171 135.5604
1.392647 89.261 135.1624
1.402739 89.351 134.7661
1.412904 89.440 134.3715
1.423142 89.530 133.9786
1.433455 89.620 133.5873
1.443842 89.710 133.1973
1.454305 89.799 132.8082
1.464843 89.889 132.4196
1.475458 89.978 132.0305
1.486150 90.067 131.6406
1.496919 90.155 131.2491
1.507766 90.243 130.8559
1.518692 90.330 130.4608
1.529697 90.416 130.0639
1.540782 90.502 129.6651
1.551947 90.587 129.2647
1.563193 90.671 128.8629
1.574521 90.755 128.4597
1.585931 90.839 128.0555
1.597423 90.922 127.6503
1.608998 91.004 127.2444
1.620658 91.085 126.8380
1.632402 91.167 126.4313
1.644231 91.247 126.0245
1.656146 91.327 125.6178
1.668147 91.407 125.2112
1.680235 91.486 124.8052
1.692410 91.565 124.3997
1.704674 91.644 123.9950
1.717027 91.722 123.5913
1.729469 91.800 123.1887
1.742002 91.877 122.7874
1.754625 91.954 122.3875
1.767340 92.032 121.9890
1.780147 92.108 121.5919
1.793046 92.185 121.1962
1.806040 92.261 120.8016
1.819127 92.338 120.4077
1.832309 92.413 120.0137
1.845587 92.488 119.6189
1.858961 92.563 119.2226
1.872431 92.637 118.8243
1.886000 92.710 118.4239
1.899666 92.783 118.0212
1.913432 92.855 117.6164
1.927298 92.926 117.2098
1.941264 92.996 116.8016
1.955331 93.066 116.3924
1.969500 93.135 115.9825
1.983772 93.203 115.5723
1.998147 93.271 115.1622
2.012626 93.338 114.7528
2.027211 93.405 114.3444
2.041901 93.471 113.9375
2.056697 93.537 113.5326
2.071601 93.602 113.1302
2.086613 93.667 112.7306
2.101733 93.732 112.3344
2.116963 93.796 111.9420
2.132303 93.861 111.5536
2.147755 93.925 111.1696
2.163318 93.989 110.7900
2.178995 94.052 110.4146
2.194785 94.115 110.0430
2.210689 94.178 109.6745
2.226709 94.241 109.3083
2.242844 94.302 108.9441
2.259097 94.364 108.5812
2.275467 94.424 108.2194
2.291956 94.484 107.8588
2.308565 94.543 107.4994
2.325294 94.601 107.1414
2.342144 94.659 106.7850
2.359116 94.717 106.4306
2.376211 94.774 106.0784
2.393430 94.831 105.7286
2.410774 94.887 105.3817
2.428243 94.943 105.0381
2.445839 95.000 104.6980
2.463562 95.056 104.3618
2.481415 95.112 104.0299
2.499396 95.168 103.7026
2.517508 95.224 103.3802
2.535750 95.280 103.0628
2.554126 95.336 102.7505
2.572634 95.392 102.4432
2.591276 95.448 102.1407
2.610054 95.504 101.8427
2.628967 95.560 101.5490
2.648018 95.615 101.2592
2.667206 95.670 100.9731
2.686534 95.725 100.6905
2.706002 95.780 100.4112
2.725610 95.834 100.1351
2.745361 95.889 99.8620
2.765255 95.943 99.5918
2.785294 95.998 99.3244
2.805477 96.053 99.0596
2.825807 96.108 98.7974
2.846284 96.164 98.5378
2.866909 96.219 98.2808
2.887684 96.276 98.0264
2.908609 96.332 97.7748
2.929686 96.390 97.5263
2.950916 96.447 97.2811
2.972299 96.505 97.0394
2.993838 96.564 96.8011
3.015532 96.622 96.5662
3.037384 96.681 96.3344
3.059394 96.740 96.1054
3.081564 96.800 95.8786
3.103894 96.860 95.6537
3.126386 96.920 95.4300
3.149041 96.980 95.2072
3.171861 97.041 94.9848
3.194845 97.103 94.7622
3.217996 97.164 94.5393
3.241315 97.227 94.3156
3.264803 97.290 94.0912
3.288461 97.353 93.8662
3.312291 97.417 93.6409
3.336293 97.481 93.4155
3.360469 97.546 93.1903
3.384820 97.612 92.9654
3.409348 97.678 92.7404
3.434054 97.744 92.5153
3.458938 97.811 92.2893
3.484003 97.879 92.0622
3.509250 97.946 91.8333
3.534679 98.014 91.6021
3.560293 98.082 91.3680
3.586092 98.150 91.1306
3.612079 98.218 90.8894
3.638253 98.286 90.6443
3.664618 98.355 90.3950
3.691173 98.423 90.1418
3.717921 98.492 89.8848
3.744862 98.561 89.6242
3.771999 98.630 89.3602
3.799332 98.699 89.0930
3.826864 98.768 88.8227
3.854595 98.837 88.5494
3.882527 98.906 88.2730
3.910661 98.974 87.9937
3.938999 99.043 87.7114
3.967543 99.111 87.4258
3.996294 99.178 87.1369
4.025252 99.245 86.8444
4.054421 99.311 86.5481
4.083801 99.377 86.2479
4.113394 99.443 85.9440
4.143201 99.508 85.6366
4.173225 99.572 85.3261
4.203466 99.636 85.0131
4.233926 99.700 84.6981
4.264606 99.762 84.3817
4.295509 99.824 84.0644
4.326636 99.886 83.7465
4.357989 99.946 83.4281
4.389569 100.006 83.1091
4.421378 100.065 82.7893
4.453417 100.123 82.4684
4.485688 100.180 82.1465
4.518193 100.236 81.8238
4.550934 100.292 81.5007
4.583912 100.347 81.1780
4.617129 100.401 80.8564
4.650587 100.454 80.5365
4.684287 100.507 80.2192
4.718231 100.559 79.9047
4.752421 100.610 79.5934
4.786859 100.661 79.2851
4.821547 100.711 78.9797
4.856485 100.760 78.6771
4.891677 100.808 78.3772
4.927125 100.856 78.0802
4.962829 100.903 77.7864
4.998791 100.950 77.4962
5.035015 100.997 77.2098
5.071500 101.044 76.9278
5.108251 101.090 76.6503
5.145267 101.136 76.3774
5.182552 101.182 76.1092
5.220107 101.228 75.8455
5.257934 101.274 75.5859
5.296035 101.319 75.3301
5.334412 101.365 75.0777
5.373067 101.411 74.8285
5.412003 101.456 74.5821
5.451221 101.503 74.3383
5.490722 101.549 74.0973
5.530510 101.596 73.8589
5.570587 101.644 73.6230
5.610953 101.691 73.3893
5.651613 101.739 73.1572
5.692567 101.788 72.9261
5.733818 101.836 72.6953
5.775367 101.885 72.4639
5.817218 101.935 72.2314
5.859372 101.985 71.9975
5.901831 102.035 71.7620
5.944598 102.086 71.5248
5.987675 102.137 71.2857
6.031065 102.188 71.0443
6.074768 102.239 70.8000
6.118788 102.291 70.5524
6.163127 102.342 70.3008
6.207788 102.394 70.0448
6.252772 102.445 69.7842
6.298082 102.496 69.5190
6.343721 102.547 69.2491
6.389690 102.598 68.9748
6.435992 102.649 68.6960
6.482630 102.698 68.4131
6.529606 102.748 68.1259
6.576922 102.796 67.8345
6.624581 102.844 67.5388
6.672585 102.891 67.2390
6.720938 102.937 66.9354
6.769640 102.982 66.6285
6.818696 103.026 66.3189
6.868107 103.069 66.0073
6.917876 103.111 65.6942
6.968006 103.152 65.3799
7.018499 103.192 65.0647
7.069358 103.230 64.7489
7.120586 103.268 64.4329
7.172184 103.304 64.1174
7.224157 103.339 63.8032
7.276506 103.373 63.4910
7.329235 103.406 63.1813
7.382345 103.438 62.8743
7.435841 103.469 62.5703
7.489724 103.499 62.2696
7.543997 103.528 61.9724
7.598664 103.556 61.6791
7.653728 103.584 61.3901
7.709189 103.611 61.1057
7.765053 103.637 60.8258
7.821322 103.663 60.5504
7.877998 103.688 60.2795
7.935086 103.713 60.0128
7.992587 103.738 59.7502
8.050504 103.762 59.4915
8.108841 103.786 59.2367
8.167601 103.811 58.9854
8.226787 103.835 58.7373
8.286402 103.859 58.4921
8.346449 103.882 58.2491
8.406931 103.906 58.0081
8.467851 103.930 57.7686
8.529212 103.954 57.5305
8.591018 103.978 57.2933
8.653272 104.002 57.0568
8.715977 104.025 56.8206
8.779137 104.049 56.5844
8.842754 104.072 56.3480
8.906833 104.095 56.1111
8.971375 104.118 55.8739
9.036386 104.141 55.6362
9.101867 104.163 55.3979
9.167823 104.185 55.1593
9.234257 104.206 54.9200
9.301172 104.228 54.6805
9.368572 104.248 54.4407
9.436460 104.268 54.2009
9.504841 104.288 53.9613
9.573717 104.307 53.7220
9.643092 104.326 53.4832
9.712970 104.344 53.2450
9.783354 104.362 53.0076
9.854248 104.379 52.7711
9.925656 104.395 52.5358
9.997581 104.412 52.3017
10.070028 104.428 52.0687
10.143000 104.443 51.8370
10.216500 104.458 51.6065
10.290533 104.473 51.3773
10.365103 104.487 51.1494
10.440212 104.501 50.9225
10.515866 104.515 50.6969
10.592069 104.528 50.4723
10.668823 104.541 50.2486
10.746134 104.553 50.0259
10.824005 104.566 49.8043
10.902440 104.577 49.5836
10.981443 104.589 49.3639
11.061020 104.600 49.1454
11.141172 104.610 48.9280
11.221906 104.620 48.7121
11.303225 104.629 48.4977
11.385133 104.638 48.2851
11.467634 104.647 48.0745
11.550734 104.654 47.8662
11.634435 104.662 47.6604
11.718742 104.668 47.4576
11.803661 104.675 47.2579
11.889195 104.680 47.0616
11.975349 104.685 46.8691
12.062128 104.690 46.6806
12.149535 104.694 46.4965
12.237576 104.698 46.3169
12.326254 104.702 46.1421
12.415575 104.705 45.9724
12.505544 104.708 45.8079
12.596164 104.710 45.6488
12.687441 104.712 45.4954
12.779379 104.714 45.3477
12.871984 104.716 45.2059
12.965260 104.718 45.0701
13.059211 104.720 44.9403
13.153843 104.722 44.8165
13.249161 104.724 44.6988
13.345170 104.726 44.5870
13.441875 104.728 44.4809
13.539280 104.731 44.3804
13.637391 104.733 44.2852
13.736214 104.736 44.1949
13.835752 104.740 44.1093
13.936011 104.743 44.0278
14.036998 104.747 43.9501
14.138716 104.752 43.8759
14.241171 104.756 43.8047
14.344368 104.761 43.7363
14.448313 104.766 43.6705
14.553011 104.771 43.6073
14.658468 104.776 43.5468
14.764689 104.781 43.4893
14.871680 104.785 43.4350
14.979446 104.790 43.3846
15.087994 104.794 43.3385
15.197328 104.798 43.2975
15.307454 104.802 43.2622
15.418378 104.805 43.2331
15.530106 104.809 43.2105
15.642643 104.813 43.1948
15.755996 104.817 43.1859
15.870171 104.821 43.1834
15.985172 104.826 43.1867
16.101007 104.831 43.1951
16.217682 104.838 43.2073
16.335201 104.844 43.2222
16.453573 104.852 43.2384
16.572803 104.860 43.2548
16.692898 104.869 43.2704
16.813862 104.877 43.2847
16.935701 104.886 43.2972
17.058424 104.894 43.3083
17.182035 104.902 43.3187
17.306543 104.909 43.3298
17.431953 104.915 43.3433
17.558273 104.920 43.3610
17.685509 104.924 43.3852
17.813665 104.927 43.4177
17.942751 104.930 43.4604
18.072771 104.932 43.5146
18.203733 104.935 43.5807
18.335646 104.938 43.6587
18.468513 104.943 43.7477
18.602345 104.948 43.8459
18.737144 104.956 43.9511
18.872921 104.965 44.0608
19.009682 104.977 44.1720
19.147434 104.990 44.2821
19.286184 105.005 44.3889
19.425940 105.021 44.4909
19.566708 105.038 44.5872
19.708496 105.055 44.6776
19.851313 105.073 44.7630
19.995163 105.091 44.8443
20.140057 105.109 44.9230
20.285999 105.127 45.0006
20.433001 105.146 45.0779
20.581066 105.165 45.1555
20.730206 105.185 45.2333
20.880424 105.205 45.3103
21.031733 105.227 45.3850
21.184137 105.250 45.4557
21.337646 105.274 45.5206
21.492268 105.299 45.5780
21.648010 105.324 45.6273
21.804880 105.349 45.6683
21.962887 105.374 45.7022
22.122040 105.398 45.7307
22.282345 105.421 45.7565
22.443811 105.443 45.7822
22.606449 105.465 45.8106
22.770266 105.486 45.8437
22.935268 105.507 45.8825
23.101467 105.529 45.9270
23.268869 105.552 45.9760
23.437485 105.577 46.0273
23.607323 105.602 46.0782
23.778391 105.629 46.1258
23.950699 105.657 46.1677
24.124256 105.685 46.2023
24.299070 105.714 46.2292
24.475151 105.742 46.2491
24.652508 105.770 46.2636
24.831150 105.796 46.2753
25.011087 105.822 46.2867
25.192327 105.847 46.3002
25.374882 105.871 46.3179
25.558758 105.895 46.3410
25.743967 105.918 46.3702
25.930519 105.942 46.4056
26.118422 105.966 46.4471
26.307686 105.991 46.4946
26.498322 106.017 46.5476
26.690340 106.043 46.6058
26.883749 106.071 46.6682
27.078560 106.101 46.7332
27.274782 106.132 46.7981
27.472427 106.166 46.8589
27.671503 106.202 46.9109
27.872023 106.241 46.9487
28.073996 106.280 46.9673
28.277431 106.321 46.9633
28.482342 106.361 46.9352
28.688736 106.400 46.8840
28.896626 106.436 46.8135
29.106022 106.469 46.7295
29.316936 106.499 46.6388
29.529379 106.526 46.5480
29.743361 106.550 46.4626
29.958893 106.572 46.3860
30.175987 106.593 46.3188
30.394655 106.613 46.2601
30.614908 106.634 46.2074
30.836756 106.655 46.1580
31.060211 106.676 46.1102
31.285286 106.696 46.0635
31.511992 106.716 46.0189
31.740341 106.735 45.9782
31.970345 106.754 45.9432
32.202015 106.774 45.9146
32.435364 106.794 45.8914
32.670403 106.816 45.8709
32.907146 106.838 45.8488
33.145607 106.863 45.8208
33.385796 106.888 45.7831
33.627724 106.912 45.7341
33.871403 106.937 45.6741
34.116848 106.960 45.6058
34.364071 106.981 45.5331
34.613087 107.001 45.4601
34.863907 107.019 45.3900
35.116547 107.037 45.3243
35.371017 107.054 45.2625
35.627331 107.072 45.2024
35.885502 107.089 45.1413
36.145542 107.107 45.0765
36.407467 107.125 45.0063
36.671291 107.141 44.9306
36.937027 107.157 44.8509
37.204689 107.171 44.7693
37.474289 107.184 44.6885
37.745842 107.196 44.6099
38.019363 107.207 44.5340
38.294868 107.218 44.4602
38.572369 107.229 44.3871
38.851879 107.239 44.3134
39.133415 107.249 44.2384
39.416992 107.258 44.1625
39.702625 107.266 44.0869
39.990326 107.273 44.0129
40.280113 107.280 43.9415
40.571999 107.286 43.8727
40.866001 107.292 43.8058
41.162132 107.298 43.7395
41.460411 107.304 43.6727
41.760849 107.309 43.6046
42.063465 107.313 43.5350
42.368275 107.316 43.4644
42.675293 107.318 43.3940
42.984535 107.319 43.3259
43.296021 107.317 43.2643
43.609760 107.313 43.2142
43.925774 107.308 43.1812
44.244080 107.302 43.1691
44.564690 107.298 43.1772
44.887623 107.296 43.1996
45.212898 107.296 43.2267
45.540531 107.299 43.2480
45.870537 107.302 43.2576
46.202934 107.305 43.2558
46.537739 107.307 43.2497
46.874969 107.306 43.2487
47.214645 107.305 43.2591
47.556782 107.306 43.2797
47.901398 107.309 43.3025
48.248512 107.314 43.3157
48.598141 107.320 43.3103
48.950302 107.326 43.2838
49.305016 107.330 43.2403
49.662300 107.332 43.1872
50.022175 107.332 43.1307
50.384655 107.330 43.0726
50.749763 107.328 43.0108
51.117516 107.325 42.9425
51.487934 107.320 42.8680
51.861038 107.313 42.7927
52.236843 107.302 42.7264
52.615372 107.290 42.6797
52.996643 107.277 42.6588
53.380680 107.266 42.6620
53.767498 107.258 42.6785
54.157120 107.254 42.6921
54.549564 107.252 42.6885
54.944855 107.249 42.6628
55.343006 107.242 42.6227
55.744045 107.230 42.5861
56.147991 107.213 42.5729
56.554863 107.192 42.5973
56.964684 107.171 42.6636
57.377472 107.151 42.7684
57.793251 107.135 42.9029
58.212044 107.123 43.0544
58.633873 107.116 43.2055
59.058758 107.114 43.3343
59.486721 107.114 43.4216
59.917786 107.113 43.4601
60.351974 107.107 43.4613
60.789310 107.093 43.4512
61.229816 107.074 43.4573
61.673512 107.053 43.4937
62.120422 107.034 43.5550
62.570572 107.019 43.6218
63.023983 107.006 43.6763
63.480682 106.993 43.7146
63.940689 106.977 43.7504
64.404030 106.958 43.8059
64.870728 106.938 43.8986
65.340805 106.920 44.0294
65.814293 106.906 44.1835
66.291214 106.896 44.3401
66.771591 106.888 44.4852
67.255447 106.878 44.6165
67.742805 106.865 44.7375
68.233696 106.849 44.8499
68.728142 106.829 44.9516
69.226173 106.805 45.0423
69.727814 106.775 45.1248
70.233093 106.740 45.2013
70.742035 106.700 45.2707
71.254662 106.655 45.3369
71.771004 106.605 45.4209
72.291084 106.551 45.5566
72.814934 106.502 45.7635
73.342583 106.465 46.0194
73.874054 106.447 46.2654
74.409378 106.442 46.4445
74.948578 106.444 46.5386
75.491684 106.445 46.5694
76.038727 106.443 46.5728
76.589737 106.437 46.5779
77.144737 106.428 46.6031
77.703758 106.417 46.6592
78.266830 106.404 46.7493
78.833984 106.390 46.8684
79.405251 106.373 47.0087
79.980652 106.354 47.1653
80.560226 106.332 47.3367
81.143997 106.306 47.5220
81.732002 106.278 47.7183
82.324265 106.247 47.9206
82.920822 106.215 48.1217
83.521698 106.182 48.3140
84.126930 106.149 48.4918
84.736549 106.115 48.6541
85.350586 106.079 48.8044
85.969070 106.043 48.9499
86.592041 106.005 49.1016
87.219521 105.967 49.2704
87.851547 105.930 49.4618
88.488159 105.895 49.6736
89.129379 105.862 49.8994
89.775246 105.830 50.1315
90.425797 105.798 50.3625
91.081062 105.765 50.5861
91.741074 105.730 50.8002
92.405869 105.692 51.0078
