* Measurement data measured by REW V5.31
* Source: EXCL: Microphone (USB Sound Device        ), MICROPHONE (Master Volume), L, volume: 0.390
* Format: 256k Log Swept Sine, 1 sweep at -5.0 dBFS with no timing reference
* Dated: Oct 26, 2024 2:09:01 PM
* REW Settings:
*  C-weighting compensation: Off
*  Target level: 75.0 dB
* Note: ROSESELSA EARFREE-i5
* Measurement: L ROSESELSA EARFREE-i5
* Smoothing: 1/12 octave
* Frequency Step: 96 ppo
* Start Frequency: 0.36621094 Hz
*
* Freq(Hz)	SPL(dB)	Phase(degrees)
0.366211	86.025	156.8864
0.368865	86.020	156.8623
0.371538	86.013	156.8263
0.374230	86.004	156.7810
0.376942	85.993	156.7289
0.379673	85.982	156.6716
0.382424	85.971	156.6103
0.385196	85.959	156.5457
0.387987	85.947	156.4781
0.390798	85.934	156.4078
0.393630	85.922	156.3349
0.396483	85.910	156.2595
0.399356	85.897	156.1814
0.402250	85.884	156.1008
0.405165	85.872	156.0177
0.408101	85.859	155.9319
0.411058	85.846	155.8434
0.414037	85.833	155.7523
0.417037	85.820	155.6586
0.420059	85.806	155.5621
0.423103	85.793	155.4629
0.426169	85.780	155.3610
0.429257	85.766	155.2562
0.432368	85.752	155.1487
0.435501	85.739	155.0384
0.438656	85.725	154.9252
0.441835	85.711	154.8092
0.445037	85.697	154.6902
0.448262	85.683	154.5684
0.451510	85.669	154.4436
0.454782	85.654	154.3159
0.458077	85.640	154.1853
0.461397	85.625	154.0517
0.464740	85.611	153.9150
0.468108	85.596	153.7754
0.471500	85.581	153.6327
0.474917	85.566	153.4870
0.478358	85.551	153.3383
0.481825	85.536	153.1864
0.485316	85.521	153.0316
0.488833	85.505	152.8736
0.492375	85.490	152.7126
0.495943	85.474	152.5484
0.499537	85.458	152.3812
0.503157	85.443	152.2108
0.506803	85.427	152.0374
0.510475	85.411	151.8609
0.514175	85.394	151.6812
0.517900	85.378	151.4985
0.521653	85.362	151.3127
0.525434	85.345	151.1238
0.529241	85.328	150.9319
0.533076	85.312	150.7369
0.536939	85.295	150.5388
0.540830	85.278	150.3378
0.544749	85.260	150.1337
0.548696	85.243	149.9267
0.552673	85.226	149.7167
0.556677	85.208	149.5039
0.560711	85.191	149.2881
0.564774	85.173	149.0695
0.568867	85.155	148.8482
0.572989	85.137	148.6240
0.577141	85.119	148.3972
0.581324	85.100	148.1677
0.585536	85.082	147.9357
0.589779	85.063	147.7010
0.594053	85.045	147.4640
0.598358	85.026	147.2245
0.602694	85.007	146.9828
0.607061	84.988	146.7388
0.611460	84.968	146.4926
0.615891	84.949	146.2444
0.620354	84.929	145.9943
0.624849	84.910	145.7423
0.629377	84.890	145.4886
0.633938	84.870	145.2332
0.638532	84.850	144.9764
0.643159	84.830	144.7182
0.647819	84.809	144.4588
0.652514	84.789	144.1982
0.657242	84.768	143.9368
0.662005	84.747	143.6746
0.666802	84.726	143.4118
0.671634	84.705	143.1487
0.676501	84.684	142.8853
0.681403	84.662	142.6218
0.686341	84.641	142.3586
0.691314	84.619	142.0957
0.696324	84.597	141.8334
0.701370	84.574	141.5718
0.706452	84.552	141.3112
0.711571	84.529	141.0516
0.716728	84.505	140.7929
0.721921	84.481	140.5350
0.727153	84.455	140.2774
0.732422	84.428	140.0194
0.737729	84.399	139.7601
0.743075	84.368	139.4984
0.748460	84.336	139.2334
0.753883	84.303	138.9646
0.759346	84.269	138.6914
0.764849	84.234	138.4135
0.770391	84.199	138.1308
0.775974	84.163	137.8430
0.781597	84.127	137.5502
0.787261	84.090	137.2523
0.792966	84.052	136.9492
0.798712	84.015	136.6408
0.804500	83.976	136.3273
0.810329	83.937	136.0085
0.816201	83.897	135.6844
0.822116	83.857	135.3551
0.828073	83.816	135.0206
0.834074	83.775	134.6808
0.840118	83.733	134.3358
0.846206	83.690	133.9855
0.852338	83.646	133.6302
0.858514	83.602	133.2697
0.864735	83.558	132.9041
0.871001	83.512	132.5336
0.877313	83.466	132.1581
0.883670	83.419	131.7777
0.890074	83.371	131.3927
0.896524	83.322	131.0030
0.903020	83.273	130.6088
0.909564	83.223	130.2103
0.916155	83.172	129.8075
0.922794	83.120	129.4008
0.929481	83.067	128.9903
0.936216	83.013	128.5761
0.943000	82.958	128.1587
0.949834	82.902	127.7381
0.956717	82.845	127.3148
0.963649	82.787	126.8889
0.970632	82.728	126.4610
0.977666	82.668	126.0312
0.984750	82.607	125.6001
0.991886	82.545	125.1681
0.999074	82.481	124.7356
1.006314	82.416	124.3031
1.013606	82.350	123.8712
1.020951	82.283	123.4404
1.028349	82.215	123.0115
1.035801	82.145	122.5849
1.043307	82.073	122.1614
1.050867	82.000	121.7418
1.058482	81.926	121.3267
1.066152	81.850	120.9169
1.073878	81.773	120.5130
1.081660	81.694	120.1157
1.089498	81.614	119.7253
1.097393	81.532	119.3419
1.105345	81.449	118.9654
1.113355	81.364	118.5954
1.121423	81.278	118.2316
1.129549	81.190	117.8736
1.137734	81.101	117.5210
1.145979	81.010	117.1737
1.154283	80.917	116.8313
1.162647	80.824	116.4938
1.171072	80.728	116.1610
1.179558	80.631	115.8328
1.188106	80.532	115.5091
1.196715	80.432	115.1897
1.205387	80.330	114.8746
1.214122	80.226	114.5637
1.222920	80.121	114.2569
1.231782	80.013	113.9540
1.240708	79.904	113.6550
1.249699	79.792	113.3598
1.258754	79.679	113.0684
1.267876	79.564	112.7805
1.277063	79.446	112.4963
1.286318	79.327	112.2155
1.295639	79.205	111.9381
1.305027	79.081	111.6641
1.314484	78.955	111.3934
1.324009	78.827	111.1259
1.333604	78.696	110.8616
1.343268	78.562	110.6004
1.353002	78.427	110.3425
1.362806	78.288	110.0876
1.372681	78.148	109.8358
1.382628	78.004	109.5872
1.392647	77.858	109.3418
1.402739	77.708	109.0999
1.412904	77.556	108.8615
1.423142	77.401	108.6273
1.433455	77.242	108.3980
1.443843	77.079	108.1748
1.454305	76.912	107.9596
1.464844	76.740	107.7548
1.475459	76.561	107.5637
1.486150	76.376	107.3893
1.496920	76.183	107.2349
1.507767	75.982	107.1028
1.518693	75.773	106.9952
1.529698	75.556	106.9140
1.540783	75.331	106.8608
1.551948	75.100	106.8370
1.563194	74.863	106.8443
1.574521	74.619	106.8841
1.585931	74.371	106.9581
1.597423	74.118	107.0679
1.608999	73.862	107.2152
1.620658	73.604	107.4019
1.632402	73.343	107.6298
1.644232	73.082	107.9008
1.656146	72.821	108.2170
1.668147	72.561	108.5803
1.680235	72.304	108.9927
1.692411	72.050	109.4562
1.704675	71.801	109.9726
1.717028	71.557	110.5438
1.729470	71.321	111.1713
1.742003	71.093	111.8566
1.754626	70.876	112.6012
1.767341	70.669	113.4062
1.780147	70.476	114.2736
1.793047	70.296	115.2057
1.806040	70.131	116.2064
1.819128	69.983	117.2821
1.832310	69.850	118.4417
1.845587	69.734	119.6957
1.858961	69.633	121.0546
1.872432	69.548	122.5255
1.886001	69.476	124.1115
1.899667	69.419	125.8106
1.913433	69.376	127.6166
1.927299	69.345	129.5191
1.941265	69.326	131.5042
1.955332	69.319	133.5549
1.969501	69.322	135.6518
1.983773	69.337	137.7740
1.998148	69.361	139.8997
2.012627	69.394	142.0070
2.027212	69.436	144.0748
2.041902	69.486	146.0836
2.056698	69.543	148.0157
2.071602	69.605	149.8559
2.086614	69.674	151.5916
2.101734	69.747	153.2129
2.116964	69.825	154.7122
2.132304	69.905	156.0846
2.147756	69.990	157.3272
2.163320	70.078	158.4391
2.178996	70.169	159.4212
2.194786	70.266	160.2763
2.210690	70.370	161.0083
2.226710	70.482	161.6222
2.242845	70.604	162.1236
2.259098	70.736	162.5185
2.275468	70.877	162.8133
2.291957	71.028	163.0144
2.308566	71.188	163.1285
2.325295	71.355	163.1622
2.342145	71.528	163.1219
2.359117	71.705	163.0139
2.376212	71.886	162.8442
2.393431	72.069	162.6182
2.410775	72.252	162.3410
2.428244	72.433	162.0172
2.445840	72.611	161.6507
2.463564	72.785	161.2448
2.481416	72.952	160.8018
2.499397	73.112	160.3226
2.517509	73.263	159.8069
2.535752	73.405	159.2521
2.554127	73.536	158.6540
2.572635	73.658	158.0066
2.591277	73.772	157.3041
2.610055	73.877	156.5423
2.628968	73.975	155.7202
2.648019	74.066	154.8395
2.667208	74.150	153.9040
2.686535	74.230	152.9190
2.706003	74.303	151.8906
2.725612	74.372	150.8257
2.745363	74.435	149.7309
2.765257	74.495	148.6131
2.785295	74.550	147.4789
2.805478	74.601	146.3344
2.825808	74.649	145.1850
2.846285	74.693	144.0350
2.866910	74.734	142.8871
2.887685	74.773	141.7416
2.908611	74.808	140.5957
2.929688	74.840	139.4436
2.950917	74.868	138.2768
2.972301	74.892	137.0872
2.993839	74.912	135.8683
3.015534	74.928	134.6168
3.037386	74.939	133.3325
3.059396	74.946	132.0174
3.081565	74.948	130.6752
3.103896	74.947	129.3110
3.126388	74.942	127.9308
3.149043	74.933	126.5412
3.171862	74.921	125.1489
3.194847	74.906	123.7603
3.217998	74.889	122.3811
3.241317	74.869	121.0153
3.264805	74.846	119.6642
3.288463	74.821	118.3258
3.312293	74.792	116.9950
3.336295	74.761	115.6648
3.360471	74.726	114.3289
3.384822	74.687	112.9834
3.409350	74.646	111.6272
3.434056	74.600	110.2619
3.458940	74.552	108.8913
3.484005	74.501	107.5213
3.509252	74.448	106.1591
3.534681	74.392	104.8132
3.560295	74.335	103.4926
3.586094	74.276	102.2064
3.612081	74.216	100.9626
3.638255	74.154	99.7673
3.664620	74.090	98.6236
3.691175	74.024	97.5314
3.717923	73.955	96.4884
3.744864	73.884	95.4915
3.772001	73.811	94.5380
3.799335	73.736	93.6264
3.826866	73.661	92.7564
3.854597	73.586	91.9289
3.882529	73.513	91.1463
3.910664	73.443	90.4121
3.939002	73.377	89.7310
3.967546	73.316	89.1091
3.996296	73.261	88.5531
4.025255	73.211	88.0699
4.054423	73.166	87.6656
4.083804	73.128	87.3442
4.113396	73.094	87.1061
4.143204	73.066	86.9481
4.173227	73.045	86.8643
4.203468	73.032	86.8464
4.233928	73.027	86.8847
4.264609	73.033	86.9693
4.295512	73.050	87.0908
4.326639	73.081	87.2414
4.357992	73.127	87.4162
4.389572	73.188	87.6136
4.421380	73.266	87.8348
4.453419	73.360	88.0802
4.485691	73.470	88.3473
4.518196	73.594	88.6287
4.550936	73.731	88.9134
4.583914	73.880	89.1878
4.617131	74.039	89.4377
4.650589	74.206	89.6499
4.684289	74.380	89.8132
4.718233	74.560	89.9203
4.752424	74.746	89.9681
4.786862	74.939	89.9578
4.821549	75.137	89.8933
4.856488	75.342	89.7789
4.891680	75.552	89.6180
4.927127	75.765	89.4126
4.962831	75.980	89.1635
4.998794	76.195	88.8707
5.035017	76.408	88.5334
5.071503	76.617	88.1507
5.108253	76.822	87.7220
5.145270	77.022	87.2478
5.182555	77.218	86.7300
5.220110	77.408	86.1729
5.257937	77.594	85.5823
5.296038	77.775	84.9653
5.334415	77.950	84.3286
5.373071	78.120	83.6786
5.412006	78.283	83.0195
5.451224	78.439	82.3541
5.490725	78.588	81.6826
5.530514	78.729	81.0046
5.570590	78.864	80.3200
5.610957	78.990	79.6310
5.651616	79.110	78.9420
5.692570	79.223	78.2594
5.733821	79.329	77.5899
5.775370	79.429	76.9397
5.817221	79.523	76.3134
5.859375	79.611	75.7133
5.901834	79.693	75.1394
5.944602	79.768	74.5914
5.987679	79.838	74.0696
6.031068	79.903	73.5759
6.074771	79.963	73.1135
6.118792	80.020	72.6863
6.163131	80.074	72.2983
6.207792	80.125	71.9525
6.252776	80.175	71.6505
6.298086	80.223	71.3921
6.343725	80.269	71.1758
6.389694	80.315	70.9996
6.435996	80.361	70.8609
6.482634	80.408	70.7575
6.529610	80.457	70.6878
6.576926	80.508	70.6505
6.624585	80.563	70.6444
6.672590	80.621	70.6675
6.720942	80.682	70.7164
6.769645	80.747	70.7856
6.818700	80.816	70.8687
6.868111	80.888	70.9591
6.917881	80.965	71.0512
6.968010	81.046	71.1411
7.018504	81.130	71.2259
7.069362	81.219	71.3031
7.120590	81.310	71.3694
7.172189	81.404	71.4210
7.224161	81.500	71.4534
7.276511	81.597	71.4630
7.329239	81.694	71.4471
7.382350	81.792	71.4048
7.435845	81.889	71.3362
7.489729	81.986	71.2422
7.544002	82.081	71.1240
7.598669	82.173	70.9827
7.653732	82.263	70.8192
7.709194	82.349	70.6344
7.765058	82.432	70.4298
7.821327	82.510	70.2075
7.878004	82.585	69.9708
7.935091	82.655	69.7234
7.992592	82.721	69.4690
8.050510	82.782	69.2103
8.108847	82.839	68.9497
8.167607	82.892	68.6890
8.226793	82.940	68.4304
8.286408	82.984	68.1766
8.346454	83.024	67.9303
8.406936	83.062	67.6941
8.467856	83.097	67.4693
8.529218	83.129	67.2566
8.591024	83.159	67.0563
8.653278	83.187	66.8680
8.715983	83.214	66.6915
8.779143	83.241	66.5266
8.842760	83.267	66.3724
8.906839	83.293	66.2278
8.971381	83.320	66.0907
9.036392	83.347	65.9584
9.101873	83.375	65.8285
9.167829	83.404	65.6984
9.234263	83.434	65.5662
9.301178	83.465	65.4299
9.368578	83.496	65.2871
9.436467	83.529	65.1355
9.504847	83.562	64.9730
9.573723	83.594	64.7982
9.643099	83.627	64.6101
9.712976	83.658	64.4082
9.783361	83.688	64.1924
9.854255	83.715	63.9626
9.925663	83.739	63.7190
9.997588	83.759	63.4623
10.070035	83.777	63.1935
10.143007	83.791	62.9138
10.216507	83.802	62.6250
10.290540	83.811	62.3282
10.365109	83.817	62.0247
10.440219	83.821	61.7157
10.515873	83.824	61.4026
10.592076	83.825	61.0865
10.668830	83.826	60.7683
10.746141	83.826	60.4486
10.824012	83.826	60.1277
10.902447	83.827	59.8056
10.981451	83.827	59.4824
11.061027	83.829	59.1577
11.141180	83.831	58.8312
11.221913	83.834	58.5023
11.303232	83.839	58.1703
11.385140	83.844	57.8346
11.467641	83.850	57.4949
11.550741	83.858	57.1507
11.634442	83.867	56.8019
11.718750	83.877	56.4483
11.803669	83.889	56.0902
11.889203	83.902	55.7279
11.975357	83.916	55.3620
12.062136	83.932	54.9933
12.149543	83.948	54.6226
12.237583	83.966	54.2508
12.326262	83.984	53.8788
12.415583	84.004	53.5074
12.505552	84.024	53.1375
12.596172	84.045	52.7696
12.687449	84.068	52.4043
12.779387	84.091	52.0418
12.871992	84.116	51.6822
12.965268	84.142	51.3256
13.059220	84.169	50.9718
13.153852	84.197	50.6205
13.249170	84.227	50.2715
13.345179	84.258	49.9246
13.441884	84.290	49.5799
13.539289	84.323	49.2374
13.637401	84.357	48.8974
13.736223	84.391	48.5603
13.835761	84.425	48.2269
13.936021	84.459	47.8981
14.037007	84.493	47.5748
14.138725	84.526	47.2581
14.241180	84.559	46.9491
14.344377	84.591	46.6487
14.448323	84.623	46.3577
14.553021	84.655	46.0767
14.658478	84.686	45.8058
14.764700	84.717	45.5451
14.871691	84.748	45.2941
14.979457	84.779	45.0519
15.088005	84.811	44.8177
15.197339	84.842	44.5903
15.307465	84.874	44.3684
15.418389	84.905	44.1506
15.530117	84.936	43.9359
15.642655	84.967	43.7233
15.756008	84.997	43.5120
15.870182	85.026	43.3015
15.985184	85.053	43.0916
16.101019	85.080	42.8825
16.217694	85.105	42.6744
16.335214	85.128	42.4675
16.453586	85.150	42.2623
16.572815	85.171	42.0591
16.692909	85.191	41.8578
16.813872	85.209	41.6584
16.935713	85.227	41.4604
17.058436	85.244	41.2632
17.182048	85.261	41.0658
17.306556	85.277	40.8671
17.431967	85.292	40.6661
17.558286	85.306	40.4615
17.685521	85.320	40.2522
17.813677	85.333	40.0375
17.942762	85.345	39.8167
18.072783	85.356	39.5894
18.203746	85.366	39.3556
18.335658	85.375	39.1153
18.468526	85.383	38.8688
18.602356	85.391	38.6166
18.737156	85.398	38.3590
18.872934	85.405	38.0965
19.009695	85.411	37.8294
19.147447	85.417	37.5580
19.286197	85.424	37.2825
19.425953	85.430	37.0033
19.566721	85.436	36.7206
19.708510	85.443	36.4347
19.851326	85.450	36.1459
19.995177	85.458	35.8548
20.140070	85.466	35.5617
20.286013	85.474	35.2672
20.433014	85.484	34.9715
20.581080	85.494	34.6749
20.730219	85.506	34.3776
20.880439	85.519	34.0794
21.031747	85.533	33.7803
21.184152	85.548	33.4800
21.337661	85.565	33.1786
21.492282	85.583	32.8761
21.648024	85.602	32.5732
21.804895	85.622	32.2706
21.962902	85.642	31.9695
22.122054	85.662	31.6715
22.282360	85.682	31.3782
22.443827	85.702	31.0912
22.606464	85.722	30.8121
22.770280	85.741	30.5417
22.935283	85.761	30.2808
23.101481	85.782	30.0292
23.268884	85.802	29.7865
23.437500	85.823	29.5518
23.607338	85.843	29.3239
23.778406	85.864	29.1018
23.950714	85.884	28.8845
24.124271	85.904	28.6714
24.299086	85.923	28.4620
24.475167	85.941	28.2564
24.652524	85.958	28.0548
24.831166	85.973	27.8573
25.011103	85.988	27.6641
25.192344	86.002	27.4750
25.374898	86.015	27.2896
25.558775	86.028	27.1070
25.743984	86.040	26.9263
25.930536	86.051	26.7464
26.118439	86.061	26.5661
26.307704	86.071	26.3844
26.498341	86.081	26.2003
26.690359	86.090	26.0133
26.883768	86.099	25.8229
27.078579	86.107	25.6286
27.274801	86.115	25.4305
27.472446	86.123	25.2283
27.671522	86.131	25.0220
27.872042	86.139	24.8114
28.074014	86.147	24.5967
28.277450	86.155	24.3777
28.482360	86.164	24.1544
28.688755	86.173	23.9269
28.896645	86.183	23.6952
29.106042	86.194	23.4594
29.316957	86.205	23.2198
29.529400	86.217	22.9770
29.743382	86.230	22.7317
29.958915	86.243	22.4847
30.176009	86.257	22.2370
30.394677	86.271	21.9897
30.614929	86.287	21.7435
30.836778	86.303	21.4990
31.060234	86.319	21.2564
31.285309	86.336	21.0156
31.512015	86.354	20.7766
31.740364	86.372	20.5390
31.970368	86.389	20.3029
32.202039	86.407	20.0685
32.435388	86.424	19.8361
32.670428	86.442	19.6062
32.907171	86.458	19.3790
33.145630	86.475	19.1543
33.385817	86.491	18.9314
33.627745	86.507	18.7093
33.871425	86.523	18.4864
34.116871	86.538	18.2615
34.364096	86.553	18.0332
34.613113	86.567	17.8007
34.863934	86.581	17.5638
35.116572	86.593	17.3228
35.371041	86.605	17.0782
35.627354	86.616	16.8307
35.885525	86.626	16.5811
36.145566	86.635	16.3296
36.407492	86.644	16.0762
36.671316	86.653	15.8207
36.937051	86.662	15.5623
37.204712	86.672	15.3004
37.474313	86.681	15.0342
37.745867	86.691	14.7635
38.019389	86.700	14.4885
38.294893	86.709	14.2098
38.572394	86.718	13.9285
38.851905	86.727	13.6459
39.133442	86.735	13.3633
39.417019	86.743	13.0817
39.702651	86.751	12.8017
39.990353	86.759	12.5237
40.280140	86.766	12.2473
40.572026	86.773	11.9720
40.866028	86.780	11.6973
41.162160	86.787	11.4224
41.460438	86.793	11.1472
41.760877	86.798	10.8716
42.063494	86.803	10.5960
42.368303	86.807	10.3209
42.675322	86.810	10.0467
42.984565	86.812	9.7735
43.296048	86.813	9.5010
43.609789	86.814	9.2285
43.925804	86.815	8.9556
44.244108	86.815	8.6818
44.564719	86.814	8.4073
44.887654	86.813	8.1324
45.212928	86.812	7.8579
45.540560	86.810	7.5841
45.870565	86.808	7.3114
46.202962	86.805	7.0398
46.537768	86.803	6.7693
46.875000	86.800	6.4997
47.214676	86.797	6.2312
47.556813	86.794	5.9639
47.901429	86.791	5.6981
48.248542	86.788	5.4340
48.598171	86.784	5.1715
48.950334	86.780	4.9108
49.305048	86.775	4.6517
49.662333	86.770	4.3942
50.022206	86.765	4.1381
50.384688	86.759	3.8828
50.749796	86.753	3.6282
51.117550	86.747	3.3739
51.487969	86.740	3.1199
51.861072	86.733	2.8662
52.236879	86.726	2.6131
52.615409	86.719	2.3610
52.996681	86.711	2.1101
53.380717	86.703	1.8604
53.767536	86.696	1.6121
54.157158	86.688	1.3651
54.549603	86.680	1.1197
54.944892	86.672	0.8763
55.343045	86.664	0.6352
55.744084	86.655	0.3969
56.148028	86.647	0.1617
56.554900	86.637	-0.0703
56.964720	86.628	-0.2994
57.377510	86.618	-0.5264
57.793291	86.608	-0.7523
58.212085	86.598	-0.9777
58.633914	86.587	-1.2027
59.058799	86.576	-1.4268
59.486764	86.563	-1.6488
59.917829	86.551	-1.8678
60.352019	86.538	-2.0837
60.789354	86.525	-2.2968
61.229859	86.512	-2.5079
61.673556	86.499	-2.7181
62.120468	86.487	-2.9278
62.570618	86.474	-3.1371
63.024031	86.461	-3.3458
63.480729	86.448	-3.5535
63.940736	86.435	-3.7598
64.404077	86.422	-3.9643
64.870776	86.409	-4.1670
65.340856	86.395	-4.3678
65.814343	86.381	-4.5670
66.291261	86.367	-4.7651
66.771635	86.353	-4.9625
67.255489	86.338	-5.1596
67.742850	86.324	-5.3564
68.233743	86.309	-5.5530
68.728193	86.294	-5.7489
69.226226	86.279	-5.9439
69.727867	86.264	-6.1376
70.233144	86.249	-6.3302
70.742083	86.235	-6.5224
71.254709	86.220	-6.7148
71.771050	86.206	-6.9077
72.291132	86.190	-7.1004
72.814984	86.175	-7.2910
73.342631	86.159	-7.4781
73.874102	86.143	-7.6610
74.409424	86.127	-7.8404
74.948626	86.111	-8.0172
75.491734	86.095	-8.1924
76.038779	86.079	-8.3664
76.589787	86.064	-8.5396
77.144788	86.048	-8.7125
77.703811	86.033	-8.8854
78.266885	86.017	-9.0586
78.834039	86.002	-9.2320
79.405303	85.986	-9.4053
79.980706	85.970	-9.5782
80.560280	85.954	-9.7507
81.144053	85.938	-9.9226
81.732056	85.922	-10.0939
82.324320	85.905	-10.2647
82.920876	85.889	-10.4358
83.521755	85.872	-10.6075
84.126988	85.856	-10.7801
84.736607	85.840	-10.9533
85.350643	85.823	-11.1259
85.969129	85.807	-11.2968
86.592097	85.790	-11.4650
87.219579	85.774	-11.6303
87.851608	85.757	-11.7930
88.488217	85.741	-11.9537
89.129439	85.724	-12.1130
89.775308	85.708	-12.2716
90.425856	85.691	-12.4304
91.081119	85.675	-12.5900
91.741131	85.658	-12.7508
92.405925	85.640	-12.9127
93.075536	85.623	-13.0755
93.750000	85.605	-13.2390
94.429351	85.588	-13.4025
95.113625	85.570	-13.5656
95.802858	85.552	-13.7277
96.497085	85.534	-13.8885
97.196342	85.516	-14.0478
97.900667	85.497	-14.2055
98.610096	85.479	-14.3621
99.324665	85.460	-14.5177
100.044413	85.440	-14.6723
100.769376	85.420	-14.8252
101.499592	85.400	-14.9760
102.235100	85.379	-15.1243
102.975938	85.358	-15.2703
103.722144	85.336	-15.4146
104.473757	85.315	-15.5575
