* Measurement data measured by REW V5.31
* Source: EXCL: Microphone (USB Sound Device        ), MICROPHONE (Master Volume), L, volume: 0.560
* Format: 256k Log Swept Sine, 1 sweep at -5.0 dBFS with no timing reference
* Dated: May 20, 2024 11:32:21 AM
* REW Settings:
*  C-weighting compensation: Off
*  Target level: 75.0 dB
* Note: Rose Technics QuietSea L
* Measurement: L Rose Technics QuietSea
* Smoothing: 1/12 octave
* Frequency Step: 96 ppo
* Start Frequency: 0.36621094 Hz
*
* Freq(Hz) SPL(dB) Phase(degrees)
0.366211 83.713 157.4949
0.368865 83.706 157.4710
0.371538 83.697 157.4353
0.374230 83.686 157.3903
0.376942 83.674 157.3385
0.379673 83.660 157.2816
0.382424 83.646 157.2206
0.385196 83.632 157.1563
0.387987 83.617 157.0891
0.390798 83.603 157.0191
0.393630 83.588 156.9466
0.396483 83.572 156.8714
0.399356 83.557 156.7936
0.402250 83.542 156.7132
0.405165 83.526 156.6302
0.408101 83.511 156.5446
0.411058 83.495 156.4563
0.414037 83.479 156.3654
0.417037 83.463 156.2717
0.420059 83.447 156.1752
0.423103 83.431 156.0760
0.426169 83.415 155.9741
0.429257 83.398 155.8693
0.432368 83.382 155.7616
0.435501 83.365 155.6511
0.438656 83.349 155.5377
0.441835 83.332 155.4213
0.445037 83.315 155.3021
0.448262 83.298 155.1798
0.451510 83.280 155.0546
0.454782 83.263 154.9263
0.458077 83.246 154.7951
0.461397 83.228 154.6608
0.464740 83.210 154.5233
0.468108 83.192 154.3829
0.471500 83.174 154.2392
0.474917 83.156 154.0925
0.478358 83.138 153.9426
0.481825 83.120 153.7896
0.485316 83.101 153.6334
0.488833 83.082 153.4740
0.492375 83.064 153.3114
0.495943 83.045 153.1455
0.499537 83.026 152.9765
0.503157 83.006 152.8042
0.506803 82.987 152.6287
0.510475 82.967 152.4499
0.514175 82.948 152.2679
0.517900 82.928 152.0826
0.521653 82.908 151.8941
0.525434 82.888 151.7024
0.529241 82.868 151.5074
0.533076 82.848 151.3091
0.536939 82.827 151.1077
0.540830 82.806 150.9030
0.544749 82.786 150.6951
0.548696 82.765 150.4841
0.552673 82.744 150.2699
0.556677 82.722 150.0525
0.560711 82.701 149.8321
0.564774 82.679 149.6085
0.568867 82.658 149.3819
0.572989 82.636 149.1523
0.577141 82.614 148.9197
0.581324 82.592 148.6842
0.585536 82.569 148.4458
0.589779 82.547 148.2046
0.594053 82.524 147.9606
0.598358 82.501 147.7139
0.602694 82.478 147.4646
0.607061 82.455 147.2126
0.611460 82.432 146.9583
0.615891 82.408 146.7014
0.620354 82.384 146.4423
0.624849 82.361 146.1810
0.629377 82.337 145.9175
0.633938 82.312 145.6520
0.638532 82.288 145.3846
0.643159 82.263 145.1155
0.647819 82.239 144.8447
0.652514 82.214 144.5724
0.657242 82.189 144.2987
0.662005 82.163 144.0238
0.666802 82.138 143.7479
0.671634 82.112 143.4711
0.676501 82.086 143.1936
0.681403 82.060 142.9155
0.686341 82.034 142.6372
0.691314 82.008 142.3588
0.696324 81.981 142.0804
0.701370 81.954 141.8022
0.706452 81.927 141.5245
0.711571 81.899 141.2472
0.716728 81.870 140.9703
0.721921 81.840 140.6936
0.727153 81.809 140.4165
0.732422 81.775 140.1383
0.737729 81.739 139.8579
0.743075 81.702 139.5743
0.748460 81.662 139.2864
0.753883 81.621 138.9935
0.759346 81.579 138.6951
0.764849 81.536 138.3908
0.770391 81.492 138.0803
0.775974 81.448 137.7635
0.781597 81.403 137.4402
0.787261 81.358 137.1103
0.792966 81.312 136.7738
0.798712 81.265 136.4304
0.804500 81.217 136.0803
0.810329 81.169 135.7232
0.816201 81.121 135.3591
0.822116 81.071 134.9879
0.828073 81.021 134.6097
0.834074 80.970 134.2243
0.840118 80.918 133.8316
0.846206 80.865 133.4317
0.852338 80.812 133.0244
0.858514 80.757 132.6098
0.864735 80.702 132.1879
0.871001 80.646 131.7586
0.877313 80.589 131.3219
0.883670 80.531 130.8778
0.890074 80.471 130.4264
0.896524 80.411 129.9677
0.903020 80.350 129.5017
0.909564 80.287 129.0285
0.916155 80.223 128.5482
0.922794 80.158 128.0608
0.929481 80.092 127.5666
0.936216 80.024 127.0655
0.943000 79.956 126.5578
0.949834 79.885 126.0437
0.956717 79.813 125.5233
0.963649 79.740 124.9970
0.970632 79.665 124.4649
0.977666 79.589 123.9273
0.984750 79.511 123.3846
0.991886 79.431 122.8372
0.999074 79.350 122.2854
1.006314 79.266 121.7296
1.013606 79.181 121.1704
1.020951 79.094 120.6082
1.028349 79.005 120.0437
1.035801 78.914 119.4774
1.043307 78.820 118.9100
1.050867 78.725 118.3421
1.058482 78.627 117.7744
1.066152 78.527 117.2076
1.073878 78.424 116.6422
1.081660 78.319 116.0786
1.089498 78.211 115.5169
1.097393 78.100 114.9567
1.105345 77.986 114.3974
1.113355 77.868 113.8380
1.121423 77.747 113.2774
1.129549 77.622 112.7146
1.137734 77.493 112.1486
1.145979 77.361 111.5786
1.154283 77.225 111.0038
1.162647 77.085 110.4234
1.171072 76.941 109.8368
1.179558 76.794 109.2431
1.188106 76.644 108.6415
1.196715 76.490 108.0312
1.205387 76.333 107.4114
1.214122 76.172 106.7811
1.222920 76.009 106.1393
1.231782 75.843 105.4850
1.240708 75.675 104.8171
1.249699 75.503 104.1345
1.258754 75.329 103.4359
1.267876 75.153 102.7201
1.277063 74.975 101.9857
1.286318 74.795 101.2313
1.295639 74.614 100.4553
1.305027 74.430 99.6562
1.314484 74.246 98.8323
1.324009 74.060 97.9818
1.333604 73.873 97.1030
1.343268 73.686 96.1940
1.353002 73.498 95.2529
1.362806 73.310 94.2777
1.372681 73.122 93.2665
1.382628 72.935 92.2172
1.392647 72.748 91.1280
1.402739 72.562 89.9969
1.412904 72.377 88.8223
1.423142 72.193 87.6024
1.433455 72.011 86.3358
1.443843 71.829 85.0210
1.454305 71.648 83.6562
1.464844 71.467 82.2395
1.475459 71.284 80.7679
1.486150 71.099 79.2377
1.496920 70.910 77.6440
1.507767 70.717 75.9808
1.518693 70.520 74.2417
1.529698 70.318 72.4192
1.540783 70.113 70.5054
1.551948 69.905 68.4916
1.563194 69.694 66.3688
1.574521 69.481 64.1273
1.585931 69.266 61.7575
1.597423 69.052 59.2492
1.608999 68.837 56.5928
1.620658 68.624 53.7794
1.632402 68.413 50.8011
1.644232 68.205 47.6522
1.656146 68.002 44.3300
1.668147 67.804 40.8352
1.680235 67.612 37.1737
1.692411 67.428 33.3570
1.704675 67.252 29.4030
1.717028 67.087 25.3361
1.729470 66.934 21.1869
1.742003 66.794 16.9909
1.754626 66.668 12.7869
1.767341 66.558 8.6143
1.780147 66.466 4.5105
1.793047 66.394 0.5080
1.806040 66.343 -3.3681
1.819128 66.315 -7.1017
1.832310 66.312 -10.6865
1.845587 66.335 -14.1244
1.858961 66.384 -17.4222
1.872432 66.461 -20.5882
1.886001 66.564 -23.6299
1.899667 66.692 -26.5533
1.913433 66.844 -29.3631
1.927299 67.018 -32.0627
1.941265 67.212 -34.6548
1.955332 67.424 -37.1414
1.969501 67.653 -39.5245
1.983773 67.894 -41.8055
1.998148 68.147 -43.9857
2.012627 68.409 -46.0665
2.027212 68.677 -48.0490
2.041902 68.949 -49.9342
2.056698 69.222 -51.7231
2.071602 69.493 -53.4166
2.086614 69.760 -55.0157
2.101734 70.020 -56.5215
2.116964 70.271 -57.9353
2.132304 70.509 -59.2590
2.147756 70.734 -60.4954
2.163320 70.944 -61.6487
2.178996 71.138 -62.7252
2.194786 71.317 -63.7332
2.210690 71.481 -64.6830
2.226710 71.633 -65.5848
2.242845 71.775 -66.4477
2.259098 71.907 -67.2782
2.275468 72.031 -68.0806
2.291957 72.147 -68.8573
2.308566 72.258 -69.6095
2.325295 72.362 -70.3373
2.342145 72.460 -71.0400
2.359117 72.554 -71.7165
2.376212 72.642 -72.3652
2.393431 72.727 -72.9844
2.410775 72.808 -73.5717
2.428244 72.886 -74.1248
2.445840 72.961 -74.6410
2.463564 73.033 -75.1176
2.481416 73.104 -75.5519
2.499397 73.174 -75.9412
2.517509 73.241 -76.2835
2.535752 73.308 -76.5774
2.554127 73.372 -76.8223
2.572635 73.434 -77.0192
2.591277 73.493 -77.1697
2.610055 73.547 -77.2761
2.628968 73.598 -77.3406
2.648019 73.643 -77.3654
2.667208 73.685 -77.3523
2.686535 73.724 -77.3027
2.706003 73.759 -77.2181
2.725612 73.793 -77.0998
2.745363 73.825 -76.9492
2.765257 73.857 -76.7674
2.785295 73.890 -76.5559
2.805478 73.925 -76.3160
2.825808 73.962 -76.0490
2.846285 74.002 -75.7560
2.866910 74.047 -75.4378
2.887685 74.097 -75.0946
2.908611 74.153 -74.7256
2.929688 74.214 -74.3293
2.950917 74.280 -73.9036
2.972301 74.351 -73.4471
2.993839 74.427 -72.9596
3.015534 74.506 -72.4428
3.037386 74.590 -71.9003
3.059396 74.677 -71.3363
3.081565 74.768 -70.7565
3.103896 74.862 -70.1667
3.126388 74.961 -69.5729
3.149043 75.063 -68.9816
3.171862 75.168 -68.3985
3.194847 75.278 -67.8293
3.217998 75.391 -67.2787
3.241317 75.509 -66.7500
3.264805 75.631 -66.2449
3.288463 75.758 -65.7631
3.312293 75.891 -65.3028
3.336295 76.028 -64.8613
3.360471 76.172 -64.4370
3.384822 76.320 -64.0295
3.409350 76.474 -63.6403
3.434056 76.631 -63.2716
3.458940 76.791 -62.9263
3.484005 76.954 -62.6076
3.509252 77.119 -62.3189
3.534681 77.284 -62.0630
3.560295 77.448 -61.8427
3.586094 77.611 -61.6603
3.612081 77.773 -61.5173
3.638255 77.932 -61.4143
3.664620 78.090 -61.3510
3.691175 78.245 -61.3257
3.717923 78.399 -61.3364
3.744864 78.552 -61.3804
3.772001 78.704 -61.4547
3.799335 78.854 -61.5565
3.826866 79.002 -61.6833
3.854597 79.149 -61.8324
3.882529 79.292 -62.0018
3.910664 79.433 -62.1895
3.939002 79.571 -62.3942
3.967546 79.705 -62.6151
3.996296 79.835 -62.8522
4.025255 79.960 -63.1060
4.054423 80.082 -63.3773
4.083804 80.198 -63.6667
4.113396 80.311 -63.9736
4.143204 80.420 -64.2965
4.173227 80.524 -64.6327
4.203468 80.625 -64.9791
4.233928 80.722 -65.3325
4.264609 80.815 -65.6893
4.295512 80.904 -66.0468
4.326639 80.990 -66.4027
4.357992 81.071 -66.7559
4.389572 81.150 -67.1064
4.421380 81.224 -67.4551
4.453419 81.293 -67.8033
4.485691 81.359 -68.1513
4.518196 81.421 -68.4986
4.550936 81.479 -68.8435
4.583914 81.534 -69.1838
4.617131 81.585 -69.5166
4.650589 81.634 -69.8388
4.684289 81.681 -70.1479
4.718233 81.726 -70.4417
4.752424 81.769 -70.7189
4.786862 81.810 -70.9793
4.821549 81.849 -71.2235
4.856488 81.885 -71.4522
4.891680 81.920 -71.6661
4.927127 81.953 -71.8658
4.962831 81.986 -72.0516
4.998794 82.018 -72.2233
5.035017 82.050 -72.3806
5.071503 82.082 -72.5230
5.108253 82.116 -72.6499
5.145270 82.150 -72.7608
5.182555 82.186 -72.8557
5.220110 82.223 -72.9352
5.257937 82.261 -73.0012
5.296038 82.300 -73.0563
5.334415 82.341 -73.1033
5.373071 82.383 -73.1454
5.412006 82.428 -73.1852
5.451224 82.476 -73.2247
5.490725 82.526 -73.2650
5.530514 82.579 -73.3067
5.570590 82.634 -73.3500
5.610957 82.693 -73.3962
5.651616 82.753 -73.4473
5.692570 82.816 -73.5060
5.733821 82.881 -73.5752
5.775370 82.948 -73.6582
5.817221 83.016 -73.7571
5.859375 83.086 -73.8735
5.901834 83.157 -74.0079
5.944602 83.230 -74.1604
5.987679 83.304 -74.3307
6.031068 83.378 -74.5189
6.074771 83.453 -74.7252
6.118792 83.528 -74.9501
6.163131 83.603 -75.1942
6.207792 83.676 -75.4579
6.252776 83.749 -75.7416
6.298086 83.821 -76.0447
6.343725 83.892 -76.3662
6.389694 83.961 -76.7044
6.435996 84.029 -77.0571
6.482634 84.095 -77.4223
6.529610 84.160 -77.7981
6.576926 84.222 -78.1836
6.624585 84.282 -78.5778
6.672590 84.340 -78.9801
6.720942 84.396 -79.3894
6.769645 84.450 -79.8039
6.818700 84.502 -80.2212
6.868111 84.553 -80.6389
6.917881 84.601 -81.0550
6.968010 84.648 -81.4681
7.018504 84.694 -81.8774
7.069362 84.738 -82.2825
7.120590 84.782 -82.6827
7.172189 84.824 -83.0773
7.224161 84.866 -83.4650
7.276511 84.908 -83.8449
7.329239 84.950 -84.2163
7.382350 84.993 -84.5789
7.435845 85.035 -84.9329
7.489729 85.079 -85.2791
7.544002 85.123 -85.6185
7.598669 85.169 -85.9519
7.653732 85.216 -86.2802
7.709194 85.265 -86.6040
7.765058 85.316 -86.9240
7.821327 85.368 -87.2412
7.878004 85.423 -87.5571
7.935091 85.479 -87.8732
7.992592 85.537 -88.1913
8.050510 85.596 -88.5127
8.108847 85.658 -88.8384
8.167607 85.721 -89.1689
8.226793 85.785 -89.5049
8.286408 85.851 -89.8470
8.346454 85.918 -90.1961
8.406936 85.986 -90.5527
8.467856 86.054 -90.9171
8.529218 86.123 -91.2890
8.591024 86.193 -91.6680
8.653278 86.262 -92.0534
8.715983 86.331 -92.4443
8.779143 86.400 -92.8402
8.842760 86.469 -93.2401
8.906839 86.537 -93.6434
8.971381 86.604 -94.0488
9.036392 86.671 -94.4549
9.101873 86.737 -94.8605
9.167829 86.803 -95.2642
9.234263 86.868 -95.6653
9.301178 86.932 -96.0629
9.368578 86.996 -96.4561
9.436467 87.059 -96.8441
9.504847 87.122 -97.2262
9.573723 87.185 -97.6018
9.643099 87.247 -97.9708
9.712976 87.307 -98.3330
9.783361 87.367 -98.6887
9.854255 87.425 -99.0380
9.925663 87.481 -99.3811
9.997588 87.535 -99.7183
10.070035 87.587 -100.0502
10.143007 87.638 -100.3773
10.216507 87.687 -100.7005
10.290540 87.735 -101.0201
10.365109 87.783 -101.3368
10.440219 87.830 -101.6509
10.515873 87.876 -101.9629
10.592076 87.922 -102.2731
10.668830 87.967 -102.5819
10.746141 88.013 -102.8893
10.824012 88.057 -103.1955
10.902447 88.102 -103.5003
10.981451 88.146 -103.8036
11.061027 88.190 -104.1052
11.141180 88.232 -104.4052
11.221913 88.275 -104.7031
11.303232 88.316 -104.9989
11.385140 88.357 -105.2923
11.467641 88.398 -105.5832
11.550741 88.437 -105.8717
11.634442 88.477 -106.1576
11.718750 88.516 -106.4413
11.803669 88.555 -106.7227
11.889203 88.594 -107.0021
11.975357 88.632 -107.2798
12.062136 88.671 -107.5562
12.149543 88.709 -107.8316
12.237583 88.746 -108.1063
12.326262 88.784 -108.3806
12.415583 88.821 -108.6547
12.505552 88.857 -108.9288
12.596172 88.892 -109.2032
12.687449 88.927 -109.4778
12.779387 88.960 -109.7527
12.871992 88.993 -110.0278
12.965268 89.025 -110.3030
13.059220 89.057 -110.5783
13.153852 89.088 -110.8535
13.249170 89.118 -111.1287
13.345179 89.148 -111.4039
13.441884 89.178 -111.6793
13.539289 89.208 -111.9549
13.637401 89.237 -112.2312
13.736223 89.267 -112.5086
13.835761 89.296 -112.7875
13.936021 89.325 -113.0686
14.037007 89.354 -113.3524
14.138725 89.382 -113.6394
14.241180 89.410 -113.9304
14.344377 89.439 -114.2256
14.448323 89.466 -114.5255
14.553021 89.494 -114.8303
14.658478 89.520 -115.1398
14.764700 89.547 -115.4540
14.871691 89.573 -115.7726
14.979457 89.599 -116.0950
15.088005 89.624 -116.4208
15.197339 89.649 -116.7493
15.307465 89.674 -117.0799
15.418389 89.698 -117.4119
15.530117 89.723 -117.7448
15.642655 89.747 -118.0783
15.756008 89.771 -118.4120
15.870182 89.795 -118.7461
15.985184 89.820 -119.0805
16.101019 89.844 -119.4155
16.217694 89.870 -119.7514
16.335214 89.896 -120.0887
16.453586 89.922 -120.4278
16.572815 89.949 -120.7690
16.692909 89.977 -121.1126
16.813872 90.005 -121.4586
16.935713 90.034 -121.8071
17.058436 90.064 -122.1576
17.182048 90.094 -122.5097
17.306556 90.124 -122.8628
17.431967 90.154 -123.2162
17.558286 90.184 -123.5689
17.685521 90.214 -123.9202
17.813677 90.244 -124.2694
17.942762 90.273 -124.6157
18.072783 90.303 -124.9586
18.203746 90.333 -125.2978
18.335658 90.363 -125.6331
18.468526 90.393 -125.9644
18.602356 90.423 -126.2920
18.737156 90.453 -126.6160
18.872934 90.484 -126.9367
19.009695 90.515 -127.2543
19.147447 90.547 -127.5693
19.286197 90.578 -127.8818
19.425953 90.610 -128.1918
19.566721 90.641 -128.4996
19.708510 90.672 -128.8051
19.851326 90.702 -129.1082
19.995177 90.732 -129.4089
20.140070 90.762 -129.7069
20.286013 90.790 -130.0023
20.433014 90.818 -130.2950
20.581080 90.846 -130.5851
20.730219 90.873 -130.8727
20.880439 90.899 -131.1581
21.031747 90.925 -131.4416
21.184152 90.951 -131.7235
21.337661 90.976 -132.0043
21.492282 91.001 -132.2845
21.648024 91.026 -132.5643
21.804895 91.050 -132.8442
21.962902 91.073 -133.1245
22.122054 91.096 -133.4053
22.282360 91.119 -133.6866
22.443827 91.140 -133.9687
22.606464 91.161 -134.2514
22.770280 91.182 -134.5348
22.935283 91.201 -134.8188
23.101481 91.221 -135.1037
23.268884 91.240 -135.3896
23.437500 91.259 -135.6768
23.607338 91.277 -135.9659
23.778406 91.296 -136.2571
23.950714 91.314 -136.5509
24.124271 91.331 -136.8475
24.299086 91.349 -137.1469
24.475167 91.366 -137.4490
24.652524 91.383 -137.7533
24.831166 91.400 -138.0591
25.011103 91.416 -138.3659
25.192344 91.432 -138.6726
25.374898 91.449 -138.9787
25.558775 91.465 -139.2837
25.743984 91.482 -139.5872
25.930536 91.498 -139.8893
26.118439 91.515 -140.1901
26.307704 91.533 -140.4899
26.498341 91.550 -140.7890
26.690359 91.568 -141.0875
26.883768 91.586 -141.3854
27.078579 91.604 -141.6823
27.274801 91.622 -141.9778
27.472446 91.640 -142.2712
27.671522 91.657 -142.5618
27.872042 91.674 -142.8490
28.074014 91.691 -143.1323
28.277450 91.707 -143.4116
28.482360 91.724 -143.6868
28.688755 91.740 -143.9585
28.896645 91.756 -144.2270
29.106042 91.772 -144.4931
29.316957 91.788 -144.7576
29.529400 91.804 -145.0211
29.743382 91.820 -145.2844
29.958915 91.835 -145.5479
30.176009 91.850 -145.8122
30.394677 91.865 -146.0775
30.614929 91.880 -146.3437
30.836778 91.894 -146.6106
31.060234 91.907 -146.8781
31.285309 91.919 -147.1457
31.512015 91.931 -147.4133
31.740364 91.942 -147.6806
31.970368 91.953 -147.9478
32.202039 91.964 -148.2151
32.435388 91.975 -148.4831
32.670428 91.985 -148.7521
32.907171 91.995 -149.0223
33.145630 92.004 -149.2938
33.385817 92.014 -149.5662
33.627745 92.023 -149.8391
33.871425 92.032 -150.1117
34.116871 92.040 -150.3834
34.364096 92.049 -150.6534
34.613113 92.057 -150.9214
34.863934 92.065 -151.1870
35.116572 92.074 -151.4502
35.371041 92.083 -151.7112
35.627354 92.091 -151.9702
35.885525 92.101 -152.2276
36.145566 92.110 -152.4838
36.407492 92.119 -152.7393
36.671316 92.129 -152.9945
36.937051 92.139 -153.2494
37.204712 92.148 -153.5038
37.474313 92.158 -153.7573
37.745867 92.167 -154.0095
38.019389 92.176 -154.2599
38.294893 92.185 -154.5084
38.572394 92.194 -154.7556
38.851905 92.203 -155.0022
39.133442 92.212 -155.2492
39.417019 92.221 -155.4974
39.702651 92.229 -155.7474
39.990353 92.237 -155.9989
40.280140 92.244 -156.2513
40.572026 92.251 -156.5035
40.866028 92.257 -156.7548
41.162160 92.262 -157.0047
41.460438 92.267 -157.2534
41.760877 92.272 -157.5015
42.063494 92.276 -157.7497
42.368303 92.279 -157.9984
42.675322 92.281 -158.2475
42.984565 92.283 -158.4961
43.296048 92.284 -158.7429
43.609789 92.283 -158.9863
43.925804 92.282 -159.2251
44.244108 92.281 -159.4590
44.564719 92.280 -159.6882
44.887654 92.279 -159.9139
45.212928 92.278 -160.1374
45.540560 92.278 -160.3601
45.870565 92.279 -160.5834
46.202962 92.280 -160.8083
46.537768 92.282 -161.0358
46.875000 92.284 -161.2666
47.214676 92.287 -161.5009
47.556813 92.289 -161.7380
47.901429 92.292 -161.9767
48.248542 92.295 -162.2161
48.598171 92.297 -162.4561
48.950334 92.300 -162.6978
49.305048 92.303 -162.9429
49.662333 92.304 -163.1912
50.022206 92.303 -163.4396
50.384688 92.300 -163.6816
50.749796 92.295 -163.9091
51.117550 92.288 -164.1161
51.487969 92.280 -164.3013
51.861072 92.274 -164.4691
52.236879 92.270 -164.6271
52.615409 92.266 -164.7822
52.996681 92.263 -164.9377
53.380717 92.261 -165.0933
53.767536 92.258 -165.2476
54.157158 92.256 -165.4007
54.549603 92.255 -165.5549
54.944892 92.254 -165.7129
55.343045 92.254 -165.8758
55.744084 92.253 -166.0422
56.148028 92.253 -166.2091
56.554900 92.254 -166.3742
56.964720 92.255 -166.5373
57.377510 92.258 -166.6997
57.793291 92.263 -166.8632
58.212085 92.268 -167.0294
58.633914 92.275 -167.1997
59.058799 92.282 -167.3754
59.486764 92.289 -167.5568
59.917829 92.296 -167.7423
60.352019 92.301 -167.9282
60.789354 92.305 -168.1104
61.229859 92.308 -168.2865
61.673556 92.310 -168.4567
62.120468 92.312 -168.6240
62.570618 92.314 -168.7917
63.024031 92.316 -168.9626
63.480729 92.318 -169.1386
63.940736 92.319 -169.3208
64.404077 92.319 -169.5097
64.870776 92.319 -169.7057
65.340856 92.319 -169.9087
65.814343 92.318 -170.1181
66.291261 92.317 -170.3328
66.771635 92.315 -170.5515
67.255489 92.313 -170.7718
67.742850 92.310 -170.9918
68.233743 92.308 -171.2102
68.728193 92.305 -171.4272
69.226226 92.303 -171.6438
69.727867 92.300 -171.8609
70.233144 92.297 -172.0777
70.742083 92.293 -172.2919
71.254709 92.288 -172.4998
71.771050 92.282 -172.6987
72.291132 92.276 -172.8894
72.814984 92.272 -173.0767
73.342631 92.268 -173.2669
73.874102 92.264 -173.4640
74.409424 92.260 -173.6679
74.948626 92.255 -173.8746
75.491734 92.250 -174.0796
76.038779 92.244 -174.2804
76.589787 92.239 -174.4777
77.144788 92.236 -174.6753
77.703811 92.233 -174.8782
78.266885 92.231 -175.0898
78.834039 92.229 -175.3107
79.405303 92.226 -175.5387
79.980706 92.222 -175.7709
80.560280 92.216 -176.0052
81.144053 92.210 -176.2400
81.732056 92.201 -176.4742
82.324320 92.191 -176.7069
82.920876 92.180 -176.9370
83.521755 92.167 -177.1629
84.126988 92.152 -177.3819
84.736607 92.135 -177.5917
85.350643 92.118 -177.7908
85.969129 92.100 -177.9783
