* Measurement data measured by REW V5.31
* Source: EXCL: Microphone (USB Sound Device        ), no input selected, R, volume: 0.390
* Format: 256k Log Swept Sine, 1 sweep at -15.0 dBFS with no timing reference
* Dated: Jan 3, 2025 11:20:23 AM
* REW Settings:
*  C-weighting compensation: Off
*  Target level: 75.0 dB
* Note: SGOR Luna
* Measurement: SGOR Luna
* Smoothing: 1/12 octave
* Frequency Step: 96 ppo
* Start Frequency: 0.36621094 Hz
*
* Freq(Hz) SPL(dB) Phase(degrees)
0.366211 94.548 156.2091
0.368865 94.542 156.1844
0.371538 94.534 156.1475
0.374230 94.523 156.1011
0.376942 94.511 156.0476
0.379673 94.497 155.9888
0.382424 94.484 155.9258
0.385196 94.470 155.8594
0.387987 94.455 155.7899
0.390798 94.441 155.7175
0.393630 94.426 155.6424
0.396483 94.412 155.5646
0.399356 94.397 155.4841
0.402250 94.382 155.4008
0.405165 94.367 155.3149
0.408101 94.352 155.2262
0.411058 94.336 155.1347
0.414037 94.321 155.0405
0.417037 94.305 154.9433
0.420059 94.290 154.8434
0.423103 94.274 154.7405
0.426169 94.258 154.6348
0.429257 94.242 154.5261
0.432368 94.226 154.4145
0.435501 94.210 154.2998
0.438656 94.193 154.1822
0.441835 94.177 154.0615
0.445037 94.160 153.9378
0.448262 94.144 153.8109
0.451510 94.127 153.6810
0.454782 94.110 153.5480
0.458077 94.093 153.4118
0.461397 94.076 153.2724
0.464740 94.058 153.1299
0.468108 94.041 152.9841
0.471500 94.024 152.8351
0.474917 94.006 152.6829
0.478358 93.988 152.5274
0.481825 93.970 152.3686
0.485316 93.952 152.2066
0.488833 93.934 152.0412
0.492375 93.915 151.8726
0.495943 93.897 151.7006
0.499537 93.878 151.5253
0.503157 93.860 151.3467
0.506803 93.841 151.1647
0.510475 93.822 150.9794
0.514175 93.803 150.7908
0.517900 93.783 150.5988
0.521653 93.764 150.4035
0.525434 93.744 150.2049
0.529241 93.725 150.0030
0.533076 93.705 149.7977
0.536939 93.685 149.5892
0.540830 93.665 149.3773
0.544749 93.645 149.1622
0.548696 93.624 148.9439
0.552673 93.604 148.7224
0.556677 93.583 148.4977
0.560711 93.562 148.2699
0.564774 93.541 148.0389
0.568867 93.520 147.8049
0.572989 93.498 147.5678
0.577141 93.477 147.3278
0.581324 93.455 147.0848
0.585536 93.433 146.8390
0.589779 93.412 146.5904
0.594053 93.389 146.3390
0.598358 93.367 146.0850
0.602694 93.345 145.8284
0.607061 93.322 145.5692
0.611460 93.299 145.3077
0.615891 93.276 145.0439
0.620354 93.253 144.7778
0.624849 93.230 144.5097
0.629377 93.207 144.2395
0.633938 93.183 143.9675
0.638532 93.159 143.6938
0.643159 93.135 143.4184
0.647819 93.111 143.1416
0.652514 93.087 142.8636
0.657242 93.062 142.5844
0.662005 93.038 142.3042
0.666802 93.013 142.0233
0.671634 92.988 141.7418
0.676501 92.963 141.4599
0.681403 92.937 141.1778
0.686341 92.912 140.8958
0.691314 92.886 140.6141
0.696324 92.860 140.3328
0.701370 92.834 140.0522
0.706452 92.807 139.7725
0.711571 92.780 139.4937
0.716728 92.752 139.2158
0.721921 92.723 138.9386
0.727153 92.692 138.6615
0.732422 92.659 138.3837
0.737729 92.625 138.1042
0.743075 92.588 137.8218
0.748460 92.549 137.5355
0.753883 92.510 137.2447
0.759346 92.469 136.9486
0.764849 92.427 136.6471
0.770391 92.385 136.3397
0.775974 92.342 136.0264
0.781597 92.299 135.7070
0.787261 92.255 135.3814
0.792966 92.211 135.0496
0.798712 92.166 134.7114
0.804500 92.120 134.3669
0.810329 92.074 134.0159
0.816201 92.027 133.6585
0.822116 91.979 133.2945
0.828073 91.931 132.9240
0.834074 91.882 132.5469
0.840118 91.833 132.1631
0.846206 91.782 131.7728
0.852338 91.731 131.3758
0.858514 91.679 130.9722
0.864735 91.626 130.5619
0.871001 91.572 130.1451
0.877313 91.517 129.7217
0.883670 91.461 129.2919
0.890074 91.404 128.8555
0.896524 91.346 128.4129
0.903020 91.287 127.9639
0.909564 91.227 127.5088
0.916155 91.165 127.0477
0.922794 91.102 126.5807
0.929481 91.038 126.1080
0.936216 90.973 125.6298
0.943000 90.906 125.1464
0.949834 90.837 124.6579
0.956717 90.768 124.1646
0.963649 90.696 123.6669
0.970632 90.623 123.1652
0.977666 90.548 122.6597
0.984750 90.472 122.1508
0.991886 90.393 121.6392
0.999074 90.313 121.1252
1.006314 90.231 120.6093
1.013606 90.147 120.0923
1.020951 90.060 119.5746
1.028349 89.972 119.0570
1.035801 89.881 118.5403
1.043307 89.788 118.0251
1.050867 89.693 117.5123
1.058482 89.595 117.0028
1.066152 89.495 116.4973
1.073878 89.393 115.9966
1.081660 89.289 115.5013
1.089498 89.183 115.0117
1.097393 89.076 114.5277
1.105345 88.969 114.0491
1.113355 88.862 113.5750
1.121423 88.756 113.1048
1.129549 88.651 112.6376
1.137734 88.547 112.1730
1.145979 88.445 111.7103
1.154283 88.344 111.2490
1.162647 88.244 110.7888
1.171072 88.145 110.3293
1.179558 88.046 109.8699
1.188106 87.946 109.4104
1.196715 87.846 108.9503
1.205387 87.744 108.4892
1.214122 87.641 108.0267
1.222920 87.535 107.5623
1.231782 87.427 107.0956
1.240708 87.316 106.6261
1.249699 87.200 106.1533
1.258754 87.081 105.6766
1.267876 86.956 105.1955
1.277063 86.825 104.7095
1.286318 86.688 104.2180
1.295639 86.544 103.7204
1.305027 86.392 103.2161
1.314484 86.231 102.7044
1.324009 86.062 102.1847
1.333604 85.882 101.6563
1.343268 85.691 101.1185
1.353002 85.489 100.5708
1.362806 85.274 100.0124
1.372681 85.046 99.4426
1.382628 84.803 98.8610
1.392647 84.545 98.2670
1.402739 84.270 97.6602
1.412904 83.978 97.0402
1.423142 83.666 96.4072
1.433455 83.334 95.7615
1.443843 82.980 95.1037
1.454305 82.599 94.4353
1.464844 82.190 93.7580
1.475459 81.746 93.0739
1.486150 81.266 92.3848
1.496920 80.745 91.6920
1.507767 80.182 90.9962
1.518693 79.575 90.2972
1.529698 78.927 89.5943
1.540783 78.238 88.8866
1.551948 77.510 88.1725
1.563194 76.746 87.4502
1.574521 75.949 86.7173
1.585931 75.122 85.9713
1.597423 74.267 85.2086
1.608999 73.390 84.4254
1.620658 72.494 83.6167
1.632402 71.584 82.7764
1.644232 70.663 81.8968
1.656146 69.738 80.9681
1.668147 68.814 79.9776
1.680235 67.896 78.9084
1.692411 66.992 77.7380
1.704675 66.108 76.4348
1.717028 65.252 74.9543
1.729470 64.433 73.2307
1.742003 63.660 71.1634
1.754626 62.943 68.5905
1.767341 62.295 65.2356
1.780147 61.728 60.5893
1.793047 61.255 53.6212
1.806040 60.890 42.0387
1.819128 60.645 20.8027
1.832310 60.530 -14.3704
1.845587 60.552 -47.8965
1.858961 60.712 -67.4756
1.872432 61.005 -78.5054
1.886001 61.425 -85.4944
1.899667 61.961 -90.4325
1.913433 62.600 -94.2133
1.927299 63.330 -97.2783
1.941265 64.137 -99.8658
1.955332 65.007 -102.1149
1.969501 65.929 -104.1116
1.983773 66.889 -105.9120
1.998148 67.876 -107.5541
2.012627 68.878 -109.0647
2.027212 69.884 -110.4632
2.041902 70.883 -111.7641
2.056698 71.866 -112.9782
2.071602 72.823 -114.1143
2.086614 73.744 -115.1793
2.101734 74.621 -116.1792
2.116964 75.446 -117.1195
2.132304 76.212 -118.0061
2.147756 76.914 -118.8461
2.163320 77.548 -119.6483
2.178996 78.114 -120.4242
2.194786 78.614 -121.1882
2.210690 79.053 -121.9561
2.226710 79.436 -122.7425
2.242845 79.771 -123.5579
2.259098 80.061 -124.4076
2.275468 80.311 -125.2926
2.291957 80.523 -126.2109
2.308566 80.701 -127.1583
2.325295 80.846 -128.1298
2.342145 80.963 -129.1194
2.359117 81.052 -130.1212
2.376212 81.117 -131.1286
2.393431 81.161 -132.1354
2.410775 81.187 -133.1353
2.428244 81.197 -134.1219
2.445840 81.196 -135.0892
2.463564 81.186 -136.0315
2.481416 81.170 -136.9439
2.499397 81.153 -137.8229
2.517509 81.135 -138.6670
2.535752 81.119 -139.4782
2.554127 81.104 -140.2620
2.572635 81.091 -141.0282
2.591277 81.075 -141.7887
2.610055 81.056 -142.5546
2.628968 81.030 -143.3343
2.648019 80.996 -144.1325
2.667208 80.952 -144.9511
2.686535 80.898 -145.7896
2.706003 80.831 -146.6453
2.725612 80.753 -147.5142
2.745363 80.662 -148.3909
2.765257 80.557 -149.2687
2.785295 80.439 -150.1397
2.805478 80.306 -150.9950
2.825808 80.158 -151.8244
2.846285 79.993 -152.6175
2.866910 79.811 -153.3636
2.887685 79.610 -154.0531
2.908611 79.388 -154.6788
2.929688 79.142 -155.2370
2.950917 78.869 -155.7276
2.972301 78.566 -156.1526
2.993839 78.234 -156.5139
3.015534 77.872 -156.8117
3.037386 77.483 -157.0432
3.059396 77.071 -157.2030
3.081565 76.638 -157.2826
3.103896 76.192 -157.2702
3.126388 75.739 -157.1504
3.149043 75.284 -156.9038
3.171862 74.835 -156.5063
3.194847 74.401 -155.9279
3.217998 73.988 -155.1320
3.241317 73.604 -154.0732
3.264805 73.255 -152.6962
3.288463 72.944 -150.9331
3.312293 72.672 -148.7030
3.336295 72.438 -145.9137
3.360471 72.241 -142.4696
3.384822 72.077 -138.2852
3.409350 71.945 -133.3075
3.434056 71.846 -127.5474
3.458940 71.778 -121.1144
3.484005 71.743 -114.2345
3.509252 71.742 -107.2306
3.534681 71.776 -100.4563
3.560295 71.848 -94.2141
3.586094 71.961 -88.6999
3.612081 72.119 -83.9939
3.638255 72.326 -80.0858
3.664620 72.586 -76.9103
3.691175 72.902 -74.3773
3.717923 73.273 -72.3920
3.744864 73.695 -70.8662
3.772001 74.158 -69.7214
3.799335 74.652 -68.8902
3.826866 75.164 -68.3153
3.854597 75.683 -67.9495
3.882529 76.196 -67.7543
3.910664 76.692 -67.6997
3.939002 77.163 -67.7630
3.967546 77.599 -67.9290
3.996296 77.998 -68.1890
4.025255 78.356 -68.5400
4.054423 78.675 -68.9817
4.083804 78.958 -69.5130
4.113396 79.208 -70.1285
4.143204 79.430 -70.8177
4.173227 79.625 -71.5667
4.203468 79.796 -72.3593
4.233928 79.947 -73.1795
4.264609 80.078 -74.0121
4.295512 80.193 -74.8449
4.326639 80.292 -75.6696
4.357992 80.377 -76.4834
4.389572 80.447 -77.2891
4.421380 80.502 -78.0941
4.453419 80.541 -78.9068
4.485691 80.564 -79.7319
4.518196 80.570 -80.5688
4.550936 80.559 -81.4111
4.583914 80.533 -82.2480
4.617131 80.490 -83.0659
4.650589 80.433 -83.8498
4.684289 80.361 -84.5851
4.718233 80.276 -85.2598
4.752424 80.175 -85.8661
4.786862 80.059 -86.4012
4.821549 79.928 -86.8658
4.856488 79.781 -87.2608
4.891680 79.619 -87.5853
4.927127 79.445 -87.8352
4.962831 79.261 -88.0031
4.998794 79.069 -88.0783
5.035017 78.873 -88.0478
5.071503 78.673 -87.8961
5.108253 78.472 -87.6071
5.145270 78.269 -87.1654
5.182555 78.065 -86.5582
5.220110 77.861 -85.7785
5.257937 77.658 -84.8266
5.296038 77.461 -83.7099
5.334415 77.275 -82.4430
5.373071 77.106 -81.0456
5.412006 76.959 -79.5411
5.451224 76.841 -77.9529
5.490725 76.757 -76.3025
5.530514 76.707 -74.6089
5.570590 76.693 -72.8930
5.610957 76.712 -71.1819
5.651616 76.760 -69.5097
5.692570 76.832 -67.9146
5.733821 76.925 -66.4342
5.775370 77.033 -65.1013
5.817221 77.154 -63.9404
5.859375 77.286 -62.9655
5.901834 77.428 -62.1801
5.944602 77.579 -61.5799
5.987679 77.737 -61.1558
6.031068 77.897 -60.8966
6.074771 78.056 -60.7913
6.118792 78.210 -60.8305
6.163131 78.353 -61.0072
6.207792 78.483 -61.3169
6.252776 78.599 -61.7565
6.298086 78.699 -62.3207
6.343725 78.784 -62.9998
6.389694 78.854 -63.7787
6.435996 78.908 -64.6390
6.482634 78.946 -65.5627
6.529610 78.968 -66.5352
6.576926 78.973 -67.5479
6.624585 78.960 -68.5976
6.672590 78.930 -69.6840
6.720942 78.884 -70.8038
6.769645 78.820 -71.9484
6.818700 78.742 -73.1041
6.868111 78.648 -74.2550
6.917881 78.540 -75.3863
6.968010 78.419 -76.4875
7.018504 78.285 -77.5530
7.069362 78.138 -78.5804
7.120590 77.981 -79.5663
7.172189 77.815 -80.5047
7.224161 77.644 -81.3862
7.276511 77.469 -82.1996
7.329239 77.293 -82.9340
7.382350 77.118 -83.5818
7.435845 76.946 -84.1410
7.489729 76.779 -84.6158
7.544002 76.621 -85.0146
7.598669 76.477 -85.3475
7.653732 76.349 -85.6242
7.709194 76.242 -85.8525
7.765058 76.157 -86.0408
7.821327 76.095 -86.2024
7.878004 76.057 -86.3569
7.935091 76.043 -86.5292
7.992592 76.053 -86.7440
8.050510 76.086 -87.0219
8.108847 76.142 -87.3763
8.167607 76.220 -87.8148
8.226793 76.317 -88.3430
8.286408 76.429 -88.9660
8.346454 76.553 -89.6885
8.406936 76.686 -90.5132
8.467856 76.825 -91.4385
8.529218 76.968 -92.4573
8.591024 77.114 -93.5579
8.653278 77.260 -94.7265
8.715983 77.405 -95.9496
8.779143 77.546 -97.2160
8.842760 77.682 -98.5157
8.906839 77.812 -99.8378
8.971381 77.937 -101.1686
9.036392 78.056 -102.4922
9.101873 78.168 -103.7936
9.167829 78.274 -105.0606
9.234263 78.374 -106.2846
9.301178 78.469 -107.4580
9.368578 78.559 -108.5723
9.436467 78.646 -109.6189
9.504847 78.730 -110.5900
9.573723 78.812 -111.4807
9.643099 78.895 -112.2893
9.712976 78.978 -113.0166
9.783361 79.062 -113.6646
9.854255 79.150 -114.2358
9.925663 79.242 -114.7337
9.997588 79.339 -115.1634
10.070035 79.441 -115.5325
10.143007 79.548 -115.8501
10.216507 79.660 -116.1256
10.290540 79.777 -116.3673
10.365109 79.898 -116.5825
10.440219 80.023 -116.7781
10.515873 80.151 -116.9608
10.592076 80.279 -117.1364
10.668830 80.408 -117.3092
10.746141 80.536 -117.4812
10.824012 80.663 -117.6530
10.902447 80.786 -117.8240
10.981451 80.906 -117.9932
11.061027 81.022 -118.1588
11.141180 81.133 -118.3185
11.221913 81.238 -118.4692
11.303232 81.339 -118.6078
11.385140 81.435 -118.7316
11.467641 81.526 -118.8388
11.550741 81.613 -118.9283
11.634442 81.696 -118.9998
11.718750 81.775 -119.0533
11.803669 81.851 -119.0902
11.889203 81.924 -119.1124
11.975357 81.996 -119.1233
12.062136 82.064 -119.1263
12.149543 82.131 -119.1250
12.237583 82.195 -119.1229
12.326262 82.257 -119.1234
12.415583 82.316 -119.1297
12.505552 82.372 -119.1442
12.596172 82.423 -119.1684
12.687449 82.471 -119.2025
12.779387 82.514 -119.2465
12.871992 82.552 -119.2993
12.965268 82.584 -119.3594
13.059220 82.612 -119.4246
13.153852 82.634 -119.4928
13.249170 82.652 -119.5617
13.345179 82.665 -119.6299
13.441884 82.674 -119.6967
13.539289 82.680 -119.7619
13.637401 82.684 -119.8266
13.736223 82.687 -119.8931
13.835761 82.688 -119.9647
13.936021 82.689 -120.0457
14.037007 82.690 -120.1410
14.138725 82.692 -120.2557
14.241180 82.694 -120.3952
14.344377 82.696 -120.5642
14.448323 82.698 -120.7665
14.553021 82.700 -121.0048
14.658478 82.700 -121.2806
14.764700 82.699 -121.5938
14.871691 82.696 -121.9429
14.979457 82.691 -122.3252
15.088005 82.683 -122.7369
15.197339 82.673 -123.1737
15.307465 82.662 -123.6309
15.418389 82.649 -124.1041
15.530117 82.636 -124.5893
15.642655 82.623 -125.0836
15.756008 82.612 -125.5849
15.870182 82.604 -126.0925
15.985184 82.599 -126.6069
16.101019 82.598 -127.1294
16.217694 82.603 -127.6623
16.335214 82.613 -128.2076
16.453586 82.628 -128.7677
16.572815 82.648 -129.3439
16.692909 82.673 -129.9368
16.813872 82.702 -130.5454
16.935713 82.734 -131.1676
17.058436 82.770 -131.8000
17.182048 82.807 -132.4378
17.306556 82.847 -133.0757
17.431967 82.888 -133.7078
17.558286 82.930 -134.3284
17.685521 82.974 -134.9322
17.813677 83.019 -135.5148
17.942762 83.066 -136.0726
18.072783 83.115 -136.6035
18.203746 83.166 -137.1062
18.335658 83.219 -137.5804
18.468526 83.274 -138.0268
18.602356 83.331 -138.4462
18.737156 83.388 -138.8397
18.872934 83.447 -139.2085
19.009695 83.506 -139.5534
19.147447 83.565 -139.8750
19.286197 83.623 -140.1742
19.425953 83.681 -140.4514
19.566721 83.737 -140.7076
19.708510 83.792 -140.9440
19.851326 83.845 -141.1624
19.995177 83.896 -141.3647
20.140070 83.946 -141.5535
20.286013 83.992 -141.7313
20.433014 84.037 -141.9007
20.581080 84.078 -142.0636
20.730219 84.115 -142.2216
20.880439 84.149 -142.3759
21.031747 84.179 -142.5269
21.184152 84.205 -142.6749
21.337661 84.227 -142.8204
21.492282 84.245 -142.9642
21.648024 84.260 -143.1077
21.804895 84.271 -143.2534
21.962902 84.281 -143.4045
22.122054 84.288 -143.5648
22.282360 84.294 -143.7384
22.443827 84.297 -143.9290
22.606464 84.298 -144.1395
22.770280 84.298 -144.3716
22.935283 84.295 -144.6257
23.101481 84.289 -144.9008
23.268884 84.282 -145.1950
23.437500 84.273 -145.5059
23.607338 84.263 -145.8315
23.778406 84.253 -146.1702
23.950714 84.243 -146.5220
24.124271 84.236 -146.8876
24.299086 84.230 -147.2689
24.475167 84.227 -147.6676
24.652524 84.227 -148.0853
24.831166 84.229 -148.5221
25.011103 84.233 -148.9763
25.192344 84.238 -149.4443
25.374898 84.245 -149.9207
25.558775 84.253 -150.3990
25.743984 84.263 -150.8725
25.930536 84.274 -151.3349
26.118439 84.287 -151.7817
26.307704 84.303 -152.2104
26.498341 84.323 -152.6203
26.690359 84.346 -153.0129
26.883768 84.372 -153.3905
27.078579 84.401 -153.7560
27.274801 84.433 -154.1116
27.472446 84.466 -154.4586
27.671522 84.499 -154.7974
27.872042 84.531 -155.1269
28.074014 84.562 -155.4455
28.277450 84.591 -155.7513
28.482360 84.618 -156.0429
28.688755 84.642 -156.3192
28.896645 84.664 -156.5804
29.106042 84.683 -156.8272
29.316957 84.699 -157.0613
29.529400 84.713 -157.2848
29.743382 84.724 -157.5002
29.958915 84.733 -157.7097
30.176009 84.739 -157.9157
30.394677 84.743 -158.1203
30.614929 84.744 -158.3252
30.836778 84.744 -158.5324
31.060234 84.742 -158.7438
31.285309 84.739 -158.9617
31.512015 84.736 -159.1887
31.740364 84.732 -159.4276
31.970368 84.729 -159.6812
32.202039 84.726 -159.9518
32.435388 84.723 -160.2407
32.670428 84.720 -160.5477
32.907171 84.718 -160.8713
33.145630 84.716 -161.2087
33.385817 84.714 -161.5565
33.627745 84.713 -161.9110
33.871425 84.713 -162.2695
34.116871 84.715 -162.6296
34.364096 84.718 -162.9900
34.613113 84.723 -163.3495
34.863934 84.729 -163.7067
35.116572 84.736 -164.0598
35.371041 84.744 -164.4064
35.627354 84.753 -164.7439
35.885525 84.761 -165.0702
36.145566 84.770 -165.3842
36.407492 84.779 -165.6857
36.671316 84.788 -165.9758
36.937051 84.797 -166.2557
37.204712 84.805 -166.5270
37.474313 84.812 -166.7912
37.745867 84.818 -167.0493
38.019389 84.822 -167.3026
38.294893 84.824 -167.5529
38.572394 84.825 -167.8016
38.851905 84.824 -168.0502
39.133442 84.820 -168.2992
39.417019 84.814 -168.5481
39.702651 84.806 -168.7956
39.990353 84.797 -169.0403
40.280140 84.787 -169.2821
40.572026 84.776 -169.5226
40.866028 84.767 -169.7650
41.162160 84.758 -170.0135
41.460438 84.749 -170.2710
41.760877 84.741 -170.5384
42.063494 84.733 -170.8129
42.368303 84.724 -171.0898
42.675322 84.714 -171.3640
42.984565 84.706 -171.6326
43.296048 84.699 -171.8965
43.609789 84.694 -172.1604
43.925804 84.691 -172.4304
44.244108 84.689 -172.7115
44.564719 84.686 -173.0040
44.887654 84.682 -173.3037
45.212928 84.676 -173.6033
45.540560 84.668 -173.8958
45.870565 84.659 -174.1777
46.202962 84.650 -174.4507
46.537768 84.641 -174.7201
46.875000 84.634 -174.9919
47.214676 84.626 -175.2690
47.556813 84.617 -175.5500
47.901429 84.607 -175.8300
48.248542 84.596 -176.1032
48.598171 84.584 -176.3652
48.950334 84.574 -176.6150
49.305048 84.564 -176.8539
49.662333 84.556 -177.0851
50.022206 84.550 -177.3125
50.384688 84.546 -177.5394
50.749796 84.542 -177.7687
51.117550 84.539 -178.0022
51.487969 84.536 -178.2401
51.861072 84.530 -178.4810
52.236879 84.523 -178.7213
52.615409 84.513 -178.9567
52.996681 84.501 -179.1823
53.380717 84.487 -179.3948
53.767536 84.472 -179.5931
54.157158 84.457 -179.7801
54.549603 84.443 -179.9618
54.944892 84.430 179.8539
55.343045 84.417 179.6607
55.744084 84.405 179.4559
56.148028 84.392 179.2417
56.554900 84.378 179.0230
56.964720 84.364 178.8052
57.377510 84.350 178.5911
57.793291 84.338 178.3804
58.212085 84.328 178.1697
58.633914 84.319 177.9536
59.058799 84.312 177.7268
59.486764 84.304 177.4861
59.917829 84.295 177.2327
60.352019 84.282 176.9732
60.789354 84.267 176.7168
61.229859 84.248 176.4715
61.673556 84.228 176.2402
62.120468 84.206 176.0197
62.570618 84.185 175.8042
63.024031 84.163 175.5884
63.480729 84.141 175.3706
63.940736 84.118 175.1512
64.404077 84.095 174.9318
64.870776 84.073 174.7142
65.340856 84.051 174.5003
65.814343 84.030 174.2908
66.291261 84.011 174.0849
66.771635 83.993 173.8798
67.255489 83.977 173.6728
67.742850 83.961 173.4632
68.233743 83.946 173.2527
68.728193 83.929 173.0439
69.226226 83.911 172.8389
69.727867 83.892 172.6398
70.233144 83.871 172.4495
70.742083 83.849 172.2698
71.254709 83.827 172.0996
71.771050 83.806 171.9330
72.291132 83.785 171.7621
72.814984 83.765 171.5817
73.342631 83.744 171.3912
73.874102 83.721 171.1950
74.409424 83.698 170.9991
74.948626 83.675 170.8083
75.491734 83.651 170.6256
76.038779 83.629 170.4518
76.589787 83.608 170.2857
77.144788 83.590 170.1237
77.703811 83.573 169.9614
78.266885 83.557 169.7941
78.834039 83.542 169.6191
79.405303 83.528 169.4357
79.980706 83.512 169.2449
80.560280 83.495 169.0489
81.144053 83.477 168.8500
81.732056 83.457 168.6508
82.324320 83.435 168.4535
82.920876 83.411 168.2569
83.521755 83.386 168.0569
84.126988 83.359 167.8502
84.736607 83.328 167.6398
85.350643 83.293 167.4349
85.969129 83.255 167.2441
