* Measurement data measured by REW V5.30.9
* Source: EXCL: Microphone (USB Sound Device        ), MICROPHONE (Master Volume), L, volume: 0.560
* Format: 256k Log Swept Sine, 1 sweep at -10.0 dBFS with no timing reference
* Dated: Mar 3, 2024 1:50:45 AM
* REW Settings:
*  C-weighting compensation: Off
*  Target level: 75.0 dB
* Note: Raptor Toes L
* Measurement: L Raptor Toes
* Smoothing: 1/12 octave
* Frequency Step: 96 ppo
* Start Frequency: 0.36621094 Hz
*
* Freq(Hz) SPL(dB) Phase(degrees)
0.366211 95.343 -51.7228
0.368865 95.348 -51.7788
0.371538 95.354 -51.8626
0.374230 95.362 -51.9676
0.376942 95.371 -52.0881
0.379673 95.381 -52.2200
0.382424 95.391 -52.3605
0.385196 95.402 -52.5081
0.387987 95.412 -52.6617
0.390798 95.423 -52.8208
0.393630 95.434 -52.9851
0.396483 95.445 -53.1545
0.399356 95.456 -53.3290
0.402250 95.467 -53.5085
0.405165 95.478 -53.6931
0.408101 95.489 -53.8827
0.411058 95.500 -54.0774
0.414037 95.512 -54.2772
0.417037 95.523 -54.4821
0.420059 95.535 -54.6921
0.423103 95.547 -54.9072
0.426169 95.558 -55.1275
0.429257 95.570 -55.3529
0.432367 95.582 -55.5835
0.435501 95.594 -55.8192
0.438656 95.606 -56.0601
0.441835 95.618 -56.3062
0.445037 95.631 -56.5575
0.448262 95.643 -56.8138
0.451510 95.655 -57.0754
0.454782 95.668 -57.3420
0.458077 95.680 -57.6138
0.461397 95.693 -57.8906
0.464740 95.706 -58.1725
0.468108 95.719 -58.4595
0.471500 95.732 -58.7514
0.474917 95.745 -59.0483
0.478358 95.758 -59.3502
0.481825 95.771 -59.6570
0.485316 95.785 -59.9686
0.488833 95.798 -60.2850
0.492375 95.812 -60.6061
0.495943 95.825 -60.9320
0.499537 95.839 -61.2625
0.503157 95.853 -61.5975
0.506803 95.867 -61.9371
0.510475 95.881 -62.2810
0.514174 95.895 -62.6294
0.517900 95.909 -62.9820
0.521653 95.924 -63.3387
0.525433 95.938 -63.6996
0.529241 95.953 -64.0645
0.533076 95.968 -64.4333
0.536939 95.982 -64.8059
0.540830 95.997 -65.1821
0.544749 96.012 -65.5620
0.548696 96.027 -65.9454
0.552673 96.043 -66.3321
0.556677 96.058 -66.7221
0.560711 96.073 -67.1152
0.564774 96.089 -67.5113
0.568867 96.105 -67.9103
0.572989 96.120 -68.3120
0.577141 96.136 -68.7163
0.581324 96.152 -69.1231
0.585536 96.168 -69.5322
0.589779 96.185 -69.9435
0.594053 96.201 -70.3568
0.598358 96.217 -70.7721
0.602694 96.234 -71.1890
0.607061 96.251 -71.6075
0.611460 96.268 -72.0275
0.615891 96.285 -72.4488
0.620354 96.302 -72.8711
0.624849 96.319 -73.2944
0.629377 96.336 -73.7186
0.633938 96.354 -74.1433
0.638532 96.371 -74.5686
0.643159 96.389 -74.9942
0.647819 96.407 -75.4199
0.652514 96.425 -75.8457
0.657242 96.443 -76.2713
0.662005 96.461 -76.6965
0.666802 96.480 -77.1213
0.671634 96.498 -77.5455
0.676501 96.517 -77.9688
0.681403 96.535 -78.3913
0.686341 96.554 -78.8126
0.691314 96.573 -79.2327
0.696324 96.592 -79.6514
0.701369 96.612 -80.0687
0.706452 96.631 -80.4845
0.711571 96.650 -80.8989
0.716727 96.669 -81.3121
0.721921 96.688 -81.7245
0.727153 96.706 -82.1367
0.732422 96.724 -82.5498
0.737729 96.741 -82.9649
0.743075 96.757 -83.3831
0.748460 96.773 -83.8055
0.753883 96.788 -84.2326
0.759346 96.803 -84.6650
0.764849 96.818 -85.1028
0.770391 96.832 -85.5461
0.775974 96.847 -85.9948
0.781597 96.861 -86.4489
0.787261 96.876 -86.9082
0.792965 96.890 -87.3726
0.798712 96.905 -87.8420
0.804499 96.919 -88.3163
0.810329 96.934 -88.7951
0.816201 96.948 -89.2784
0.822116 96.962 -89.7659
0.828073 96.976 -90.2574
0.834073 96.990 -90.7528
0.840118 97.004 -91.2518
0.846205 97.018 -91.7543
0.852337 97.031 -92.2599
0.858514 97.045 -92.7684
0.864735 97.059 -93.2797
0.871001 97.072 -93.7934
0.877313 97.085 -94.3093
0.883670 97.098 -94.8272
0.890074 97.111 -95.3468
0.896523 97.123 -95.8677
0.903020 97.136 -96.3898
0.909564 97.148 -96.9128
0.916155 97.160 -97.4363
0.922793 97.172 -97.9601
0.929480 97.184 -98.4839
0.936216 97.195 -99.0073
0.943000 97.206 -99.5301
0.949833 97.217 -100.0520
0.956716 97.228 -100.5727
0.963649 97.238 -101.0918
0.970632 97.248 -101.6090
0.977666 97.258 -102.1240
0.984750 97.267 -102.6366
0.991886 97.276 -103.1462
0.999074 97.285 -103.6527
1.006313 97.293 -104.1557
1.013605 97.301 -104.6548
1.020950 97.308 -105.1498
1.028349 97.315 -105.6403
1.035801 97.322 -106.1259
1.043306 97.328 -106.6064
1.050867 97.333 -107.0814
1.058482 97.338 -107.5508
1.066152 97.343 -108.0144
1.073878 97.347 -108.4721
1.081659 97.350 -108.9242
1.089498 97.353 -109.3713
1.097393 97.355 -109.8142
1.105345 97.357 -110.2541
1.113355 97.358 -110.6924
1.121422 97.359 -111.1302
1.129549 97.358 -111.5685
1.137734 97.358 -112.0078
1.145978 97.356 -112.4487
1.154283 97.354 -112.8914
1.162647 97.352 -113.3362
1.171072 97.349 -113.7831
1.179558 97.345 -114.2321
1.188106 97.340 -114.6833
1.196715 97.335 -115.1368
1.205387 97.329 -115.5923
1.214122 97.323 -116.0500
1.222920 97.316 -116.5097
1.231781 97.308 -116.9713
1.240708 97.299 -117.4346
1.249698 97.290 -117.8995
1.258754 97.280 -118.3658
1.267875 97.270 -118.8333
1.277063 97.258 -119.3017
1.286317 97.246 -119.7706
1.295638 97.233 -120.2398
1.305027 97.220 -120.7088
1.314484 97.206 -121.1772
1.324009 97.191 -121.6446
1.333603 97.175 -122.1103
1.343267 97.159 -122.5739
1.353001 97.141 -123.0347
1.362805 97.123 -123.4920
1.372681 97.105 -123.9451
1.382628 97.085 -124.3932
1.392647 97.065 -124.8353
1.402739 97.044 -125.2708
1.412904 97.022 -125.6986
1.423142 96.999 -126.1180
1.433455 96.975 -126.5282
1.443842 96.951 -126.9286
1.454305 96.925 -127.3191
1.464843 96.898 -127.6997
1.475458 96.870 -128.0710
1.486150 96.841 -128.4337
1.496919 96.810 -128.7883
1.507766 96.778 -129.1356
1.518692 96.744 -129.4757
1.529697 96.708 -129.8090
1.540782 96.671 -130.1354
1.551947 96.632 -130.4551
1.563193 96.592 -130.7679
1.574521 96.551 -131.0737
1.585931 96.508 -131.3723
1.597423 96.464 -131.6637
1.608998 96.419 -131.9476
1.620658 96.373 -132.2237
1.632402 96.326 -132.4918
1.644231 96.278 -132.7516
1.656146 96.230 -133.0027
1.668147 96.180 -133.2449
1.680235 96.131 -133.4777
1.692410 96.081 -133.7007
1.704674 96.031 -133.9134
1.717027 95.980 -134.1154
1.729469 95.930 -134.3062
1.742002 95.879 -134.4851
1.754625 95.829 -134.6515
1.767340 95.780 -134.8047
1.780147 95.730 -134.9438
1.793046 95.682 -135.0681
1.806040 95.633 -135.1761
1.819127 95.585 -135.2666
1.832309 95.537 -135.3379
1.845587 95.489 -135.3884
1.858961 95.439 -135.4166
1.872431 95.389 -135.4212
1.886000 95.338 -135.4017
1.899666 95.286 -135.3575
1.913432 95.232 -135.2885
1.927298 95.179 -135.1949
1.941264 95.124 -135.0770
1.955331 95.069 -134.9350
1.969500 95.015 -134.7695
1.983772 94.960 -134.5812
1.998147 94.907 -134.3706
2.012626 94.854 -134.1387
2.027211 94.803 -133.8864
2.041901 94.754 -133.6147
2.056697 94.707 -133.3250
2.071601 94.662 -133.0186
2.086613 94.621 -132.6969
2.101733 94.583 -132.3617
2.116963 94.549 -132.0144
2.132303 94.519 -131.6564
2.147755 94.494 -131.2889
2.163318 94.474 -130.9121
2.178995 94.460 -130.5255
2.194785 94.451 -130.1272
2.210689 94.448 -129.7145
2.226709 94.450 -129.2846
2.242844 94.458 -128.8355
2.259097 94.472 -128.3666
2.275467 94.490 -127.8788
2.291956 94.514 -127.3740
2.308565 94.542 -126.8548
2.325294 94.575 -126.3247
2.342144 94.613 -125.7873
2.359116 94.654 -125.2465
2.376211 94.700 -124.7063
2.393430 94.749 -124.1710
2.410774 94.802 -123.6447
2.428243 94.858 -123.1316
2.445839 94.918 -122.6356
2.463562 94.980 -122.1608
2.481415 95.044 -121.7106
2.499396 95.111 -121.2880
2.517508 95.181 -120.8954
2.535750 95.253 -120.5340
2.554126 95.329 -120.2036
2.572634 95.408 -119.9029
2.591276 95.491 -119.6297
2.610054 95.578 -119.3821
2.628967 95.670 -119.1583
2.648018 95.766 -118.9576
2.667206 95.867 -118.7795
2.686534 95.971 -118.6242
2.706002 96.079 -118.4918
2.725610 96.190 -118.3828
2.745361 96.302 -118.2976
2.765255 96.416 -118.2367
2.785294 96.530 -118.2005
2.805477 96.645 -118.1894
2.825807 96.758 -118.2039
2.846284 96.871 -118.2447
2.866909 96.981 -118.3124
2.887684 97.089 -118.4075
2.908609 97.195 -118.5311
2.929686 97.298 -118.6836
2.950916 97.399 -118.8656
2.972299 97.498 -119.0770
2.993838 97.596 -119.3169
3.015532 97.692 -119.5840
3.037384 97.787 -119.8762
3.059394 97.881 -120.1914
3.081564 97.973 -120.5270
3.103894 98.064 -120.8807
3.126386 98.153 -121.2500
3.149041 98.239 -121.6327
3.171861 98.324 -122.0266
3.194845 98.406 -122.4301
3.217996 98.485 -122.8419
3.241315 98.560 -123.2617
3.264803 98.633 -123.6898
3.288461 98.702 -124.1276
3.312291 98.768 -124.5775
3.336293 98.830 -125.0415
3.360469 98.889 -125.5210
3.384820 98.945 -126.0161
3.409348 98.997 -126.5255
3.434054 99.045 -127.0469
3.458938 99.090 -127.5777
3.484003 99.133 -128.1144
3.509250 99.172 -128.6538
3.534679 99.208 -129.1923
3.560293 99.241 -129.7270
3.586092 99.270 -130.2553
3.612079 99.297 -130.7755
3.638253 99.321 -131.2872
3.664618 99.341 -131.7913
3.691173 99.358 -132.2899
3.717921 99.371 -132.7850
3.744862 99.381 -133.2781
3.771999 99.386 -133.7693
3.799332 99.389 -134.2576
3.826864 99.388 -134.7412
3.854595 99.384 -135.2173
3.882527 99.378 -135.6825
3.910661 99.369 -136.1329
3.938999 99.359 -136.5642
3.967543 99.346 -136.9722
3.996294 99.332 -137.3532
4.025252 99.316 -137.7052
4.054421 99.298 -138.0297
4.083801 99.278 -138.3317
4.113394 99.256 -138.6175
4.143201 99.231 -138.8918
4.173225 99.205 -139.1572
4.203466 99.178 -139.4136
4.233926 99.150 -139.6593
4.264606 99.122 -139.8914
4.295509 99.095 -140.1062
4.326636 99.069 -140.2995
4.357989 99.045 -140.4678
4.389569 99.022 -140.6079
4.421378 99.001 -140.7180
4.453417 98.981 -140.7978
4.485688 98.963 -140.8489
4.518193 98.947 -140.8739
4.550934 98.933 -140.8764
4.583912 98.921 -140.8605
4.617129 98.912 -140.8306
4.650587 98.906 -140.7907
4.684287 98.904 -140.7444
4.718231 98.905 -140.6942
4.752421 98.911 -140.6411
4.786859 98.921 -140.5853
4.821547 98.936 -140.5264
4.856485 98.955 -140.4649
4.891677 98.978 -140.4028
4.927125 99.005 -140.3432
4.962829 99.036 -140.2901
4.998791 99.069 -140.2481
5.035015 99.105 -140.2215
5.071500 99.144 -140.2140
5.108251 99.184 -140.2283
5.145267 99.227 -140.2657
5.182552 99.273 -140.3260
5.220107 99.320 -140.4089
5.257934 99.370 -140.5136
5.296035 99.420 -140.6400
5.334412 99.472 -140.7879
5.373067 99.523 -140.9576
5.412003 99.574 -141.1498
5.451221 99.623 -141.3651
5.490722 99.671 -141.6045
5.530510 99.717 -141.8681
5.570587 99.761 -142.1556
5.610953 99.804 -142.4654
5.651613 99.844 -142.7949
5.692567 99.882 -143.1407
5.733818 99.918 -143.4996
5.775367 99.950 -143.8685
5.817218 99.979 -144.2454
5.859372 100.004 -144.6293
5.901831 100.026 -145.0197
5.944598 100.044 -145.4163
5.987675 100.058 -145.8176
6.031065 100.069 -146.2210
6.074768 100.076 -146.6230
6.118788 100.081 -147.0196
6.163127 100.082 -147.4074
6.207788 100.080 -147.7835
6.252772 100.076 -148.1464
6.298082 100.068 -148.4955
6.343721 100.058 -148.8303
6.389690 100.046 -149.1502
6.435992 100.032 -149.4539
6.482630 100.016 -149.7399
6.529606 100.000 -150.0063
6.576922 99.984 -150.2516
6.624581 99.968 -150.4747
6.672585 99.952 -150.6756
6.720938 99.937 -150.8553
6.769640 99.922 -151.0155
6.818696 99.909 -151.1585
6.868107 99.898 -151.2864
6.917876 99.889 -151.4013
6.968006 99.883 -151.5043
7.018499 99.880 -151.5966
7.069358 99.880 -151.6800
7.120586 99.883 -151.7572
7.172184 99.889 -151.8318
7.224157 99.898 -151.9078
7.276506 99.909 -151.9889
7.329235 99.924 -152.0780
7.382345 99.941 -152.1768
7.435841 99.961 -152.2866
7.489724 99.983 -152.4089
7.543997 100.006 -152.5451
7.598664 100.031 -152.6970
7.653728 100.056 -152.8662
7.709189 100.081 -153.0537
7.765053 100.106 -153.2596
7.821322 100.131 -153.4834
7.877998 100.155 -153.7235
7.935086 100.178 -153.9783
7.992587 100.199 -154.2461
8.050504 100.219 -154.5253
8.108841 100.236 -154.8147
8.167601 100.250 -155.1127
8.226787 100.262 -155.4170
8.286402 100.272 -155.7247
8.346449 100.279 -156.0326
8.406931 100.284 -156.3380
8.467851 100.286 -156.6389
8.529212 100.286 -156.9336
8.591018 100.285 -157.2208
8.653272 100.281 -157.4986
8.715977 100.276 -157.7655
8.779137 100.270 -158.0198
8.842754 100.264 -158.2608
8.906833 100.257 -158.4883
8.971375 100.250 -158.7026
9.036386 100.244 -158.9048
9.101867 100.238 -159.0956
9.167823 100.233 -159.2762
9.234257 100.230 -159.4476
9.301172 100.228 -159.6115
9.368572 100.227 -159.7699
9.436460 100.228 -159.9254
9.504841 100.231 -160.0800
9.573717 100.235 -160.2358
9.643092 100.241 -160.3943
9.712970 100.248 -160.5569
9.783354 100.255 -160.7250
9.854248 100.264 -160.8999
9.925656 100.273 -161.0825
9.997581 100.282 -161.2730
10.070028 100.291 -161.4714
10.143000 100.299 -161.6771
10.216500 100.307 -161.8893
10.290533 100.314 -162.1073
10.365103 100.321 -162.3302
10.440212 100.325 -162.5566
10.515866 100.329 -162.7851
10.592069 100.332 -163.0141
10.668823 100.334 -163.2423
10.746134 100.334 -163.4687
10.824005 100.334 -163.6924
10.902440 100.332 -163.9124
10.981443 100.331 -164.1283
11.061020 100.328 -164.3397
11.141172 100.326 -164.5465
11.221906 100.323 -164.7491
11.303225 100.321 -164.9479
11.385133 100.319 -165.1436
11.467634 100.317 -165.3367
11.550734 100.315 -165.5281
11.634435 100.313 -165.7186
11.718742 100.312 -165.9089
11.803661 100.310 -166.0997
11.889195 100.309 -166.2912
11.975349 100.308 -166.4839
12.062128 100.307 -166.6777
12.149535 100.305 -166.8727
12.237576 100.304 -167.0685
12.326254 100.301 -167.2647
12.415575 100.299 -167.4609
12.505544 100.296 -167.6567
12.596164 100.293 -167.8517
12.687441 100.290 -168.0456
12.779379 100.287 -168.2383
12.871984 100.284 -168.4299
12.965260 100.281 -168.6206
13.059211 100.278 -168.8109
13.153843 100.275 -169.0016
13.249161 100.273 -169.1933
13.345170 100.271 -169.3870
13.441875 100.270 -169.5835
13.539280 100.268 -169.7835
13.637391 100.267 -169.9877
13.736214 100.265 -170.1963
13.835752 100.264 -170.4094
13.936011 100.261 -170.6268
14.036998 100.259 -170.8477
14.138716 100.255 -171.0714
14.241171 100.251 -171.2967
14.344368 100.245 -171.5223
14.448313 100.239 -171.7469
14.553011 100.232 -171.9692
14.658468 100.225 -172.1882
14.764689 100.217 -172.4031
14.871680 100.209 -172.6135
14.979446 100.201 -172.8194
15.087994 100.193 -173.0212
15.197328 100.186 -173.2197
15.307454 100.179 -173.4161
15.418378 100.174 -173.6118
15.530106 100.169 -173.8083
15.642643 100.165 -174.0069
15.755996 100.161 -174.2087
15.870171 100.158 -174.4149
15.985172 100.154 -174.6256
16.101007 100.151 -174.8410
16.217682 100.147 -175.0605
16.335201 100.143 -175.2833
16.453573 100.138 -175.5081
16.572803 100.133 -175.7336
16.692898 100.126 -175.9583
16.813862 100.119 -176.1809
16.935701 100.112 -176.4004
17.058424 100.104 -176.6161
17.182035 100.097 -176.8278
17.306543 100.089 -177.0356
17.431953 100.081 -177.2402
17.558273 100.075 -177.4425
17.685509 100.068 -177.6435
17.813665 100.062 -177.8442
17.942751 100.056 -178.0457
18.072771 100.051 -178.2487
18.203733 100.045 -178.4535
18.335646 100.040 -178.6602
18.468513 100.034 -178.8686
18.602345 100.028 -179.0780
18.737144 100.021 -179.2879
18.872921 100.014 -179.4974
19.009682 100.006 -179.7060
19.147434 99.999 -179.9132
19.286184 99.991 179.8812
19.425940 99.982 179.6774
19.566708 99.974 179.4749
19.708496 99.966 179.2735
19.851313 99.957 179.0727
19.995163 99.949 178.8720
20.140057 99.940 178.6713
20.285999 99.932 178.4702
20.433001 99.923 178.2687
20.581066 99.914 178.0669
20.730206 99.904 177.8648
20.880424 99.894 177.6627
21.031733 99.885 177.4604
21.184137 99.874 177.2581
21.337646 99.864 177.0555
21.492268 99.854 176.8524
21.648010 99.843 176.6488
21.804880 99.832 176.4444
21.962887 99.821 176.2394
22.122040 99.809 176.0339
22.282345 99.797 175.8284
22.443811 99.785 175.6233
22.606449 99.772 175.4192
22.770266 99.759 175.2164
22.935268 99.746 175.0154
23.101467 99.733 174.8160
23.268869 99.720 174.6182
23.437485 99.706 174.4218
23.607323 99.693 174.2266
23.778391 99.680 174.0324
23.950699 99.667 173.8396
24.124256 99.653 173.6487
24.299070 99.640 173.4604
24.475151 99.626 173.2756
24.652508 99.613 173.0953
24.831150 99.600 172.9200
25.011087 99.588 172.7495
25.192327 99.576 172.5832
25.374882 99.566 172.4196
25.558758 99.557 172.2568
25.743967 99.550 172.0923
25.930519 99.543 171.9237
26.118422 99.538 171.7490
26.307686 99.534 171.5666
26.498322 99.529 171.3757
26.690340 99.525 171.1766
26.883749 99.520 170.9698
27.078560 99.514 170.7567
27.274782 99.508 170.5388
27.472427 99.500 170.3176
27.671503 99.492 170.0947
27.872023 99.482 169.8715
28.073996 99.471 169.6490
28.277431 99.460 169.4285
28.482342 99.447 169.2104
28.688736 99.434 168.9955
28.896626 99.421 168.7838
29.106022 99.407 168.5753
29.316936 99.392 168.3696
29.529379 99.378 168.1661
29.743361 99.364 167.9641
29.958893 99.349 167.7628
30.175987 99.334 167.5618
30.394655 99.319 167.3609
30.614908 99.304 167.1601
30.836756 99.288 166.9596
31.060211 99.273 166.7600
31.285286 99.256 166.5615
31.511992 99.240 166.3644
31.740341 99.224 166.1685
31.970345 99.208 165.9736
32.202015 99.192 165.7794
32.435364 99.176 165.5850
32.670403 99.161 165.3899
32.907146 99.146 165.1935
33.145607 99.131 164.9950
33.385796 99.116 164.7939
33.627724 99.101 164.5899
33.871403 99.086 164.3829
34.116848 99.071 164.1731
34.364071 99.055 163.9612
34.613087 99.039 163.7480
34.863907 99.022 163.5349
35.116547 99.005 163.3224
35.371017 98.987 163.1117
35.627331 98.969 162.9031
35.885502 98.951 162.6967
36.145542 98.932 162.4927
36.407467 98.914 162.2910
36.671291 98.894 162.0914
36.937027 98.875 161.8942
37.204689 98.856 161.6993
37.474289 98.836 161.5068
37.745842 98.816 161.3167
38.019363 98.796 161.1291
38.294868 98.777 160.9438
38.572369 98.757 160.7603
38.851879 98.737 160.5781
39.133415 98.718 160.3964
39.416992 98.698 160.2143
39.702625 98.679 160.0311
39.990326 98.660 159.8464
40.280113 98.640 159.6604
40.571999 98.620 159.4736
40.866001 98.599 159.2869
41.162132 98.578 159.1010
41.460411 98.557 158.9163
41.760849 98.536 158.7327
42.063465 98.515 158.5500
42.368275 98.494 158.3680
42.675293 98.472 158.1865
42.984535 98.451 158.0056
43.296021 98.429 157.8257
43.609760 98.408 157.6469
43.925774 98.386 157.4687
44.244080 98.365 157.2908
44.564690 98.344 157.1127
44.887623 98.323 156.9340
45.212898 98.301 156.7547
45.540531 98.280 156.5748
45.870537 98.259 156.3946
46.202934 98.237 156.2141
46.537739 98.215 156.0332
46.874969 98.194 155.8519
47.214645 98.172 155.6700
47.556782 98.150 155.4873
47.901398 98.127 155.3040
48.248512 98.104 155.1204
48.598141 98.081 154.9371
48.950302 98.057 154.7549
49.305016 98.032 154.5750
49.662300 98.007 154.3980
50.022175 97.982 154.2245
50.384655 97.956 154.0543
50.749763 97.931 153.8861
51.117516 97.906 153.7187
51.487934 97.881 153.5509
51.861038 97.856 153.3822
52.236843 97.830 153.2132
52.615372 97.804 153.0450
52.996643 97.778 152.8789
53.380680 97.751 152.7155
53.767498 97.725 152.5546
54.157120 97.698 152.3956
54.549564 97.672 152.2376
54.944855 97.646 152.0797
55.343006 97.620 151.9214
55.744045 97.595 151.7618
56.147991 97.570 151.6005
56.554863 97.544 151.4371
56.964684 97.519 151.2712
57.377472 97.493 151.1031
57.793251 97.467 150.9330
58.212044 97.441 150.7610
58.633873 97.414 150.5876
59.058758 97.386 150.4134
59.486721 97.358 150.2391
59.917786 97.329 150.0660
60.351974 97.300 149.8954
60.789310 97.269 149.7287
61.229816 97.239 149.5664
61.673512 97.209 149.4086
62.120422 97.178 149.2547
62.570572 97.148 149.1039
63.023983 97.118 148.9557
63.480682 97.087 148.8095
63.940689 97.057 148.6653
64.404030 97.026 148.5231
64.870728 96.996 148.3835
65.340805 96.965 148.2467
65.814293 96.934 148.1129
66.291214 96.902 147.9815
66.771591 96.871 147.8513
67.255447 96.840 147.7207
67.742805 96.809 147.5889
68.233696 96.778 147.4552
68.728142 96.747 147.3198
69.226173 96.715 147.1831
69.727814 96.683 147.0463
70.233093 96.651 146.9106
70.742035 96.618 146.7769
71.254662 96.586 146.6461
71.771004 96.554 146.5183
72.291084 96.523 146.3938
72.814934 96.492 146.2728
73.342583 96.461 146.1559
73.874054 96.430 146.0438
74.409378 96.399 145.9365
74.948578 96.369 145.8328
75.491684 96.339 145.7296
76.038727 96.309 145.6230
76.589737 96.279 145.5102
77.144737 96.248 145.3916
77.703758 96.215 145.2703
78.266830 96.181 145.1492
78.833984 96.146 145.0297
79.405251 96.111 144.9102
