* Measurement data measured by REW V5.31
* Source: EXCL: Microphone (USB Sound Device        ), MICROPHONE (Master Volume), L, volume: 0.390
* Format: 256k Log Swept Sine, 1 sweep at -15.0 dBFS with no timing reference
* Dated: Nov 28, 2024 12:06:44 AM
* REW Settings:
*  C-weighting compensation: Off
*  Target level: 75.0 dB
* Note: SIMGOT ET142 Colored L
* Measurement: L SIMGOT ET142 Colored
* Smoothing: 1/12 octave
* Frequency Step: 96 ppo
* Start Frequency: 0.36621094 Hz
*
* Freq(Hz)	SPL(dB)	Phase(degrees)
0.366211	83.181	158.9457
0.368865	83.174	158.9230
0.371538	83.164	158.8889
0.374230	83.152	158.8460
0.376942	83.138	158.7966
0.379673	83.124	158.7423
0.382424	83.108	158.6842
0.385196	83.093	158.6229
0.387987	83.077	158.5588
0.390798	83.060	158.4921
0.393630	83.044	158.4228
0.396483	83.027	158.3511
0.399356	83.011	158.2769
0.402250	82.994	158.2002
0.405165	82.977	158.1210
0.408101	82.960	158.0393
0.411058	82.943	157.9550
0.414037	82.925	157.8682
0.417037	82.908	157.7788
0.420059	82.890	157.6867
0.423103	82.873	157.5920
0.426169	82.855	157.4946
0.429257	82.837	157.3945
0.432368	82.819	157.2916
0.435501	82.801	157.1860
0.438656	82.782	157.0777
0.441835	82.764	156.9665
0.445037	82.745	156.8525
0.448262	82.727	156.7356
0.451510	82.708	156.6159
0.454782	82.689	156.4932
0.458077	82.669	156.3677
0.461397	82.650	156.2392
0.464740	82.631	156.1077
0.468108	82.611	155.9732
0.471500	82.591	155.8358
0.474917	82.572	155.6953
0.478358	82.552	155.5518
0.481825	82.532	155.4052
0.485316	82.511	155.2555
0.488833	82.491	155.1028
0.492375	82.470	154.9469
0.495943	82.449	154.7879
0.499537	82.429	154.6258
0.503157	82.408	154.4605
0.506803	82.386	154.2921
0.510475	82.365	154.1205
0.514175	82.344	153.9458
0.517900	82.322	153.7678
0.521653	82.300	153.5867
0.525434	82.278	153.4025
0.529241	82.256	153.2150
0.533076	82.234	153.0243
0.536939	82.211	152.8305
0.540830	82.189	152.6335
0.544749	82.166	152.4334
0.548696	82.143	152.2301
0.552673	82.120	152.0237
0.556677	82.097	151.8141
0.560711	82.073	151.6015
0.564774	82.050	151.3858
0.568867	82.026	151.1670
0.572989	82.002	150.9452
0.577141	81.978	150.7204
0.581324	81.953	150.4926
0.585536	81.929	150.2620
0.589779	81.904	150.0285
0.594053	81.879	149.7921
0.598358	81.854	149.5529
0.602694	81.829	149.3111
0.607061	81.804	149.0666
0.611460	81.778	148.8195
0.615891	81.753	148.5699
0.620354	81.727	148.3178
0.624849	81.701	148.0633
0.629377	81.674	147.8066
0.633938	81.648	147.5477
0.638532	81.621	147.2868
0.643159	81.594	147.0238
0.647819	81.567	146.7590
0.652514	81.540	146.4924
0.657242	81.512	146.2243
0.662005	81.485	145.9547
0.666802	81.457	145.6837
0.671634	81.429	145.4115
0.676501	81.400	145.1384
0.681403	81.372	144.8644
0.686341	81.343	144.5897
0.691314	81.314	144.3145
0.696324	81.285	144.0390
0.701370	81.255	143.7633
0.706452	81.225	143.4876
0.711571	81.195	143.2119
0.716728	81.163	142.9361
0.721921	81.130	142.6599
0.727153	81.095	142.3829
0.732422	81.058	142.1043
0.737729	81.018	141.8230
0.743075	80.975	141.5378
0.748460	80.931	141.2478
0.753883	80.884	140.9523
0.759346	80.836	140.6507
0.764849	80.787	140.3425
0.770391	80.737	140.0276
0.775974	80.686	139.7056
0.781597	80.635	139.3764
0.787261	80.582	139.0399
0.792966	80.528	138.6960
0.798712	80.474	138.3444
0.804500	80.419	137.9851
0.810329	80.363	137.6180
0.816201	80.306	137.2430
0.822116	80.248	136.8599
0.828073	80.190	136.4686
0.834074	80.130	136.0690
0.840118	80.069	135.6611
0.846206	80.008	135.2447
0.852338	79.945	134.8197
0.858514	79.881	134.3860
0.864735	79.816	133.9435
0.871001	79.751	133.4922
0.877313	79.684	133.0320
0.883670	79.615	132.5627
0.890074	79.546	132.0844
0.896524	79.476	131.5971
0.903020	79.404	131.1005
0.909564	79.331	130.5948
0.916155	79.257	130.0799
0.922794	79.181	129.5559
0.929481	79.105	129.0226
0.936216	79.026	128.4802
0.943000	78.947	127.9287
0.949834	78.866	127.3682
0.956717	78.783	126.7987
0.963649	78.699	126.2204
0.970632	78.614	125.6334
0.977666	78.526	125.0379
0.984750	78.438	124.4340
0.991886	78.347	123.8220
0.999074	78.255	123.2021
1.006314	78.161	122.5746
1.013606	78.066	121.9399
1.020951	77.969	121.2983
1.028349	77.869	120.6501
1.035801	77.768	119.9959
1.043307	77.665	119.3361
1.050867	77.560	118.6712
1.058482	77.453	118.0016
1.066152	77.343	117.3277
1.073878	77.231	116.6499
1.081660	77.117	115.9682
1.089498	76.999	115.2823
1.097393	76.877	114.5914
1.105345	76.751	113.8942
1.113355	76.620	113.1889
1.121423	76.483	112.4739
1.129549	76.340	111.7473
1.137734	76.190	111.0077
1.145979	76.035	110.2533
1.154283	75.873	109.4827
1.162647	75.705	108.6944
1.171072	75.532	107.8868
1.179558	75.354	107.0582
1.188106	75.170	106.2069
1.196715	74.982	105.3312
1.205387	74.789	104.4288
1.214122	74.593	103.4979
1.222920	74.393	102.5361
1.231782	74.191	101.5409
1.240708	73.986	100.5098
1.249699	73.778	99.4401
1.258754	73.570	98.3287
1.267876	73.361	97.1725
1.277063	73.151	95.9682
1.286318	72.941	94.7123
1.295639	72.733	93.4011
1.305027	72.526	92.0307
1.314484	72.321	90.5970
1.324009	72.119	89.0960
1.333604	71.921	87.5233
1.343268	71.728	85.8748
1.353002	71.540	84.1463
1.362806	71.358	82.3337
1.372681	71.184	80.4334
1.382628	71.017	78.4421
1.392647	70.860	76.3571
1.402739	70.712	74.1764
1.412904	70.576	71.8990
1.423142	70.452	69.5250
1.433455	70.341	67.0552
1.443843	70.243	64.4911
1.454305	70.160	61.8347
1.464844	70.092	59.0875
1.475459	70.039	56.2510
1.486150	70.001	53.3263
1.496920	69.977	50.3160
1.507767	69.967	47.2242
1.518693	69.970	44.0577
1.529698	69.987	40.8253
1.540783	70.017	37.5383
1.551948	70.058	34.2101
1.563194	70.112	30.8557
1.574521	70.176	27.4912
1.585931	70.252	24.1334
1.597423	70.338	20.7991
1.608999	70.433	17.5045
1.620658	70.537	14.2649
1.632402	70.650	11.0941
1.644232	70.770	8.0037
1.656146	70.898	5.0040
1.668147	71.031	2.1027
1.680235	71.170	-0.6944
1.692411	71.314	-3.3834
1.704675	71.461	-5.9621
1.717028	71.612	-8.4300
1.729470	71.765	-10.7877
1.742003	71.919	-13.0370
1.754626	72.073	-15.1809
1.767341	72.227	-17.2229
1.780147	72.381	-19.1675
1.793047	72.533	-21.0202
1.806040	72.684	-22.7872
1.819128	72.834	-24.4760
1.832310	72.985	-26.0949
1.845587	73.138	-27.6526
1.858961	73.295	-29.1569
1.872432	73.456	-30.6143
1.886001	73.622	-32.0296
1.899667	73.794	-33.4060
1.913433	73.971	-34.7457
1.927299	74.153	-36.0502
1.941265	74.340	-37.3202
1.955332	74.531	-38.5565
1.969501	74.725	-39.7593
1.983773	74.922	-40.9289
1.998148	75.121	-42.0652
2.012627	75.322	-43.1682
2.027212	75.523	-44.2379
2.041902	75.725	-45.2741
2.056698	75.925	-46.2765
2.071602	76.124	-47.2449
2.086614	76.321	-48.1792
2.101734	76.514	-49.0790
2.116964	76.703	-49.9444
2.132304	76.888	-50.7755
2.147756	77.066	-51.5730
2.163320	77.239	-52.3380
2.178996	77.405	-53.0726
2.194786	77.565	-53.7796
2.210690	77.718	-54.4628
2.226710	77.865	-55.1260
2.242845	78.007	-55.7725
2.259098	78.144	-56.4046
2.275468	78.276	-57.0238
2.291957	78.403	-57.6310
2.308566	78.527	-58.2265
2.325295	78.646	-58.8102
2.342145	78.762	-59.3818
2.359117	78.875	-59.9410
2.376212	78.985	-60.4871
2.393431	79.093	-61.0196
2.410775	79.198	-61.5377
2.428244	79.302	-62.0406
2.445840	79.404	-62.5275
2.463564	79.504	-62.9977
2.481416	79.604	-63.4502
2.499397	79.703	-63.8845
2.517509	79.802	-64.3000
2.535752	79.900	-64.6965
2.554127	79.998	-65.0742
2.572635	80.095	-65.4339
2.591277	80.191	-65.7767
2.610055	80.284	-66.1036
2.628968	80.376	-66.4161
2.648019	80.466	-66.7151
2.667208	80.554	-67.0017
2.686535	80.640	-67.2765
2.706003	80.724	-67.5404
2.725612	80.807	-67.7939
2.745363	80.889	-68.0376
2.765257	80.970	-68.2719
2.785295	81.050	-68.4974
2.805478	81.130	-68.7144
2.825808	81.210	-68.9232
2.846285	81.290	-69.1239
2.866910	81.371	-69.3167
2.887685	81.452	-69.5015
2.908611	81.534	-69.6779
2.929688	81.617	-69.8454
2.950917	81.700	-70.0035
2.972301	81.783	-70.1520
2.993839	81.867	-70.2907
3.015534	81.950	-70.4201
3.037386	82.034	-70.5410
3.059396	82.117	-70.6544
3.081565	82.201	-70.7615
3.103896	82.284	-70.8636
3.126388	82.368	-70.9619
3.149043	82.453	-71.0577
3.171862	82.537	-71.1523
3.194847	82.623	-71.2467
3.217998	82.708	-71.3418
3.241317	82.795	-71.4383
3.264805	82.883	-71.5362
3.288463	82.971	-71.6353
3.312293	83.061	-71.7347
3.336295	83.151	-71.8338
3.360471	83.243	-71.9320
3.384822	83.335	-72.0294
3.409350	83.427	-72.1265
3.434056	83.521	-72.2244
3.458940	83.615	-72.3243
3.484005	83.709	-72.4277
3.509252	83.804	-72.5360
3.534681	83.898	-72.6507
3.560295	83.993	-72.7732
3.586094	84.088	-72.9048
3.612081	84.182	-73.0463
3.638255	84.277	-73.1983
3.664620	84.371	-73.3609
3.691175	84.465	-73.5337
3.717923	84.560	-73.7161
3.744864	84.654	-73.9075
3.772001	84.748	-74.1073
3.799335	84.842	-74.3151
3.826866	84.935	-74.5308
3.854597	85.028	-74.7540
3.882529	85.121	-74.9847
3.910664	85.213	-75.2231
3.939002	85.303	-75.4691
3.967546	85.393	-75.7231
3.996296	85.481	-75.9852
4.025255	85.568	-76.2560
4.054423	85.654	-76.5355
4.083804	85.739	-76.8240
4.113396	85.822	-77.1211
4.143204	85.904	-77.4264
4.173227	85.985	-77.7391
4.203468	86.065	-78.0582
4.233928	86.143	-78.3827
4.264609	86.219	-78.7118
4.295512	86.294	-79.0445
4.326639	86.368	-79.3805
4.357992	86.440	-79.7195
4.389572	86.511	-80.0617
4.421380	86.579	-80.4075
4.453419	86.646	-80.7573
4.485691	86.711	-81.1112
4.518196	86.774	-81.4688
4.550936	86.836	-81.8293
4.583914	86.896	-82.1914
4.617131	86.954	-82.5539
4.650589	87.012	-82.9156
4.684289	87.067	-83.2753
4.718233	87.122	-83.6323
4.752424	87.175	-83.9864
4.786862	87.227	-84.3375
4.821549	87.277	-84.6860
4.856488	87.326	-85.0323
4.891680	87.374	-85.3764
4.927127	87.421	-85.7180
4.962831	87.466	-86.0569
4.998794	87.511	-86.3924
5.035017	87.555	-86.7240
5.071503	87.599	-87.0511
5.108253	87.642	-87.3732
5.145270	87.685	-87.6902
5.182555	87.728	-88.0022
5.220110	87.770	-88.3094
5.257937	87.811	-88.6124
5.296038	87.853	-88.9117
5.334415	87.895	-89.2079
5.373071	87.936	-89.5017
5.412006	87.978	-89.7934
5.451224	88.020	-90.0832
5.490725	88.063	-90.3712
5.530514	88.107	-90.6575
5.570590	88.150	-90.9423
5.610957	88.195	-91.2259
5.651616	88.240	-91.5091
5.692570	88.285	-91.7930
5.733821	88.331	-92.0785
5.775370	88.378	-92.3668
5.817221	88.425	-92.6586
5.859375	88.473	-92.9544
5.901834	88.522	-93.2544
5.944602	88.571	-93.5588
5.987679	88.621	-93.8677
6.031068	88.671	-94.1817
6.074771	88.722	-94.5014
6.118792	88.773	-94.8273
6.163131	88.824	-95.1602
6.207792	88.875	-95.5006
6.252776	88.927	-95.8487
6.298086	88.978	-96.2047
6.343725	89.030	-96.5684
6.389694	89.081	-96.9393
6.435996	89.133	-97.3172
6.482634	89.184	-97.7018
6.529610	89.234	-98.0928
6.576926	89.284	-98.4902
6.624585	89.333	-98.8938
6.672590	89.382	-99.3035
6.720942	89.430	-99.7189
6.769645	89.478	-100.1392
6.818700	89.524	-100.5636
6.868111	89.570	-100.9912
6.917881	89.616	-101.4212
6.968010	89.660	-101.8532
7.018504	89.704	-102.2869
7.069362	89.747	-102.7219
7.120590	89.790	-103.1577
7.172189	89.832	-103.5937
7.224161	89.873	-104.0289
7.276511	89.914	-104.4627
7.329239	89.954	-104.8944
7.382350	89.994	-105.3239
7.435845	90.034	-105.7509
7.489729	90.074	-106.1755
7.544002	90.114	-106.5974
7.598669	90.153	-107.0165
7.653732	90.193	-107.4326
7.709194	90.233	-107.8456
7.765058	90.273	-108.2556
7.821327	90.314	-108.6628
7.878004	90.355	-109.0675
7.935091	90.397	-109.4700
7.992592	90.439	-109.8709
8.050510	90.482	-110.2705
8.108847	90.525	-110.6689
8.167607	90.569	-111.0666
8.226793	90.614	-111.4638
8.286408	90.659	-111.8610
8.346454	90.704	-112.2588
8.406936	90.750	-112.6574
8.467856	90.797	-113.0573
8.529218	90.844	-113.4585
8.591024	90.891	-113.8611
8.653278	90.938	-114.2653
8.715983	90.986	-114.6710
8.779143	91.034	-115.0783
8.842760	91.081	-115.4872
8.906839	91.129	-115.8975
8.971381	91.176	-116.3089
9.036392	91.223	-116.7211
9.101873	91.270	-117.1336
9.167829	91.316	-117.5461
9.234263	91.363	-117.9582
9.301178	91.408	-118.3697
9.368578	91.453	-118.7799
9.436467	91.498	-119.1884
9.504847	91.542	-119.5947
9.573723	91.585	-119.9984
9.643099	91.628	-120.3992
9.712976	91.668	-120.7969
9.783361	91.708	-121.1912
9.854255	91.744	-121.5817
9.925663	91.779	-121.9684
9.997588	91.811	-122.3511
10.070035	91.840	-122.7298
10.143007	91.867	-123.1047
10.216507	91.892	-123.4757
10.290540	91.916	-123.8430
10.365109	91.938	-124.2067
10.440219	91.960	-124.5671
10.515873	91.980	-124.9244
10.592076	92.000	-125.2789
10.668830	92.020	-125.6308
10.746141	92.039	-125.9805
10.824012	92.058	-126.3280
10.902447	92.077	-126.6738
10.981451	92.095	-127.0180
11.061027	92.113	-127.3608
11.141180	92.131	-127.7026
11.221913	92.148	-128.0433
11.303232	92.165	-128.3831
11.385140	92.181	-128.7223
11.467641	92.197	-129.0608
11.550741	92.213	-129.3988
11.634442	92.228	-129.7364
11.718750	92.243	-130.0735
11.803669	92.257	-130.4102
11.889203	92.272	-130.7465
11.975357	92.286	-131.0825
12.062136	92.300	-131.4181
12.149543	92.313	-131.7532
12.237583	92.326	-132.0879
12.326262	92.339	-132.4220
12.415583	92.351	-132.7555
12.505552	92.362	-133.0883
12.596172	92.373	-133.4203
12.687449	92.383	-133.7513
12.779387	92.392	-134.0813
12.871992	92.401	-134.4102
12.965268	92.409	-134.7379
13.059220	92.417	-135.0644
13.153852	92.424	-135.3897
13.249170	92.432	-135.7139
13.345179	92.439	-136.0370
13.441884	92.447	-136.3595
13.539289	92.455	-136.6814
13.637401	92.462	-137.0033
13.736223	92.471	-137.3255
13.835761	92.479	-137.6485
13.936021	92.487	-137.9730
14.037007	92.496	-138.2994
14.138725	92.505	-138.6284
14.241180	92.513	-138.9605
14.344377	92.522	-139.2962
14.448323	92.531	-139.6358
14.553021	92.539	-139.9797
14.658478	92.548	-140.3280
14.764700	92.557	-140.6807
14.871691	92.565	-141.0378
14.979457	92.573	-141.3989
15.088005	92.582	-141.7637
15.197339	92.589	-142.1317
15.307465	92.597	-142.5023
15.418389	92.604	-142.8749
15.530117	92.611	-143.2488
15.642655	92.618	-143.6235
15.756008	92.624	-143.9984
15.870182	92.631	-144.3730
15.985184	92.637	-144.7470
16.101019	92.643	-145.1201
16.217694	92.649	-145.4921
16.335214	92.655	-145.8629
16.453586	92.661	-146.2327
16.572815	92.668	-146.6014
16.692909	92.675	-146.9691
16.813872	92.682	-147.3359
16.935713	92.690	-147.7019
17.058436	92.699	-148.0670
17.182048	92.708	-148.4312
17.306556	92.717	-148.7943
17.431967	92.726	-149.1561
17.558286	92.735	-149.5161
17.685521	92.744	-149.8743
17.813677	92.753	-150.2300
17.942762	92.761	-150.5831
18.072783	92.770	-150.9332
18.203746	92.778	-151.2801
18.335658	92.786	-151.6236
18.468526	92.794	-151.9636
18.602356	92.802	-152.3001
18.737156	92.811	-152.6332
18.872934	92.819	-152.9630
19.009695	92.827	-153.2897
19.147447	92.835	-153.6136
19.286197	92.844	-153.9347
19.425953	92.852	-154.2533
19.566721	92.859	-154.5696
19.708510	92.867	-154.8837
19.851326	92.874	-155.1957
19.995177	92.881	-155.5059
20.140070	92.887	-155.8142
20.286013	92.892	-156.1210
20.433014	92.898	-156.4263
20.581080	92.902	-156.7304
20.730219	92.906	-157.0336
20.880439	92.910	-157.3362
21.031747	92.914	-157.6387
21.184152	92.917	-157.9412
21.337661	92.920	-158.2443
21.492282	92.923	-158.5482
21.648024	92.925	-158.8530
21.804895	92.927	-159.1591
21.962902	92.929	-159.4664
22.122054	92.930	-159.7749
22.282360	92.930	-160.0844
22.443827	92.930	-160.3949
22.606464	92.930	-160.7062
22.770280	92.929	-161.0183
22.935283	92.927	-161.3311
23.101481	92.926	-161.6448
23.268884	92.924	-161.9596
23.437500	92.922	-162.2757
23.607338	92.920	-162.5935
23.778406	92.918	-162.9130
23.950714	92.915	-163.2343
24.124271	92.912	-163.5573
24.299086	92.909	-163.8814
24.475167	92.906	-164.2060
24.652524	92.902	-164.5305
24.831166	92.899	-164.8539
25.011103	92.895	-165.1756
25.192344	92.891	-165.4953
25.374898	92.888	-165.8127
25.558775	92.885	-166.1281
25.743984	92.883	-166.4421
25.930536	92.881	-166.7549
26.118439	92.879	-167.0670
26.307704	92.877	-167.3783
26.498341	92.875	-167.6881
26.690359	92.872	-167.9953
26.883768	92.869	-168.2984
27.078579	92.866	-168.5957
27.274801	92.863	-168.8861
27.472446	92.860	-169.1690
27.671522	92.857	-169.4453
27.872042	92.855	-169.7170
28.074014	92.854	-169.9872
28.277450	92.854	-170.2596
28.482360	92.855	-170.5380
28.688755	92.855	-170.8250
28.896645	92.854	-171.1217
29.106042	92.852	-171.4274
29.316957	92.847	-171.7391
29.529400	92.839	-172.0525
29.743382	92.829	-172.3626
29.958915	92.816	-172.6648
30.176009	92.801	-172.9555
30.394677	92.785	-173.2332
30.614929	92.768	-173.4985
30.836778	92.752	-173.7537
31.060234	92.736	-174.0023
31.285309	92.721	-174.2480
31.512015	92.706	-174.4939
31.740364	92.691	-174.7420
31.970368	92.675	-174.9932
32.202039	92.660	-175.2470
32.435388	92.643	-175.5023
32.670428	92.626	-175.7576
32.907171	92.608	-176.0107
33.145630	92.589	-176.2592
33.385817	92.570	-176.5003
33.627745	92.550	-176.7307
33.871425	92.531	-176.9474
34.116871	92.513	-177.1484
34.364096	92.496	-177.3338
34.613113	92.483	-177.5066
34.863934	92.474	-177.6733
35.116572	92.470	-177.8429
35.371041	92.470	-178.0255
35.627354	92.473	-178.2302
35.885525	92.479	-178.4626
36.145566	92.484	-178.7237
36.407492	92.488	-179.0095
36.671316	92.489	-179.3125
36.937051	92.486	-179.6234
37.204712	92.481	-179.9334
37.474313	92.474	179.7635
37.745867	92.465	179.4699
38.019389	92.455	179.1853
38.294893	92.445	178.9070
38.572394	92.436	178.6320
38.851905	92.426	178.3580
39.133442	92.415	178.0840
39.417019	92.404	177.8105
39.702651	92.392	177.5380
39.990353	92.379	177.2671
40.280140	92.365	176.9979
40.572026	92.351	176.7300
40.866028	92.336	176.4626
41.162160	92.321	176.1954
41.460438	92.305	175.9286
41.760877	92.287	175.6632
42.063494	92.269	175.4005
42.368303	92.250	175.1418
42.675322	92.231	174.8884
42.984565	92.211	174.6411
43.296048	92.192	174.3995
43.609789	92.173	174.1620
43.925804	92.154	173.9260
44.244108	92.137	173.6879
44.564719	92.121	173.4442
44.887654	92.105	173.1926
45.212928	92.088	172.9328
45.540560	92.070	172.6672
45.870565	92.050	172.4001
46.202962	92.029	172.1364
46.537768	92.007	171.8803
46.875000	91.984	171.6337
47.214676	91.961	171.3958
47.556813	91.939	171.1640
47.901429	91.917	170.9348
48.248542	91.896	170.7054
48.598171	91.875	170.4750
48.950334	91.853	170.2445
49.305048	91.830	170.0161
49.662333	91.806	169.7923
50.022206	91.782	169.5743
50.384688	91.757	169.3619
50.749796	91.733	169.1534
51.117550	91.708	168.9468
51.487969	91.684	168.7406
51.861072	91.659	168.5344
52.236879	91.635	168.3289
52.615409	91.610	168.1253
52.996681	91.585	167.9243
53.380717	91.560	167.7256
53.767536	91.535	167.5287
54.157158	91.512	167.3328
54.549603	91.488	167.1373
54.944892	91.465	166.9417
55.343045	91.443	166.7461
55.744084	91.420	166.5506
56.148028	91.398	166.3561
56.554900	91.376	166.1632
56.964720	91.354	165.9724
57.377510	91.332	165.7833
57.793291	91.310	165.5951
58.212085	91.287	165.4076
58.633914	91.265	165.2206
59.058799	91.242	165.0339
59.486764	91.218	164.8464
59.917829	91.194	164.6573
60.352019	91.169	164.4669
60.789354	91.143	164.2768
61.229859	91.115	164.0890
61.673556	91.088	163.9034
62.120468	91.060	163.7177
62.570618	91.032	163.5289
63.024031	91.004	163.3365
63.480729	90.975	163.1436
63.940736	90.945	162.9537
64.404077	90.914	162.7688
64.870776	90.884	162.5884
65.340856	90.854	162.4117
65.814343	90.823	162.2392
66.291261	90.793	162.0722
66.771635	90.763	161.9108
67.255489	90.733	161.7524
67.742850	90.703	161.5948
68.233743	90.673	161.4377
68.728193	90.642	161.2831
69.226226	90.610	161.1331
69.727867	90.578	160.9881
70.233144	90.545	160.8474
70.742083	90.513	160.7101
71.254709	90.482	160.5750
71.771050	90.451	160.4387
72.291132	90.421	160.2957
72.814984	90.392	160.1418
73.342631	90.361	159.9774
73.874102	90.328	159.8087
74.409424	90.294	159.6441
74.948626	90.258	159.4901
75.491734	90.222	159.3497
76.038779	90.186	159.2222
76.589787	90.152	159.1040
77.144788	90.120	158.9889
77.703811	90.089	158.8708
78.266885	90.059	158.7465
78.834039	90.029	158.6158
79.405303	89.998	158.4811
79.980706	89.967	158.3453
80.560280	89.935	158.2097
81.144053	89.903	158.0724
81.732056	89.871	157.9296
82.324320	89.838	157.7770
82.920876	89.802	157.6149
83.521755	89.763	157.4490
84.126988	89.721	157.2890
84.736607	89.676	157.1432
85.350643	89.632	157.0136
85.969129	89.588	156.8947
86.592097	89.546	156.7761
87.219579	89.507	156.6484
