* Measurement data measured by REW V5.31
* Source: EXCL: Microphone (USB Sound Device        ), MICROPHONE (Master Volume), L, volume: 0.390
* Format: 256k Log Swept Sine, 1 sweep at -4.0 dBFS with no timing reference
* Dated: Aug 25, 2024 8:41:50 PM
* REW Settings:
*  C-weighting compensation: Off
*  Target level: 75.0 dB
* Note: L Simgot EW300 HBB Silver
* Measurement: L Simgot EW300 HBB Silver
* Smoothing: 1/12 octave
* Frequency Step: 96 ppo
* Start Frequency: 0.36621094 Hz
*
* Freq(Hz) SPL(dB) Phase(degrees)
0.366211 85.270 -65.5077
0.368865 85.276 -65.5735
0.371538 85.284 -65.6719
0.374230 85.294 -65.7954
0.376942 85.306 -65.9373
0.379673 85.318 -66.0930
0.382424 85.331 -66.2592
0.385196 85.345 -66.4340
0.387987 85.358 -66.6162
0.390798 85.372 -66.8053
0.393630 85.386 -67.0009
0.396483 85.400 -67.2029
0.399356 85.414 -67.4112
0.402250 85.428 -67.6258
0.405165 85.442 -67.8467
0.408101 85.456 -68.0739
0.411058 85.471 -68.3074
0.414037 85.485 -68.5472
0.417037 85.500 -68.7933
0.420059 85.515 -69.0457
0.423103 85.530 -69.3045
0.426169 85.545 -69.5696
0.429257 85.560 -69.8410
0.432368 85.575 -70.1187
0.435501 85.590 -70.4028
0.438656 85.606 -70.6931
0.441835 85.621 -70.9896
0.445037 85.637 -71.2925
0.448262 85.653 -71.6015
0.451510 85.669 -71.9166
0.454782 85.685 -72.2380
0.458077 85.701 -72.5654
0.461397 85.717 -72.8988
0.464740 85.734 -73.2383
0.468108 85.750 -73.5836
0.471500 85.767 -73.9348
0.474917 85.783 -74.2918
0.478358 85.800 -74.6546
0.481825 85.817 -75.0229
0.485316 85.834 -75.3969
0.488833 85.852 -75.7763
0.492375 85.869 -76.1610
0.495943 85.886 -76.5510
0.499537 85.904 -76.9462
0.503157 85.922 -77.3464
0.506803 85.939 -77.7516
0.510475 85.957 -78.1616
0.514175 85.976 -78.5762
0.517900 85.994 -78.9955
0.521653 86.012 -79.4191
0.525434 86.031 -79.8470
0.529241 86.049 -80.2791
0.533076 86.068 -80.7151
0.536939 86.087 -81.1550
0.540830 86.106 -81.5985
0.544749 86.125 -82.0455
0.548696 86.145 -82.4959
0.552673 86.164 -82.9495
0.556677 86.184 -83.4061
0.560711 86.203 -83.8655
0.564774 86.223 -84.3275
0.568867 86.243 -84.7921
0.572989 86.263 -85.2589
0.577141 86.284 -85.7279
0.581324 86.304 -86.1987
0.585536 86.325 -86.6714
0.589779 86.346 -87.1455
0.594053 86.367 -87.6211
0.598358 86.388 -88.0978
0.602694 86.409 -88.5756
0.607061 86.430 -89.0541
0.611460 86.452 -89.5333
0.615891 86.473 -90.0129
0.620354 86.495 -90.4928
0.624849 86.517 -90.9727
0.629377 86.539 -91.4526
0.633938 86.562 -91.9322
0.638532 86.584 -92.4113
0.643159 86.607 -92.8899
0.647819 86.630 -93.3676
0.652514 86.653 -93.8444
0.657242 86.676 -94.3200
0.662005 86.699 -94.7944
0.666802 86.723 -95.2674
0.671634 86.746 -95.7388
0.676501 86.770 -96.2085
0.681403 86.794 -96.6763
0.686341 86.818 -97.1422
0.691314 86.842 -97.6060
0.696324 86.867 -98.0677
0.701370 86.891 -98.5272
0.706452 86.916 -98.9845
0.711571 86.940 -99.4399
0.716728 86.963 -99.8936
0.721921 86.986 -100.3465
0.727153 87.007 -100.7993
0.732422 87.027 -101.2536
0.737729 87.044 -101.7110
0.743075 87.060 -102.1732
0.748460 87.074 -102.6414
0.753883 87.087 -103.1167
0.759346 87.099 -103.5996
0.764849 87.110 -104.0904
0.770391 87.122 -104.5893
0.775974 87.133 -105.0963
0.781597 87.143 -105.6111
0.787261 87.153 -106.1338
0.792966 87.164 -106.6642
0.798712 87.173 -107.2020
0.804500 87.183 -107.7470
0.810329 87.192 -108.2990
0.816201 87.201 -108.8579
0.822116 87.210 -109.4233
0.828073 87.218 -109.9949
0.834074 87.225 -110.5726
0.840118 87.233 -111.1560
0.846206 87.240 -111.7448
0.852338 87.246 -112.3388
0.858514 87.252 -112.9376
0.864735 87.257 -113.5409
0.871001 87.262 -114.1483
0.877313 87.267 -114.7595
0.883670 87.270 -115.3742
0.890074 87.273 -115.9920
0.896524 87.275 -116.6125
0.903020 87.277 -117.2353
0.909564 87.278 -117.8601
0.916155 87.278 -118.4864
0.922794 87.277 -119.1138
0.929481 87.276 -119.7420
0.936216 87.273 -120.3704
0.943000 87.270 -120.9988
0.949834 87.265 -121.6266
0.956717 87.260 -122.2534
0.963649 87.253 -122.8788
0.970632 87.246 -123.5023
0.977666 87.237 -124.1235
0.984750 87.227 -124.7420
0.991886 87.216 -125.3572
0.999074 87.203 -125.9688
1.006314 87.189 -126.5762
1.013606 87.174 -127.1790
1.020951 87.157 -127.7768
1.028349 87.139 -128.3690
1.035801 87.119 -128.9553
1.043307 87.098 -129.5352
1.050867 87.074 -130.1084
1.058482 87.050 -130.6745
1.066152 87.023 -131.2336
1.073878 86.995 -131.7859
1.081660 86.965 -132.3319
1.089498 86.934 -132.8732
1.097393 86.903 -133.4116
1.105345 86.871 -133.9498
1.113355 86.838 -134.4908
1.121423 86.807 -135.0373
1.129549 86.775 -135.5911
1.137734 86.745 -136.1540
1.145979 86.715 -136.7269
1.154283 86.685 -137.3106
1.162647 86.655 -137.9056
1.171072 86.626 -138.5125
1.179558 86.596 -139.1313
1.188106 86.566 -139.7626
1.196715 86.535 -140.4063
1.205387 86.502 -141.0628
1.214122 86.469 -141.7320
1.222920 86.433 -142.4142
1.231782 86.396 -143.1092
1.240708 86.355 -143.8171
1.249699 86.312 -144.5377
1.258754 86.266 -145.2710
1.267876 86.216 -146.0166
1.277063 86.162 -146.7742
1.286318 86.104 -147.5433
1.295639 86.041 -148.3234
1.305027 85.972 -149.1139
1.314484 85.897 -149.9138
1.324009 85.816 -150.7223
1.333604 85.728 -151.5382
1.343268 85.633 -152.3602
1.353002 85.529 -153.1868
1.362806 85.417 -154.0163
1.372681 85.296 -154.8467
1.382628 85.166 -155.6759
1.392647 85.024 -156.5015
1.402739 84.872 -157.3211
1.412904 84.708 -158.1320
1.423142 84.531 -158.9319
1.433455 84.339 -159.7188
1.443843 84.132 -160.4917
1.454305 83.907 -161.2510
1.464844 83.662 -161.9990
1.475459 83.394 -162.7399
1.486150 83.099 -163.4786
1.496920 82.777 -164.2203
1.507767 82.426 -164.9692
1.518693 82.046 -165.7290
1.529698 81.638 -166.5024
1.540783 81.203 -167.2921
1.551948 80.742 -168.1000
1.563194 80.258 -168.9282
1.574521 79.752 -169.7788
1.585931 79.227 -170.6539
1.597423 78.685 -171.5556
1.608999 78.130 -172.4865
1.620658 77.564 -173.4491
1.632402 76.990 -174.4464
1.644232 76.412 -175.4816
1.656146 75.833 -176.5582
1.668147 75.257 -177.6805
1.680235 74.687 -178.8532
1.692411 74.129 179.9183
1.704675 73.587 178.6275
1.717028 73.066 177.2666
1.729470 72.572 175.8263
1.742003 72.109 174.2944
1.754626 71.685 172.6556
1.767341 71.306 170.8889
1.780147 70.979 168.9644
1.793047 70.711 166.8375
1.806040 70.507 164.4377
1.819128 70.375 161.6472
1.832310 70.317 158.2600
1.845587 70.335 153.8963
1.858961 70.431 147.8111
1.872432 70.600 138.4244
1.886001 70.841 122.2405
1.899667 71.148 93.7119
1.913433 71.517 58.1127
1.927299 71.941 33.3203
1.941265 72.416 19.5500
1.955332 72.934 11.4094
1.969501 73.491 6.0632
1.983773 74.080 2.2313
1.998148 74.694 -0.7059
2.012627 75.328 -3.0767
2.027212 75.975 -5.0695
2.041902 76.629 -6.7994
2.056698 77.284 -8.3414
2.071602 77.934 -9.7459
2.086614 78.572 -11.0488
2.101734 79.194 -12.2765
2.116964 79.794 -13.4490
2.132304 80.368 -14.5824
2.147756 80.913 -15.6896
2.163320 81.426 -16.7819
2.178996 81.909 -17.8683
2.194786 82.362 -18.9568
2.210690 82.789 -20.0525
2.226710 83.196 -21.1583
2.242845 83.586 -22.2739
2.259098 83.961 -23.3970
2.275468 84.325 -24.5239
2.291957 84.678 -25.6506
2.308566 85.021 -26.7733
2.325295 85.354 -27.8884
2.342145 85.679 -28.9932
2.359117 85.995 -30.0851
2.376212 86.303 -31.1626
2.393431 86.603 -32.2245
2.410775 86.896 -33.2699
2.428244 87.182 -34.2986
2.445840 87.462 -35.3110
2.463564 87.735 -36.3077
2.481416 88.002 -37.2903
2.499397 88.264 -38.2606
2.517509 88.519 -39.2220
2.535752 88.769 -40.1788
2.554127 89.011 -41.1362
2.572635 89.247 -42.1001
2.591277 89.474 -43.0759
2.610055 89.691 -44.0671
2.628968 89.900 -45.0746
2.648019 90.099 -46.0972
2.667208 90.288 -47.1322
2.686535 90.469 -48.1761
2.706003 90.642 -49.2247
2.725612 90.807 -50.2741
2.745363 90.964 -51.3201
2.765257 91.116 -52.3590
2.785295 91.261 -53.3874
2.805478 91.402 -54.4022
2.825808 91.539 -55.4010
2.846285 91.672 -56.3823
2.866910 91.801 -57.3455
2.887685 91.929 -58.2916
2.908611 92.053 -59.2236
2.929688 92.174 -60.1459
2.950917 92.292 -61.0643
2.972301 92.406 -61.9843
2.993839 92.514 -62.9094
3.015534 92.617 -63.8414
3.037386 92.715 -64.7796
3.059396 92.808 -65.7224
3.081565 92.896 -66.6667
3.103896 92.979 -67.6093
3.126388 93.057 -68.5461
3.149043 93.132 -69.4734
3.171862 93.202 -70.3873
3.194847 93.269 -71.2841
3.217998 93.332 -72.1610
3.241317 93.393 -73.0162
3.264805 93.450 -73.8494
3.288463 93.503 -74.6621
3.312293 93.554 -75.4578
3.336295 93.600 -76.2404
3.360471 93.641 -77.0136
3.384822 93.679 -77.7795
3.409350 93.712 -78.5386
3.434056 93.741 -79.2902
3.458940 93.766 -80.0323
3.484005 93.788 -80.7623
3.509252 93.807 -81.4767
3.534681 93.823 -82.1721
3.560295 93.837 -82.8446
3.586094 93.849 -83.4906
3.612081 93.859 -84.1070
3.638255 93.868 -84.6917
3.664620 93.875 -85.2437
3.691175 93.880 -85.7633
3.717923 93.882 -86.2522
3.744864 93.882 -86.7117
3.772001 93.879 -87.1436
3.799335 93.875 -87.5489
3.826866 93.869 -87.9283
3.854597 93.862 -88.2822
3.882529 93.855 -88.6097
3.910664 93.849 -88.9099
3.939002 93.844 -89.1801
3.967546 93.842 -89.4171
3.996296 93.841 -89.6174
4.025255 93.843 -89.7781
4.054423 93.848 -89.9003
4.083804 93.855 -89.9905
4.113396 93.864 -90.0576
4.143204 93.875 -90.1098
4.173227 93.889 -90.1531
4.203468 93.906 -90.1909
4.233928 93.925 -90.2245
4.264609 93.949 -90.2542
4.295512 93.976 -90.2790
4.326639 94.008 -90.2980
4.357992 94.045 -90.3099
4.389572 94.088 -90.3141
4.421380 94.136 -90.3101
4.453419 94.190 -90.2987
4.485691 94.249 -90.2818
4.518196 94.313 -90.2628
4.550936 94.382 -90.2465
4.583914 94.455 -90.2380
4.617131 94.531 -90.2435
4.650589 94.610 -90.2683
4.684289 94.692 -90.3173
4.718233 94.776 -90.3940
4.752424 94.862 -90.5006
4.786862 94.951 -90.6373
4.821549 95.041 -90.8030
4.856488 95.134 -90.9965
4.891680 95.229 -91.2164
4.927127 95.325 -91.4619
4.962831 95.421 -91.7328
4.998794 95.517 -92.0292
5.035017 95.612 -92.3517
5.071503 95.705 -92.7009
5.108253 95.797 -93.0779
5.145270 95.885 -93.4833
5.182555 95.972 -93.9170
5.220110 96.056 -94.3777
5.257937 96.137 -94.8628
5.296038 96.216 -95.3688
5.334415 96.292 -95.8919
5.373071 96.365 -96.4285
5.412006 96.434 -96.9756
5.451224 96.500 -97.5313
5.490725 96.561 -98.0952
5.530514 96.618 -98.6676
5.570590 96.671 -99.2485
5.610957 96.719 -99.8369
5.651616 96.764 -100.4302
5.692570 96.805 -101.0247
5.733821 96.842 -101.6162
5.775370 96.875 -102.2005
5.817221 96.906 -102.7744
5.859375 96.932 -103.3359
5.901834 96.956 -103.8847
5.944602 96.976 -104.4207
5.987679 96.993 -104.9436
6.031068 97.007 -105.4526
6.074771 97.019 -105.9460
6.118792 97.029 -106.4217
6.163131 97.039 -106.8772
6.207792 97.048 -107.3106
6.252776 97.056 -107.7208
6.298086 97.064 -108.1075
6.343725 97.072 -108.4718
6.389694 97.080 -108.8151
6.435996 97.089 -109.1393
6.482634 97.100 -109.4463
6.529610 97.112 -109.7375
6.576926 97.127 -110.0138
6.624585 97.144 -110.2759
6.672590 97.165 -110.5247
6.720942 97.188 -110.7622
6.769645 97.214 -110.9917
6.818700 97.243 -111.2170
6.868111 97.276 -111.4424
6.917881 97.311 -111.6714
6.968010 97.349 -111.9062
7.018504 97.390 -112.1487
7.069362 97.434 -112.3999
7.120590 97.481 -112.6614
7.172189 97.530 -112.9353
7.224161 97.580 -113.2239
7.276511 97.631 -113.5293
7.329239 97.684 -113.8533
7.382350 97.736 -114.1962
7.435845 97.789 -114.5579
7.489729 97.841 -114.9374
7.544002 97.893 -115.3334
7.598669 97.944 -115.7446
7.653732 97.993 -116.1701
7.709194 98.040 -116.6091
7.765058 98.086 -117.0605
7.821327 98.128 -117.5226
7.878004 98.169 -117.9930
7.935091 98.207 -118.4685
7.992592 98.243 -118.9462
8.050510 98.275 -119.4237
8.108847 98.306 -119.8992
8.167607 98.333 -120.3712
8.226793 98.359 -120.8380
8.286408 98.382 -121.2975
8.346454 98.404 -121.7476
8.406936 98.424 -122.1861
8.467856 98.442 -122.6119
8.529218 98.460 -123.0244
8.591024 98.477 -123.4236
8.653278 98.494 -123.8097
8.715983 98.511 -124.1829
8.779143 98.528 -124.5433
8.842760 98.546 -124.8918
8.906839 98.565 -125.2291
8.971381 98.585 -125.5569
9.036392 98.606 -125.8772
9.101873 98.629 -126.1920
9.167829 98.653 -126.5033
9.234263 98.678 -126.8125
9.301178 98.705 -127.1211
9.368578 98.732 -127.4307
9.436467 98.761 -127.7430
9.504847 98.790 -128.0594
9.573723 98.820 -128.3810
9.643099 98.849 -128.7081
9.712976 98.877 -129.0409
9.783361 98.903 -129.3790
9.854255 98.928 -129.7223
9.925663 98.949 -130.0701
9.997588 98.966 -130.4218
10.070035 98.981 -130.7761
10.143007 98.992 -131.1316
10.216507 99.001 -131.4868
10.290540 99.007 -131.8402
10.365109 99.010 -132.1909
10.440219 99.011 -132.5378
10.515873 99.011 -132.8796
10.592076 99.009 -133.2157
10.668830 99.007 -133.5452
10.746141 99.004 -133.8679
10.824012 99.001 -134.1841
10.902447 98.997 -134.4941
10.981451 98.994 -134.7986
11.061027 98.991 -135.0981
11.141180 98.988 -135.3939
11.221913 98.985 -135.6871
11.303232 98.983 -135.9789
11.385140 98.982 -136.2707
11.467641 98.980 -136.5635
11.550741 98.979 -136.8581
11.634442 98.979 -137.1554
11.718750 98.978 -137.4560
11.803669 98.978 -137.7602
11.889203 98.977 -138.0680
11.975357 98.977 -138.3790
12.062136 98.975 -138.6927
12.149543 98.974 -139.0085
12.237583 98.971 -139.3258
12.326262 98.968 -139.6436
12.415583 98.964 -139.9609
12.505552 98.960 -140.2770
12.596172 98.954 -140.5914
12.687449 98.948 -140.9037
12.779387 98.941 -141.2136
12.871992 98.934 -141.5211
12.965268 98.927 -141.8265
13.059220 98.920 -142.1304
13.153852 98.913 -142.4335
13.249170 98.906 -142.7365
13.345179 98.900 -143.0402
13.441884 98.894 -143.3453
13.539289 98.888 -143.6527
13.637401 98.882 -143.9628
13.736223 98.877 -144.2758
13.835761 98.871 -144.5917
13.936021 98.865 -144.9103
14.037007 98.858 -145.2311
14.138725 98.850 -145.5533
14.241180 98.842 -145.8762
14.344377 98.833 -146.1985
14.448323 98.823 -146.5197
14.553021 98.813 -146.8388
14.658478 98.802 -147.1552
14.764700 98.792 -147.4686
14.871691 98.781 -147.7790
14.979457 98.771 -148.0866
15.088005 98.762 -148.3920
15.197339 98.753 -148.6960
15.307465 98.745 -148.9996
15.418389 98.737 -149.3038
15.530117 98.731 -149.6096
15.642655 98.724 -149.9178
15.756008 98.718 -150.2291
15.870182 98.712 -150.5438
15.985184 98.706 -150.8619
16.101019 98.700 -151.1830
16.217694 98.694 -151.5063
16.335214 98.687 -151.8311
16.453586 98.680 -152.1562
16.572815 98.673 -152.4805
16.692909 98.665 -152.8030
16.813872 98.658 -153.1229
16.935713 98.651 -153.4393
17.058436 98.643 -153.7521
17.182048 98.637 -154.0610
17.306556 98.630 -154.3663
17.431967 98.624 -154.6683
17.558286 98.618 -154.9675
17.685521 98.613 -155.2646
17.813677 98.608 -155.5598
17.942762 98.603 -155.8536
18.072783 98.598 -156.1463
18.203746 98.593 -156.4378
18.335658 98.588 -156.7280
18.468526 98.583 -157.0168
18.602356 98.578 -157.3038
18.737156 98.573 -157.5888
18.872934 98.568 -157.8717
19.009695 98.563 -158.1525
19.147447 98.558 -158.4312
19.286197 98.553 -158.7081
19.425953 98.549 -158.9833
19.566721 98.544 -159.2573
19.708510 98.539 -159.5302
19.851326 98.533 -159.8019
19.995177 98.527 -160.0727
20.140070 98.521 -160.3422
20.286013 98.514 -160.6104
20.433014 98.507 -160.8768
20.581080 98.500 -161.1414
20.730219 98.492 -161.4042
20.880439 98.484 -161.6652
21.031747 98.476 -161.9248
21.184152 98.468 -162.1836
21.337661 98.460 -162.4421
21.492282 98.452 -162.7010
21.648024 98.444 -162.9609
21.804895 98.436 -163.2219
21.962902 98.428 -163.4839
22.122054 98.420 -163.7470
22.282360 98.411 -164.0105
22.443827 98.402 -164.2739
22.606464 98.392 -164.5367
22.770280 98.383 -164.7989
22.935283 98.373 -165.0603
23.101481 98.363 -165.3215
23.268884 98.354 -165.5831
23.437500 98.344 -165.8459
23.607338 98.335 -166.1107
23.778406 98.326 -166.3778
23.950714 98.316 -166.6473
24.124271 98.306 -166.9186
24.299086 98.295 -167.1906
24.475167 98.284 -167.4616
24.652524 98.273 -167.7302
24.831166 98.261 -167.9950
25.011103 98.249 -168.2554
25.192344 98.239 -168.5114
25.374898 98.228 -168.7642
25.558775 98.219 -169.0156
25.743984 98.211 -169.2683
25.930536 98.204 -169.5248
26.118439 98.198 -169.7873
26.307704 98.191 -170.0567
26.498341 98.184 -170.3328
26.690359 98.175 -170.6135
26.883768 98.165 -170.8955
27.078579 98.152 -171.1743
27.274801 98.138 -171.4448
27.472446 98.122 -171.7028
27.671522 98.105 -171.9446
27.872042 98.088 -172.1689
28.074014 98.072 -172.3766
28.277450 98.058 -172.5709
28.482360 98.045 -172.7571
28.688755 98.035 -172.9414
28.896645 98.027 -173.1305
29.106042 98.021 -173.3297
29.316957 98.015 -173.5424
29.529400 98.010 -173.7695
29.743382 98.002 -174.0094
29.958915 97.994 -174.2584
30.176009 97.983 -174.5114
30.394677 97.970 -174.7633
30.614929 97.955 -175.0103
30.836778 97.939 -175.2499
31.060234 97.923 -175.4819
31.285309 97.908 -175.7076
31.512015 97.892 -175.9297
31.740364 97.877 -176.1508
31.970368 97.863 -176.3730
32.202039 97.849 -176.5973
32.435388 97.834 -176.8236
32.670428 97.820 -177.0508
32.907171 97.805 -177.2780
33.145630 97.790 -177.5040
33.385817 97.776 -177.7290
33.627745 97.762 -177.9534
33.871425 97.749 -178.1783
34.116871 97.736 -178.4045
34.364096 97.723 -178.6324
34.613113 97.710 -178.8620
34.863934 97.697 -179.0924
35.116572 97.684 -179.3225
35.371041 97.670 -179.5514
35.627354 97.656 -179.7784
35.885525 97.643 179.9967
36.145566 97.629 179.7744
36.407492 97.614 179.5547
36.671316 97.600 179.3384
36.937051 97.585 179.1259
37.204712 97.570 178.9181
37.474313 97.555 178.7151
37.745867 97.541 178.5165
38.019389 97.527 178.3209
38.294893 97.513 178.1265
38.572394 97.500 177.9312
38.851905 97.488 177.7332
39.133442 97.475 177.5312
39.417019 97.462 177.3257
39.702651 97.449 177.1174
39.990353 97.435 176.9080
40.280140 97.420 176.6994
40.572026 97.405 176.4929
40.866028 97.390 176.2888
41.162160 97.374 176.0866
41.460438 97.359 175.8849
41.760877 97.344 175.6820
42.063494 97.330 175.4769
42.368303 97.315 175.2690
42.675322 97.299 175.0591
42.984565 97.283 174.8479
43.296048 97.267 174.6364
43.609789 97.250 174.4253
43.925804 97.233 174.2145
44.244108 97.216 174.0037
44.564719 97.198 173.7926
44.887654 97.180 173.5813
45.212928 97.162 173.3704
45.540560 97.142 173.1611
45.870565 97.123 172.9547
46.202962 97.103 172.7521
46.537768 97.082 172.5543
46.875000 97.062 172.3616
47.214676 97.042 172.1733
47.556813 97.022 171.9886
47.901429 97.003 171.8057
48.248542 96.985 171.6227
48.598171 96.968 171.4381
48.950334 96.950 171.2513
49.305048 96.933 171.0628
49.662333 96.915 170.8735
50.022206 96.897 170.6842
50.384688 96.878 170.4952
50.749796 96.860 170.3063
51.117550 96.841 170.1166
51.487969 96.821 169.9268
51.861072 96.801 169.7382
52.236879 96.780 169.5539
52.615409 96.758 169.3766
52.996681 96.736 169.2080
53.380717 96.715 169.0473
53.767536 96.694 168.8918
54.157158 96.675 168.7379
54.549603 96.657 168.5822
54.944892 96.639 168.4229
55.343045 96.622 168.2596
55.744084 96.604 168.0928
56.148028 96.587 167.9234
56.554900 96.570 167.7516
56.964720 96.552 167.5778
57.377510 96.534 167.4019
57.793291 96.516 167.2239
58.212085 96.497 167.0441
58.633914 96.478 166.8631
59.058799 96.458 166.6816
59.486764 96.437 166.5001
59.917829 96.415 166.3197
60.352019 96.393 166.1412
60.789354 96.370 165.9655
61.229859 96.346 165.7931
61.673556 96.322 165.6241
62.120468 96.297 165.4584
62.570618 96.272 165.2958
63.024031 96.248 165.1361
63.480729 96.223 164.9794
63.940736 96.199 164.8248
64.404077 96.175 164.6713
64.870776 96.152 164.5169
65.340856 96.129 164.3610
65.814343 96.105 164.2042
66.291261 96.081 164.0482
66.771635 96.056 163.8951
67.255489 96.031 163.7463
67.742850 96.006 163.6019
68.233743 95.980 163.4617
68.728193 95.954 163.3251
69.226226 95.929 163.1919
69.727867 95.903 163.0618
70.233144 95.877 162.9343
70.742083 95.851 162.8088
71.254709 95.825 162.6848
71.771050 95.799 162.5612
72.291132 95.774 162.4364
72.814984 95.749 162.3101
73.342631 95.724 162.1827
73.874102 95.698 162.0558
74.409424 95.672 161.9308
74.948626 95.647 161.8077
75.491734 95.622 161.6859
76.038779 95.597 161.5648
76.589787 95.572 161.4441
77.144788 95.547 161.3243
77.703811 95.522 161.2050
78.266885 95.498 161.0847
78.834039 95.474 160.9615
79.405303 95.450 160.8333
79.980706 95.427 160.6986
80.560280 95.403 160.5567
81.144053 95.379 160.4072
81.732056 95.354 160.2502
82.324320 95.329 160.0865
82.920876 95.302 159.9180
83.521755 95.273 159.7473
