* Measurement data measured by REW V5.31
* Source: EXCL: Microphone (USB Sound Device        ), MICROPHONE (Master Volume), L, volume: 0.390
* Format: 256k Log Swept Sine, 1 sweep at -4.0 dBFS with no timing reference
* Dated: Aug 13, 2024 12:06:21 AM
* REW Settings:
*  C-weighting compensation: Off
*  Target level: 75.0 dB
* Note: SIVGA QUE R
* Measurement: R SIVGA QUE
* Smoothing: 1/12 octave
* Frequency Step: 96 ppo
* Start Frequency: 0.36621094 Hz
*
* Freq(Hz) SPL(dB) Phase(degrees)
0.366211 81.098 169.0357
0.368865 81.094 169.0211
0.371538 81.089 168.9993
0.374230 81.082 168.9720
0.376942 81.074 168.9406
0.379673 81.066 168.9063
0.382424 81.057 168.8696
0.385196 81.048 168.8312
0.387987 81.039 168.7911
0.390798 81.030 168.7495
0.393630 81.020 168.7066
0.396483 81.011 168.6623
0.399356 81.001 168.6166
0.402250 80.992 168.5696
0.405165 80.982 168.5211
0.408101 80.972 168.4713
0.411058 80.963 168.4201
0.414037 80.953 168.3675
0.417037 80.943 168.3134
0.420059 80.933 168.2579
0.423103 80.923 168.2010
0.426169 80.912 168.1426
0.429257 80.902 168.0827
0.432368 80.892 168.0214
0.435501 80.882 167.9585
0.438656 80.871 167.8941
0.441835 80.861 167.8282
0.445037 80.850 167.7607
0.448262 80.839 167.6917
0.451510 80.828 167.6212
0.454782 80.818 167.5490
0.458077 80.807 167.4753
0.461397 80.796 167.4000
0.464740 80.785 167.3230
0.468108 80.773 167.2445
0.471500 80.762 167.1643
0.474917 80.751 167.0825
0.478358 80.740 166.9991
0.481825 80.728 166.9140
0.485316 80.716 166.8272
0.488833 80.705 166.7388
0.492375 80.693 166.6487
0.495943 80.681 166.5569
0.499537 80.669 166.4634
0.503157 80.657 166.3682
0.506803 80.645 166.2713
0.510475 80.633 166.1727
0.514175 80.621 166.0724
0.517900 80.609 165.9704
0.521653 80.596 165.8667
0.525434 80.584 165.7612
0.529241 80.571 165.6541
0.533076 80.558 165.5452
0.536939 80.545 165.4346
0.540830 80.533 165.3222
0.544749 80.520 165.2082
0.548696 80.506 165.0924
0.552673 80.493 164.9749
0.556677 80.480 164.8557
0.560711 80.467 164.7348
0.564774 80.453 164.6122
0.568867 80.440 164.4879
0.572989 80.426 164.3619
0.577141 80.412 164.2342
0.581324 80.398 164.1049
0.585536 80.384 163.9739
0.589779 80.370 163.8413
0.594053 80.356 163.7071
0.598358 80.342 163.5713
0.602694 80.328 163.4339
0.607061 80.313 163.2949
0.611460 80.299 163.1543
0.615891 80.284 163.0123
0.620354 80.269 162.8687
0.624849 80.254 162.7237
0.629377 80.239 162.5772
0.633938 80.224 162.4294
0.638532 80.209 162.2801
0.643159 80.194 162.1295
0.647819 80.178 161.9776
0.652514 80.163 161.8244
0.657242 80.147 161.6700
0.662005 80.131 161.5144
0.666802 80.115 161.3576
0.671634 80.099 161.1998
0.676501 80.083 161.0409
0.681403 80.067 160.8811
0.686341 80.050 160.7203
0.691314 80.034 160.5586
0.696324 80.017 160.3961
0.701370 80.000 160.2328
0.706452 79.983 160.0688
0.711571 79.966 159.9040
0.716728 79.947 159.7383
0.721921 79.928 159.5716
0.727153 79.908 159.4036
0.732422 79.887 159.2338
0.737729 79.864 159.0619
0.743075 79.839 158.8871
0.748460 79.813 158.7090
0.753883 79.786 158.5273
0.759346 79.758 158.3417
0.764849 79.730 158.1520
0.770391 79.701 157.9581
0.775974 79.671 157.7599
0.781597 79.642 157.5574
0.787261 79.612 157.3506
0.792966 79.581 157.1393
0.798712 79.550 156.9235
0.804500 79.519 156.7033
0.810329 79.487 156.4785
0.816201 79.455 156.2493
0.822116 79.422 156.0154
0.828073 79.389 155.7770
0.834074 79.355 155.5340
0.840118 79.321 155.2864
0.846206 79.286 155.0341
0.852338 79.251 154.7772
0.858514 79.215 154.5157
0.864735 79.178 154.2495
0.871001 79.140 153.9786
0.877313 79.102 153.7030
0.883670 79.063 153.4229
0.890074 79.024 153.1380
0.896524 78.983 152.8486
0.903020 78.942 152.5545
0.909564 78.900 152.2558
0.916155 78.857 151.9525
0.922794 78.813 151.6447
0.929481 78.768 151.3323
0.936216 78.722 151.0155
0.943000 78.675 150.6943
0.949834 78.626 150.3688
0.956717 78.577 150.0389
0.963649 78.527 149.7048
0.970632 78.475 149.3665
0.977666 78.422 149.0242
0.984750 78.368 148.6779
0.991886 78.313 148.3277
0.999074 78.256 147.9738
1.006314 78.197 147.6163
1.013606 78.137 147.2552
1.020951 78.076 146.8908
1.028349 78.013 146.5231
1.035801 77.948 146.1524
1.043307 77.882 145.7789
1.050867 77.814 145.4025
1.058482 77.743 145.0236
1.066152 77.671 144.6422
1.073878 77.597 144.2581
1.081660 77.521 143.8714
1.089498 77.443 143.4815
1.097393 77.362 143.0879
1.105345 77.278 142.6895
1.113355 77.192 142.2854
1.121423 77.102 141.8745
1.129549 77.010 141.4559
1.137734 76.915 141.0289
1.145979 76.816 140.5930
1.154283 76.715 140.1475
1.162647 76.611 139.6920
1.171072 76.503 139.2260
1.179558 76.393 138.7490
1.188106 76.280 138.2607
1.196715 76.165 137.7604
1.205387 76.047 137.2476
1.214122 75.926 136.7219
1.222920 75.803 136.1826
1.231782 75.678 135.6293
1.240708 75.550 135.0612
1.249699 75.421 134.4776
1.258754 75.289 133.8780
1.267876 75.156 133.2616
1.277063 75.021 132.6275
1.286318 74.884 131.9751
1.295639 74.746 131.3035
1.305027 74.607 130.6118
1.314484 74.467 129.8989
1.324009 74.326 129.1641
1.333604 74.184 128.4061
1.343268 74.042 127.6239
1.353002 73.900 126.8164
1.362806 73.757 125.9822
1.372681 73.615 125.1202
1.382628 73.473 124.2290
1.392647 73.331 123.3070
1.402739 73.190 122.3526
1.412904 73.050 121.3642
1.423142 72.911 120.3396
1.433455 72.773 119.2765
1.443843 72.635 118.1719
1.454305 72.497 117.0222
1.464844 72.359 115.8228
1.475459 72.218 114.5681
1.486150 72.075 113.2521
1.496920 71.927 111.8683
1.507767 71.775 110.4103
1.518693 71.618 108.8716
1.529698 71.457 107.2458
1.540783 71.292 105.5262
1.551948 71.123 103.7060
1.563194 70.952 101.7784
1.574521 70.778 99.7364
1.585931 70.604 97.5731
1.597423 70.428 95.2817
1.608999 70.253 92.8561
1.620658 70.080 90.2906
1.632402 69.909 87.5809
1.644232 69.741 84.7240
1.656146 69.578 81.7192
1.668147 69.421 78.5681
1.680235 69.270 75.2754
1.692411 69.128 71.8493
1.704675 68.996 68.3016
1.717028 68.874 64.6480
1.729470 68.765 60.9078
1.742003 68.670 57.1033
1.754626 68.590 53.2588
1.767341 68.528 49.4000
1.780147 68.485 45.5519
1.793047 68.463 41.7378
1.806040 68.464 37.9783
1.819128 68.489 34.2896
1.832310 68.540 30.6844
1.845587 68.618 27.1716
1.858961 68.724 23.7587
1.872432 68.858 20.4524
1.886001 69.019 17.2587
1.899667 69.207 14.1832
1.913433 69.418 11.2298
1.927299 69.652 8.4012
1.941265 69.908 5.6982
1.955332 70.181 3.1203
1.969501 70.472 0.6654
1.983773 70.777 -1.6695
1.998148 71.093 -3.8884
2.012627 71.420 -5.9960
2.027212 71.753 -7.9971
2.041902 72.091 -9.8971
2.056698 72.431 -11.7013
2.071602 72.770 -13.4151
2.086614 73.106 -15.0440
2.101734 73.436 -16.5931
2.116964 73.757 -18.0679
2.132304 74.069 -19.4737
2.147756 74.367 -20.8161
2.163320 74.652 -22.1008
2.178996 74.924 -23.3344
2.194786 75.182 -24.5234
2.210690 75.428 -25.6747
2.226710 75.665 -26.7944
2.242845 75.894 -27.8869
2.259098 76.116 -28.9555
2.275468 76.333 -30.0018
2.291957 76.544 -31.0266
2.308566 76.751 -32.0301
2.325295 76.954 -33.0124
2.342145 77.153 -33.9729
2.359117 77.348 -34.9114
2.376212 77.539 -35.8275
2.393431 77.727 -36.7207
2.410775 77.911 -37.5906
2.428244 78.092 -38.4370
2.445840 78.269 -39.2594
2.463564 78.444 -40.0579
2.481416 78.615 -40.8325
2.499397 78.784 -41.5837
2.517509 78.950 -42.3124
2.535752 79.112 -43.0204
2.554127 79.271 -43.7101
2.572635 79.427 -44.3847
2.591277 79.578 -45.0475
2.610055 79.725 -45.7014
2.628968 79.867 -46.3481
2.648019 80.005 -46.9885
2.667208 80.137 -47.6226
2.686535 80.266 -48.2498
2.706003 80.390 -48.8693
2.725612 80.511 -49.4799
2.745363 80.628 -50.0803
2.765257 80.742 -50.6691
2.785295 80.852 -51.2451
2.805478 80.961 -51.8068
2.825808 81.067 -52.3530
2.846285 81.171 -52.8827
2.866910 81.273 -53.3950
2.887685 81.374 -53.8898
2.908611 81.473 -54.3676
2.929688 81.570 -54.8296
2.950917 81.665 -55.2776
2.972301 81.757 -55.7136
2.993839 81.847 -56.1391
3.015534 81.933 -56.5551
3.037386 82.017 -56.9619
3.059396 82.097 -57.3593
3.081565 82.175 -57.7467
3.103896 82.251 -58.1235
3.126388 82.325 -58.4885
3.149043 82.397 -58.8408
3.171862 82.468 -59.1791
3.194847 82.538 -59.5024
3.217998 82.607 -59.8095
3.241317 82.676 -60.0996
3.264805 82.744 -60.3718
3.288463 82.812 -60.6258
3.312293 82.879 -60.8619
3.336295 82.945 -61.0805
3.360471 83.010 -61.2824
3.384822 83.074 -61.4685
3.409350 83.136 -61.6397
3.434056 83.198 -61.7968
3.458940 83.259 -61.9408
3.484005 83.319 -62.0723
3.509252 83.380 -62.1922
3.534681 83.440 -62.3011
3.560295 83.501 -62.3994
3.586094 83.564 -62.4875
3.612081 83.627 -62.5654
3.638255 83.691 -62.6327
3.664620 83.757 -62.6890
3.691175 83.824 -62.7335
3.717923 83.892 -62.7661
3.744864 83.961 -62.7869
3.772001 84.032 -62.7970
3.799335 84.103 -62.7979
3.826866 84.175 -62.7916
3.854597 84.248 -62.7801
3.882529 84.322 -62.7657
3.910664 84.398 -62.7505
3.939002 84.475 -62.7362
3.967546 84.554 -62.7244
3.996296 84.634 -62.7157
4.025255 84.716 -62.7101
4.054423 84.800 -62.7072
4.083804 84.886 -62.7062
4.113396 84.973 -62.7071
4.143204 85.062 -62.7104
4.173227 85.153 -62.7171
4.203468 85.245 -62.7288
4.233928 85.337 -62.7475
4.264609 85.431 -62.7749
4.295512 85.525 -62.8129
4.326639 85.619 -62.8631
4.357992 85.714 -62.9264
4.389572 85.809 -63.0033
4.421380 85.905 -63.0938
4.453419 86.000 -63.1974
4.485691 86.097 -63.3133
4.518196 86.193 -63.4410
4.550936 86.289 -63.5801
4.583914 86.385 -63.7305
4.617131 86.481 -63.8918
4.650589 86.576 -64.0644
4.684289 86.669 -64.2482
4.718233 86.762 -64.4435
4.752424 86.853 -64.6507
4.786862 86.943 -64.8700
4.821549 87.032 -65.1012
4.856488 87.119 -65.3437
4.891680 87.205 -65.5966
4.927127 87.289 -65.8586
4.962831 87.372 -66.1280
4.998794 87.453 -66.4034
5.035017 87.532 -66.6835
5.071503 87.610 -66.9674
5.108253 87.686 -67.2547
5.145270 87.759 -67.5454
5.182555 87.831 -67.8396
5.220110 87.901 -68.1373
5.257937 87.968 -68.4378
5.296038 88.034 -68.7400
5.334415 88.099 -69.0423
5.373071 88.162 -69.3431
5.412006 88.223 -69.6410
5.451224 88.283 -69.9347
5.490725 88.342 -70.2236
5.530514 88.399 -70.5076
5.570590 88.455 -70.7868
5.610957 88.510 -71.0613
5.651616 88.564 -71.3310
5.692570 88.617 -71.5957
5.733821 88.669 -71.8548
5.775370 88.721 -72.1079
5.817221 88.773 -72.3543
5.859375 88.825 -72.5938
5.901834 88.878 -72.8261
5.944602 88.930 -73.0516
5.987679 88.982 -73.2710
6.031068 89.035 -73.4851
6.074771 89.089 -73.6952
6.118792 89.143 -73.9020
6.163131 89.198 -74.1066
6.207792 89.254 -74.3094
6.252776 89.312 -74.5108
6.298086 89.370 -74.7112
6.343725 89.430 -74.9112
6.389694 89.491 -75.1119
6.435996 89.553 -75.3147
6.482634 89.616 -75.5211
6.529610 89.680 -75.7325
6.576926 89.745 -75.9499
6.624585 89.811 -76.1739
6.672590 89.879 -76.4048
6.720942 89.947 -76.6428
6.769645 90.016 -76.8883
6.818700 90.085 -77.1419
6.868111 90.155 -77.4041
6.917881 90.224 -77.6755
6.968010 90.294 -77.9565
7.018504 90.364 -78.2470
7.069362 90.434 -78.5467
7.120590 90.504 -78.8551
7.172189 90.573 -79.1714
7.224161 90.641 -79.4949
7.276511 90.709 -79.8248
7.329239 90.777 -80.1608
7.382350 90.843 -80.5025
7.435845 90.909 -80.8491
7.489729 90.973 -81.1997
7.544002 91.037 -81.5532
7.598669 91.100 -81.9082
7.653732 91.163 -82.2636
7.709194 91.224 -82.6186
7.765058 91.285 -82.9727
7.821327 91.345 -83.3253
7.878004 91.404 -83.6759
7.935091 91.463 -84.0237
7.992592 91.522 -84.3680
8.050510 91.581 -84.7082
8.108847 91.639 -85.0440
8.167607 91.698 -85.3753
8.226793 91.757 -85.7025
8.286408 91.816 -86.0257
8.346454 91.876 -86.3452
8.406936 91.936 -86.6614
8.467856 91.997 -86.9744
8.529218 92.059 -87.2849
8.591024 92.122 -87.5932
8.653278 92.185 -87.9004
8.715983 92.249 -88.2072
8.779143 92.314 -88.5144
8.842760 92.380 -88.8225
8.906839 92.446 -89.1320
8.971381 92.514 -89.4433
9.036392 92.581 -89.7570
9.101873 92.649 -90.0733
9.167829 92.718 -90.3928
9.234263 92.786 -90.7155
9.301178 92.855 -91.0413
9.368578 92.923 -91.3699
9.436467 92.991 -91.7011
9.504847 93.059 -92.0343
9.573723 93.127 -92.3694
9.643099 93.193 -92.7058
9.712976 93.258 -93.0428
9.783361 93.320 -93.3797
9.854255 93.381 -93.7158
9.925663 93.438 -94.0504
9.997588 93.493 -94.3831
10.070035 93.545 -94.7133
10.143007 93.595 -95.0406
10.216507 93.643 -95.3645
10.290540 93.689 -95.6847
10.365109 93.734 -96.0011
10.440219 93.778 -96.3137
10.515873 93.821 -96.6228
10.592076 93.863 -96.9284
10.668830 93.906 -97.2308
10.746141 93.948 -97.5305
10.824012 93.990 -97.8278
10.902447 94.033 -98.1233
10.981451 94.075 -98.4174
11.061027 94.118 -98.7108
11.141180 94.160 -99.0036
11.221913 94.202 -99.2964
11.303232 94.244 -99.5895
11.385140 94.286 -99.8829
11.467641 94.327 -100.1770
11.550741 94.368 -100.4717
11.634442 94.409 -100.7669
11.718750 94.450 -101.0623
11.803669 94.490 -101.3580
11.889203 94.531 -101.6535
11.975357 94.571 -101.9487
12.062136 94.610 -102.2432
12.149543 94.650 -102.5367
12.237583 94.689 -102.8291
12.326262 94.728 -103.1203
12.415583 94.766 -103.4103
12.505552 94.804 -103.6989
12.596172 94.841 -103.9864
12.687449 94.878 -104.2731
12.779387 94.915 -104.5591
12.871992 94.951 -104.8450
12.965268 94.987 -105.1310
13.059220 95.023 -105.4175
13.153852 95.059 -105.7051
13.249170 95.095 -105.9940
13.345179 95.131 -106.2847
13.441884 95.167 -106.5772
13.539289 95.202 -106.8718
13.637401 95.238 -107.1686
13.736223 95.273 -107.4675
13.835761 95.308 -107.7686
13.936021 95.342 -108.0716
14.037007 95.376 -108.3765
14.138725 95.409 -108.6830
14.241180 95.442 -108.9911
14.344377 95.474 -109.3005
14.448323 95.506 -109.6113
14.553021 95.537 -109.9233
14.658478 95.568 -110.2367
14.764700 95.599 -110.5517
14.871691 95.630 -110.8682
14.979457 95.661 -111.1866
15.088005 95.691 -111.5070
15.197339 95.722 -111.8297
15.307465 95.753 -112.1547
15.418389 95.783 -112.4822
15.530117 95.814 -112.8123
15.642655 95.844 -113.1448
15.756008 95.874 -113.4796
15.870182 95.903 -113.8164
15.985184 95.933 -114.1552
16.101019 95.962 -114.4954
16.217694 95.991 -114.8368
16.335214 96.019 -115.1791
16.453586 96.048 -115.5220
16.572815 96.077 -115.8654
16.692909 96.106 -116.2091
16.813872 96.135 -116.5530
16.935713 96.164 -116.8972
17.058436 96.194 -117.2416
17.182048 96.224 -117.5863
17.306556 96.255 -117.9314
17.431967 96.285 -118.2769
17.558286 96.316 -118.6227
17.685521 96.346 -118.9688
17.813677 96.377 -119.3150
17.942762 96.407 -119.6610
18.072783 96.437 -120.0067
18.203746 96.467 -120.3517
18.335658 96.496 -120.6958
18.468526 96.526 -121.0387
18.602356 96.555 -121.3802
18.737156 96.585 -121.7203
18.872934 96.614 -122.0587
19.009695 96.644 -122.3957
19.147447 96.674 -122.7312
19.286197 96.703 -123.0654
19.425953 96.733 -123.3982
19.566721 96.762 -123.7300
19.708510 96.791 -124.0606
19.851326 96.819 -124.3901
19.995177 96.847 -124.7185
20.140070 96.875 -125.0457
20.286013 96.902 -125.3716
20.433014 96.929 -125.6962
20.581080 96.955 -126.0194
20.730219 96.981 -126.3413
20.880439 97.006 -126.6621
21.031747 97.031 -126.9819
21.184152 97.056 -127.3009
21.337661 97.080 -127.6196
21.492282 97.105 -127.9381
21.648024 97.129 -128.2567
21.804895 97.152 -128.5759
21.962902 97.176 -128.8956
22.122054 97.198 -129.2162
22.282360 97.221 -129.5376
22.443827 97.242 -129.8600
22.606464 97.263 -130.1833
22.770280 97.284 -130.5076
22.935283 97.304 -130.8328
23.101481 97.323 -131.1589
23.268884 97.342 -131.4860
23.437500 97.360 -131.8140
23.607338 97.378 -132.1429
23.778406 97.395 -132.4729
23.950714 97.412 -132.8038
24.124271 97.428 -133.1357
24.299086 97.444 -133.4686
24.475167 97.459 -133.8025
24.652524 97.475 -134.1375
24.831166 97.490 -134.4734
25.011103 97.504 -134.8104
25.192344 97.519 -135.1482
25.374898 97.533 -135.4868
25.558775 97.547 -135.8258
25.743984 97.561 -136.1650
25.930536 97.575 -136.5041
26.118439 97.588 -136.8426
26.307704 97.602 -137.1801
26.498341 97.615 -137.5165
26.690359 97.628 -137.8515
26.883768 97.641 -138.1850
27.078579 97.654 -138.5172
27.274801 97.666 -138.8480
27.472446 97.679 -139.1776
27.671522 97.691 -139.5063
27.872042 97.704 -139.8339
28.074014 97.716 -140.1606
28.277450 97.727 -140.4861
28.482360 97.738 -140.8102
28.688755 97.749 -141.1328
28.896645 97.759 -141.4535
29.106042 97.769 -141.7723
29.316957 97.779 -142.0892
29.529400 97.788 -142.4044
29.743382 97.798 -142.7182
29.958915 97.807 -143.0309
30.176009 97.816 -143.3430
30.394677 97.825 -143.6552
30.614929 97.833 -143.9678
30.836778 97.842 -144.2813
31.060234 97.850 -144.5960
31.285309 97.858 -144.9120
31.512015 97.866 -145.2294
31.740364 97.873 -145.5480
31.970368 97.879 -145.8678
32.202039 97.886 -146.1884
32.435388 97.892 -146.5097
32.670428 97.897 -146.8318
32.907171 97.902 -147.1548
33.145630 97.908 -147.4787
33.385817 97.913 -147.8038
33.627745 97.917 -148.1299
33.871425 97.922 -148.4571
34.116871 97.926 -148.7849
34.364096 97.930 -149.1130
34.613113 97.934 -149.4408
34.863934 97.937 -149.7679
35.116572 97.940 -150.0940
35.371041 97.943 -150.4188
35.627354 97.945 -150.7424
35.885525 97.948 -151.0647
36.145566 97.950 -151.3856
36.407492 97.951 -151.7048
36.671316 97.953 -152.0219
36.937051 97.954 -152.3367
37.204712 97.955 -152.6487
37.474313 97.955 -152.9581
37.745867 97.956 -153.2652
38.019389 97.956 -153.5706
38.294893 97.957 -153.8751
38.572394 97.957 -154.1794
38.851905 97.957 -154.4839
39.133442 97.957 -154.7888
39.417019 97.956 -155.0938
39.702651 97.955 -155.3986
39.990353 97.954 -155.7025
40.280140 97.952 -156.0053
40.572026 97.950 -156.3070
40.866028 97.948 -156.6079
41.162160 97.945 -156.9084
41.460438 97.943 -157.2093
41.760877 97.940 -157.5110
42.063494 97.938 -157.8135
42.368303 97.935 -158.1165
42.675322 97.931 -158.4195
42.984565 97.927 -158.7217
43.296048 97.923 -159.0224
43.609789 97.918 -159.3212
43.925804 97.914 -159.6180
44.244108 97.909 -159.9131
44.564719 97.905 -160.2070
44.887654 97.900 -160.5002
45.212928 97.895 -160.7932
45.540560 97.891 -161.0865
45.870565 97.886 -161.3800
46.202962 97.881 -161.6737
46.537768 97.875 -161.9671
46.875000 97.870 -162.2599
47.214676 97.864 -162.5515
47.556813 97.857 -162.8414
47.901429 97.850 -163.1291
48.248542 97.844 -163.4143
48.598171 97.837 -163.6970
48.950334 97.830 -163.9774
49.305048 97.823 -164.2561
49.662333 97.816 -164.5335
50.022206 97.809 -164.8104
50.384688 97.802 -165.0872
50.749796 97.795 -165.3641
51.117550 97.788 -165.6413
51.487969 97.781 -165.9183
51.861072 97.773 -166.1946
52.236879 97.765 -166.4697
52.615409 97.757 -166.7430
52.996681 97.748 -167.0141
53.380717 97.740 -167.2831
53.767536 97.732 -167.5503
54.157158 97.724 -167.8162
54.549603 97.716 -168.0813
54.944892 97.708 -168.3459
55.343045 97.701 -168.6106
55.744084 97.693 -168.8758
56.148028 97.686 -169.1422
56.554900 97.679 -169.4108
56.964720 97.673 -169.6822
57.377510 97.665 -169.9570
57.793291 97.658 -170.2351
58.212085 97.650 -170.5157
58.633914 97.641 -170.7979
59.058799 97.632 -171.0806
59.486764 97.622 -171.3630
59.917829 97.611 -171.6446
60.352019 97.600 -171.9247
60.789354 97.588 -172.2029
61.229859 97.575 -172.4787
61.673556 97.561 -172.7518
62.120468 97.547 -173.0220
62.570618 97.533 -173.2897
63.024031 97.519 -173.5551
63.480729 97.504 -173.8186
63.940736 97.488 -174.0802
64.404077 97.473 -174.3396
64.870776 97.457 -174.5969
65.340856 97.441 -174.8521
65.814343 97.424 -175.1056
66.291261 97.408 -175.3578
66.771635 97.391 -175.6091
67.255489 97.374 -175.8595
67.742850 97.357 -176.1084
68.233743 97.339 -176.3549
68.728193 97.321 -176.5981
69.226226 97.302 -176.8372
69.727867 97.283 -177.0720
70.233144 97.264 -177.3023
70.742083 97.244 -177.5276
71.254709 97.224 -177.7470
71.771050 97.204 -177.9592
72.291132 97.184 -178.1633
72.814984 97.164 -178.3595
73.342631 97.144 -178.5495
73.874102 97.126 -178.7363
74.409424 97.108 -178.9240
74.948626 97.090 -179.1151
75.491734 97.072 -179.3102
76.038779 97.054 -179.5082
76.589787 97.034 -179.7068
77.144788 97.014 -179.9031
77.703811 96.993 179.9068
78.266885 96.973 179.7255
78.834039 96.953 179.5517
79.405303 96.936 179.3794
79.980706 96.919 179.2021
80.560280 96.904 179.0181
81.144053 96.888 178.8302
81.732056 96.871 178.6432
82.324320 96.855 178.4606
82.920876 96.838 178.2844
83.521755 96.820 178.1166
84.126988 96.804 177.9585
84.736607 96.787 177.8093
85.350643 96.772 177.6666
85.969129 96.758 177.5291
86.592097 96.744 177.3963
87.219579 96.733 177.2668
