* Measurement data measured by REW V5.31
* Source: EXCL: Microphone (USB Sound Device        ), MICROPHONE (Master Volume), L, volume: 0.390
* Format: 256k Log Swept Sine, 1 sweep at -4.0 dBFS with no timing reference
* Dated: Aug 13, 2024 12:04:18 AM
* REW Settings:
*  C-weighting compensation: Off
*  Target level: 75.0 dB
* Note: SIVGA QUE L
* Measurement: L SIVGA QUE
* Smoothing: 1/12 octave
* Frequency Step: 96 ppo
* Start Frequency: 0.36621094 Hz
*
* Freq(Hz) SPL(dB) Phase(degrees)
0.366211 81.096 169.4651
0.368865 81.093 169.4511
0.371538 81.087 169.4301
0.374230 81.080 169.4039
0.376942 81.072 169.3737
0.379673 81.064 169.3407
0.382424 81.055 169.3054
0.385196 81.046 169.2684
0.387987 81.036 169.2299
0.390798 81.027 169.1899
0.393630 81.018 169.1486
0.396483 81.008 169.1060
0.399356 80.999 169.0620
0.402250 80.989 169.0167
0.405165 80.979 168.9701
0.408101 80.969 168.9222
0.411058 80.960 168.8729
0.414037 80.950 168.8223
0.417037 80.940 168.7703
0.420059 80.929 168.7169
0.423103 80.919 168.6621
0.426169 80.909 168.6059
0.429257 80.899 168.5483
0.432368 80.888 168.4892
0.435501 80.878 168.4287
0.438656 80.867 168.3667
0.441835 80.857 168.3033
0.445037 80.846 168.2384
0.448262 80.835 168.1720
0.451510 80.824 168.1041
0.454782 80.814 168.0346
0.458077 80.802 167.9637
0.461397 80.791 167.8912
0.464740 80.780 167.8172
0.468108 80.769 167.7416
0.471500 80.758 167.6644
0.474917 80.746 167.5857
0.478358 80.735 167.5054
0.481825 80.723 167.4235
0.485316 80.712 167.3400
0.488833 80.700 167.2549
0.492375 80.688 167.1681
0.495943 80.676 167.0798
0.499537 80.664 166.9898
0.503157 80.652 166.8982
0.506803 80.640 166.8050
0.510475 80.628 166.7101
0.514175 80.615 166.6136
0.517900 80.603 166.5154
0.521653 80.590 166.4155
0.525434 80.578 166.3141
0.529241 80.565 166.2109
0.533076 80.552 166.1061
0.536939 80.539 165.9997
0.540830 80.526 165.8916
0.544749 80.513 165.7818
0.548696 80.500 165.6704
0.552673 80.487 165.5573
0.556677 80.473 165.4426
0.560711 80.460 165.3262
0.564774 80.446 165.2083
0.568867 80.433 165.0886
0.572989 80.419 164.9674
0.577141 80.405 164.8446
0.581324 80.391 164.7201
0.585536 80.377 164.5941
0.589779 80.363 164.4665
0.594053 80.348 164.3374
0.598358 80.334 164.2067
0.602694 80.320 164.0745
0.607061 80.305 163.9408
0.611460 80.290 163.8056
0.615891 80.275 163.6689
0.620354 80.261 163.5308
0.624849 80.246 163.3913
0.629377 80.230 163.2504
0.633938 80.215 163.1081
0.638532 80.200 162.9645
0.643159 80.184 162.8197
0.647819 80.169 162.6736
0.652514 80.153 162.5262
0.657242 80.137 162.3777
0.662005 80.122 162.2281
0.666802 80.105 162.0773
0.671634 80.089 161.9256
0.676501 80.073 161.7728
0.681403 80.057 161.6191
0.686341 80.040 161.4645
0.691314 80.024 161.3091
0.696324 80.007 161.1529
0.701370 79.990 160.9959
0.706452 79.972 160.8383
0.711571 79.955 160.6799
0.716728 79.936 160.5207
0.721921 79.917 160.3605
0.727153 79.897 160.1991
0.732422 79.875 160.0360
0.737729 79.852 159.8707
0.743075 79.827 159.7028
0.748460 79.800 159.5317
0.753883 79.773 159.3570
0.759346 79.745 159.1786
0.764849 79.716 158.9963
0.770391 79.687 158.8099
0.775974 79.658 158.6194
0.781597 79.628 158.4247
0.787261 79.598 158.2258
0.792966 79.567 158.0226
0.798712 79.536 157.8151
0.804500 79.504 157.6033
0.810329 79.472 157.3872
0.816201 79.440 157.1666
0.822116 79.407 156.9417
0.828073 79.374 156.7123
0.834074 79.340 156.4785
0.840118 79.305 156.2403
0.846206 79.270 155.9975
0.852338 79.234 155.7503
0.858514 79.198 155.4987
0.864735 79.161 155.2425
0.871001 79.123 154.9818
0.877313 79.085 154.7166
0.883670 79.046 154.4470
0.890074 79.006 154.1728
0.896524 78.965 153.8942
0.903020 78.923 153.6111
0.909564 78.881 153.3236
0.916155 78.837 153.0317
0.922794 78.793 152.7354
0.929481 78.747 152.4348
0.936216 78.701 152.1299
0.943000 78.653 151.8207
0.949834 78.605 151.5073
0.956717 78.555 151.1898
0.963649 78.503 150.8682
0.970632 78.451 150.5427
0.977666 78.397 150.2132
0.984750 78.342 149.8799
0.991886 78.286 149.5429
0.999074 78.228 149.2023
1.006314 78.168 148.8582
1.013606 78.107 148.5107
1.020951 78.044 148.1601
1.028349 77.980 147.8064
1.035801 77.914 147.4498
1.043307 77.846 147.0904
1.050867 77.776 146.7285
1.058482 77.704 146.3641
1.066152 77.630 145.9974
1.073878 77.553 145.6282
1.081660 77.475 145.2565
1.089498 77.394 144.8819
1.097393 77.311 144.5036
1.105345 77.224 144.1208
1.113355 77.135 143.7325
1.121423 77.043 143.3377
1.129549 76.947 142.9355
1.137734 76.849 142.5252
1.145979 76.747 142.1062
1.154283 76.642 141.6779
1.162647 76.534 141.2399
1.171072 76.422 140.7918
1.179558 76.308 140.3331
1.188106 76.191 139.8633
1.196715 76.071 139.3819
1.205387 75.949 138.8884
1.214122 75.823 138.3824
1.222920 75.695 137.8631
1.231782 75.565 137.3301
1.240708 75.433 136.7827
1.249699 75.298 136.2204
1.258754 75.161 135.6422
1.267876 75.022 135.0476
1.277063 74.882 134.4358
1.286318 74.740 133.8060
1.295639 74.596 133.1572
1.305027 74.451 132.4887
1.314484 74.305 131.7993
1.324009 74.158 131.0882
1.333604 74.011 130.3541
1.343268 73.862 129.5960
1.353002 73.714 128.8126
1.362806 73.565 128.0027
1.372681 73.416 127.1648
1.382628 73.268 126.2974
1.392647 73.120 125.3990
1.402739 72.973 124.4678
1.412904 72.826 123.5019
1.423142 72.681 122.4991
1.433455 72.536 121.4566
1.443843 72.392 120.3714
1.454305 72.248 119.2394
1.464844 72.103 118.0556
1.475459 71.955 116.8141
1.486150 71.805 115.5081
1.496920 71.649 114.1306
1.507767 71.489 112.6743
1.518693 71.324 111.1318
1.529698 71.154 109.4956
1.540783 70.979 107.7577
1.551948 70.801 105.9099
1.563194 70.619 103.9436
1.574521 70.435 101.8501
1.585931 70.249 99.6203
1.597423 70.063 97.2453
1.608999 69.878 94.7164
1.620658 69.693 92.0258
1.632402 69.512 89.1666
1.644232 69.334 86.1341
1.656146 69.160 82.9258
1.668147 68.993 79.5427
1.680235 68.834 75.9897
1.692411 68.683 72.2767
1.704675 68.542 68.4188
1.717028 68.413 64.4364
1.729470 68.298 60.3553
1.742003 68.198 56.2053
1.754626 68.115 52.0191
1.767341 68.050 47.8306
1.780147 68.006 43.6727
1.793047 67.985 39.5751
1.806040 67.989 35.5633
1.819128 68.019 31.6569
1.832310 68.078 27.8700
1.845587 68.166 24.2118
1.858961 68.285 20.6889
1.872432 68.434 17.3059
1.886001 68.612 14.0666
1.899667 68.819 10.9733
1.913433 69.052 8.0266
1.927299 69.309 5.2255
1.941265 69.590 2.5673
1.955332 69.890 0.0481
1.969501 70.208 -2.3372
1.983773 70.541 -4.5943
1.998148 70.887 -6.7298
2.012627 71.243 -8.7500
2.027212 71.606 -10.6619
2.041902 71.974 -12.4720
2.056698 72.343 -14.1868
2.071602 72.710 -15.8126
2.086614 73.074 -17.3555
2.101734 73.430 -18.8213
2.116964 73.777 -20.2157
2.132304 74.112 -21.5444
2.147756 74.432 -22.8129
2.163320 74.737 -24.0272
2.178996 75.027 -25.1935
2.194786 75.301 -26.3182
2.210690 75.562 -27.4079
2.226710 75.811 -28.4682
2.242845 76.051 -29.5035
2.259098 76.283 -30.5166
2.275468 76.508 -31.5091
2.291957 76.727 -32.4817
2.308566 76.940 -33.4347
2.325295 77.148 -34.3680
2.342145 77.351 -35.2812
2.359117 77.550 -36.1740
2.376212 77.744 -37.0461
2.393431 77.934 -37.8971
2.410775 78.120 -38.7266
2.428244 78.302 -39.5344
2.445840 78.481 -40.3203
2.463564 78.657 -41.0841
2.481416 78.831 -41.8260
2.499397 79.001 -42.5465
2.517509 79.169 -43.2465
2.535752 79.334 -43.9277
2.554127 79.497 -44.5924
2.572635 79.655 -45.2436
2.591277 79.810 -45.8844
2.610055 79.961 -46.5175
2.628968 80.106 -47.1446
2.648019 80.248 -47.7663
2.667208 80.384 -48.3826
2.686535 80.516 -48.9930
2.706003 80.644 -49.5965
2.725612 80.768 -50.1921
2.745363 80.889 -50.7786
2.765257 81.006 -51.3545
2.785295 81.120 -51.9188
2.805478 81.232 -52.4699
2.825808 81.341 -53.0069
2.846285 81.449 -53.5287
2.866910 81.555 -54.0346
2.887685 81.659 -54.5245
2.908611 81.762 -54.9989
2.929688 81.863 -55.4591
2.950917 81.961 -55.9067
2.972301 82.057 -56.3437
2.993839 82.150 -56.7716
3.015534 82.241 -57.1913
3.037386 82.328 -57.6030
3.059396 82.412 -58.0065
3.081565 82.494 -58.4012
3.103896 82.574 -58.7865
3.126388 82.652 -59.1612
3.149043 82.728 -59.5245
3.171862 82.802 -59.8751
3.194847 82.876 -60.2120
3.217998 82.949 -60.5342
3.241317 83.021 -60.8407
3.264805 83.093 -61.1310
3.288463 83.164 -61.4047
3.312293 83.234 -61.6622
3.336295 83.303 -61.9040
3.360471 83.371 -62.1309
3.384822 83.438 -62.3437
3.409350 83.503 -62.5433
3.434056 83.567 -62.7304
3.458940 83.631 -62.9058
3.484005 83.694 -63.0702
3.509252 83.757 -63.2241
3.534681 83.820 -63.3680
3.560295 83.883 -63.5023
3.586094 83.947 -63.6271
3.612081 84.012 -63.7425
3.638255 84.077 -63.8481
3.664620 84.144 -63.9434
3.691175 84.212 -64.0278
3.717923 84.281 -64.1012
3.744864 84.350 -64.1638
3.772001 84.420 -64.2165
3.799335 84.491 -64.2608
3.826866 84.562 -64.2983
3.854597 84.635 -64.3309
3.882529 84.708 -64.3606
3.910664 84.783 -64.3892
3.939002 84.858 -64.4184
3.967546 84.935 -64.4494
3.996296 85.014 -64.4827
4.025255 85.094 -64.5183
4.054423 85.176 -64.5558
4.083804 85.259 -64.5946
4.113396 85.343 -64.6345
4.143204 85.429 -64.6760
4.173227 85.517 -64.7202
4.203468 85.605 -64.7687
4.233928 85.695 -64.8231
4.264609 85.785 -64.8853
4.295512 85.875 -64.9570
4.326639 85.966 -65.0397
4.357992 86.058 -65.1342
4.389572 86.149 -65.2411
4.421380 86.241 -65.3603
4.453419 86.333 -65.4913
4.485691 86.426 -65.6335
4.518196 86.519 -65.7866
4.550936 86.612 -65.9501
4.583914 86.705 -66.1240
4.617131 86.797 -66.3084
4.650589 86.889 -66.5033
4.684289 86.980 -66.7091
4.718233 87.070 -66.9262
4.752424 87.159 -67.1547
4.786862 87.246 -67.3949
4.821549 87.332 -67.6468
4.856488 87.417 -67.9098
4.891680 87.501 -68.1829
4.927127 87.584 -68.4650
4.962831 87.665 -68.7548
4.998794 87.745 -69.0508
5.035017 87.823 -69.3520
5.071503 87.899 -69.6577
5.108253 87.974 -69.9674
5.145270 88.047 -70.2813
5.182555 88.118 -70.5995
5.220110 88.187 -70.9219
5.257937 88.254 -71.2479
5.296038 88.320 -71.5763
5.334415 88.384 -71.9057
5.373071 88.446 -72.2345
5.412006 88.507 -72.5614
5.451224 88.567 -72.8853
5.490725 88.626 -73.2056
5.530514 88.683 -73.5221
5.570590 88.739 -73.8349
5.610957 88.794 -74.1443
5.651616 88.847 -74.4499
5.692570 88.900 -74.7514
5.733821 88.952 -75.0483
5.775370 89.004 -75.3399
5.817221 89.055 -75.6256
5.859375 89.107 -75.9049
5.901834 89.158 -76.1779
5.944602 89.210 -76.4446
5.987679 89.261 -76.7058
6.031068 89.313 -76.9621
6.074771 89.365 -77.2145
6.118792 89.418 -77.4637
6.163131 89.472 -77.7103
6.207792 89.526 -77.9548
6.252776 89.582 -78.1974
6.298086 89.638 -78.4384
6.343725 89.696 -78.6785
6.389694 89.755 -78.9185
6.435996 89.814 -79.1599
6.482634 89.875 -79.4040
6.529610 89.937 -79.6519
6.576926 90.000 -79.9047
6.624585 90.064 -80.1628
6.672590 90.128 -80.4266
6.720942 90.194 -80.6963
6.769645 90.261 -80.9723
6.818700 90.328 -81.2552
6.868111 90.395 -81.5458
6.917881 90.463 -81.8444
6.968010 90.531 -82.1516
7.018504 90.599 -82.4674
7.069362 90.668 -82.7915
7.120590 90.736 -83.1234
7.172189 90.804 -83.4626
7.224161 90.871 -83.8085
7.276511 90.938 -84.1604
7.329239 91.005 -84.5182
7.382350 91.071 -84.8813
7.435845 91.136 -85.2492
7.489729 91.200 -85.6210
7.544002 91.264 -85.9957
7.598669 91.327 -86.3720
7.653732 91.389 -86.7488
7.709194 91.450 -87.1255
7.765058 91.511 -87.5014
7.821327 91.571 -87.8761
7.878004 91.631 -88.2489
7.935091 91.690 -88.6190
7.992592 91.749 -88.9857
8.050510 91.807 -89.3483
8.108847 91.866 -89.7065
8.167607 91.924 -90.0602
8.226793 91.983 -90.4094
8.286408 92.042 -90.7543
8.346454 92.101 -91.0951
8.406936 92.160 -91.4319
8.467856 92.221 -91.7648
8.529218 92.282 -92.0943
8.591024 92.343 -92.4208
8.653278 92.405 -92.7451
8.715983 92.468 -93.0680
8.779143 92.532 -93.3899
8.842760 92.596 -93.7116
8.906839 92.661 -94.0333
8.971381 92.726 -94.3555
9.036392 92.792 -94.6788
9.101873 92.858 -95.0036
9.167829 92.925 -95.3303
9.234263 92.992 -95.6589
9.301178 93.058 -95.9896
9.368578 93.125 -96.3221
9.436467 93.192 -96.6562
9.504847 93.258 -96.9916
9.573723 93.323 -97.3282
9.643099 93.388 -97.6654
9.712976 93.451 -98.0027
9.783361 93.512 -98.3396
9.854255 93.570 -98.6752
9.925663 93.626 -99.0092
9.997588 93.679 -99.3409
10.070035 93.729 -99.6700
10.143007 93.776 -99.9960
10.216507 93.822 -100.3184
10.290540 93.866 -100.6370
10.365109 93.908 -100.9516
10.440219 93.949 -101.2622
10.515873 93.989 -101.5689
10.592076 94.029 -101.8719
10.668830 94.068 -102.1713
10.746141 94.107 -102.4675
10.824012 94.146 -102.7610
10.902447 94.184 -103.0521
10.981451 94.223 -103.3415
11.061027 94.262 -103.6296
11.141180 94.300 -103.9168
11.221913 94.338 -104.2034
11.303232 94.376 -104.4899
11.385140 94.413 -104.7766
11.467641 94.451 -105.0637
11.550741 94.487 -105.3512
11.634442 94.524 -105.6392
11.718750 94.560 -105.9275
11.803669 94.596 -106.2161
11.889203 94.632 -106.5049
11.975357 94.667 -106.7936
12.062136 94.702 -107.0820
12.149543 94.736 -107.3698
12.237583 94.771 -107.6571
12.326262 94.804 -107.9435
12.415583 94.837 -108.2292
12.505552 94.870 -108.5141
12.596172 94.902 -108.7983
12.687449 94.934 -109.0821
12.779387 94.965 -109.3656
12.871992 94.995 -109.6492
12.965268 95.026 -109.9333
13.059220 95.056 -110.2182
13.153852 95.086 -110.5043
13.249170 95.116 -110.7919
13.345179 95.145 -111.0813
13.441884 95.175 -111.3728
13.539289 95.205 -111.6665
13.637401 95.234 -111.9626
13.736223 95.263 -112.2610
13.835761 95.291 -112.5617
13.936021 95.320 -112.8647
14.037007 95.347 -113.1697
14.138725 95.374 -113.4767
14.241180 95.401 -113.7854
14.344377 95.427 -114.0958
14.448323 95.453 -114.4078
14.553021 95.478 -114.7214
14.658478 95.503 -115.0366
14.764700 95.528 -115.3534
14.871691 95.553 -115.6720
14.979457 95.578 -115.9925
15.088005 95.603 -116.3152
15.197339 95.628 -116.6400
15.307465 95.653 -116.9671
15.418389 95.678 -117.2966
15.530117 95.703 -117.6285
15.642655 95.728 -117.9626
15.756008 95.753 -118.2988
15.870182 95.777 -118.6369
15.985184 95.802 -118.9766
16.101019 95.826 -119.3174
16.217694 95.850 -119.6592
16.335214 95.874 -120.0017
16.453586 95.898 -120.3444
16.572815 95.923 -120.6872
16.692909 95.947 -121.0300
16.813872 95.972 -121.3726
16.935713 95.998 -121.7149
17.058436 96.024 -122.0569
17.182048 96.050 -122.3986
17.306556 96.076 -122.7399
17.431967 96.103 -123.0808
17.558286 96.130 -123.4212
17.685521 96.157 -123.7609
17.813677 96.183 -124.0996
17.942762 96.210 -124.4371
18.072783 96.236 -124.7732
18.203746 96.263 -125.1074
18.335658 96.289 -125.4397
18.468526 96.315 -125.7696
18.602356 96.341 -126.0973
18.737156 96.368 -126.4226
18.872934 96.394 -126.7456
19.009695 96.421 -127.0666
19.147447 96.447 -127.3857
19.286197 96.474 -127.7031
19.425953 96.501 -128.0192
19.566721 96.527 -128.3341
19.708510 96.554 -128.6479
19.851326 96.579 -128.9607
19.995177 96.604 -129.2726
20.140070 96.629 -129.5833
20.286013 96.653 -129.8929
20.433014 96.677 -130.2012
20.581080 96.700 -130.5081
20.730219 96.722 -130.8138
20.880439 96.744 -131.1182
21.031747 96.765 -131.4216
21.184152 96.787 -131.7243
21.337661 96.808 -132.0267
21.492282 96.828 -132.3291
21.648024 96.849 -132.6319
21.804895 96.869 -132.9355
21.962902 96.888 -133.2400
22.122054 96.907 -133.5455
22.282360 96.925 -133.8522
22.443827 96.943 -134.1599
22.606464 96.960 -134.4685
22.770280 96.977 -134.7779
22.935283 96.993 -135.0879
23.101481 97.008 -135.3985
23.268884 97.023 -135.7096
23.437500 97.038 -136.0213
23.607338 97.052 -136.3337
23.778406 97.066 -136.6468
23.950714 97.079 -136.9609
24.124271 97.092 -137.2761
24.299086 97.105 -137.5925
24.475167 97.118 -137.9101
24.652524 97.130 -138.2288
24.831166 97.142 -138.5485
25.011103 97.154 -138.8690
25.192344 97.166 -139.1898
25.374898 97.178 -139.5106
25.558775 97.190 -139.8311
25.743984 97.202 -140.1507
25.930536 97.213 -140.4693
26.118439 97.225 -140.7864
26.307704 97.236 -141.1019
26.498341 97.247 -141.4157
26.690359 97.259 -141.7278
26.883768 97.270 -142.0381
27.078579 97.282 -142.3466
27.274801 97.293 -142.6532
27.472446 97.304 -142.9578
27.671522 97.314 -143.2600
27.872042 97.325 -143.5595
28.074014 97.335 -143.8562
28.277450 97.345 -144.1500
28.482360 97.355 -144.4409
28.688755 97.365 -144.7293
28.896645 97.375 -145.0160
29.106042 97.384 -145.3016
29.316957 97.394 -145.5871
29.529400 97.403 -145.8733
29.743382 97.413 -146.1607
29.958915 97.422 -146.4497
30.176009 97.430 -146.7402
30.394677 97.439 -147.0320
30.614929 97.447 -147.3246
30.836778 97.454 -147.6177
31.060234 97.461 -147.9110
31.285309 97.467 -148.2044
31.512015 97.473 -148.4981
31.740364 97.479 -148.7924
31.970368 97.485 -149.0880
32.202039 97.491 -149.3851
32.435388 97.496 -149.6840
32.670428 97.501 -149.9849
32.907171 97.506 -150.2875
33.145630 97.511 -150.5917
33.385817 97.515 -150.8969
33.627745 97.519 -151.2027
33.871425 97.523 -151.5086
34.116871 97.527 -151.8142
34.364096 97.530 -152.1190
34.613113 97.533 -152.4226
34.863934 97.536 -152.7247
35.116572 97.539 -153.0248
35.371041 97.541 -153.3228
35.627354 97.544 -153.6184
35.885525 97.546 -153.9116
36.145566 97.548 -154.2027
36.407492 97.550 -154.4919
36.671316 97.551 -154.7796
36.937051 97.553 -155.0659
37.204712 97.554 -155.3510
37.474313 97.555 -155.6349
37.745867 97.556 -155.9173
38.019389 97.556 -156.1981
38.294893 97.556 -156.4771
38.572394 97.556 -156.7545
38.851905 97.555 -157.0308
39.133442 97.555 -157.3064
39.417019 97.554 -157.5819
39.702651 97.553 -157.8580
39.990353 97.552 -158.1346
40.280140 97.551 -158.4118
40.572026 97.549 -158.6894
40.866028 97.547 -158.9671
41.162160 97.545 -159.2449
41.460438 97.543 -159.5228
41.760877 97.541 -159.8009
42.063494 97.538 -160.0790
42.368303 97.535 -160.3568
42.675322 97.532 -160.6338
42.984565 97.528 -160.9091
43.296048 97.524 -161.1823
43.609789 97.520 -161.4532
43.925804 97.516 -161.7221
44.244108 97.512 -161.9897
44.564719 97.508 -162.2566
44.887654 97.504 -162.5236
45.212928 97.499 -162.7910
45.540560 97.494 -163.0584
45.870565 97.489 -163.3254
46.202962 97.484 -163.5913
46.537768 97.478 -163.8555
46.875000 97.471 -164.1177
47.214676 97.465 -164.3778
47.556813 97.458 -164.6362
47.901429 97.452 -164.8931
48.248542 97.446 -165.1492
48.598171 97.439 -165.4049
48.950334 97.433 -165.6606
49.305048 97.426 -165.9163
49.662333 97.420 -166.1718
50.022206 97.413 -166.4267
50.384688 97.406 -166.6806
50.749796 97.399 -166.9329
51.117550 97.392 -167.1834
51.487969 97.384 -167.4319
51.861072 97.377 -167.6783
52.236879 97.369 -167.9225
52.615409 97.361 -168.1643
52.996681 97.354 -168.4034
53.380717 97.347 -168.6400
53.767536 97.339 -168.8745
54.157158 97.333 -169.1075
54.549603 97.326 -169.3401
54.944892 97.320 -169.5731
55.343045 97.314 -169.8069
55.744084 97.308 -170.0419
56.148028 97.303 -170.2781
56.554900 97.297 -170.5158
56.964720 97.291 -170.7554
57.377510 97.286 -170.9971
57.793291 97.280 -171.2408
58.212085 97.273 -171.4864
58.633914 97.267 -171.7337
59.058799 97.260 -171.9825
59.486764 97.252 -172.2328
59.917829 97.243 -172.4840
60.352019 97.234 -172.7348
60.789354 97.223 -172.9836
61.229859 97.212 -173.2291
61.673556 97.200 -173.4705
62.120468 97.188 -173.7075
62.570618 97.176 -173.9407
63.024031 97.163 -174.1708
63.480729 97.151 -174.3987
63.940736 97.139 -174.6257
64.404077 97.127 -174.8529
64.870776 97.115 -175.0811
65.340856 97.104 -175.3105
65.814343 97.092 -175.5409
66.291261 97.080 -175.7717
66.771635 97.068 -176.0024
67.255489 97.055 -176.2321
67.742850 97.043 -176.4603
68.233743 97.030 -176.6867
68.728193 97.017 -176.9114
69.226226 97.004 -177.1350
69.727867 96.991 -177.3575
70.233144 96.978 -177.5790
70.742083 96.965 -177.7993
71.254709 96.951 -178.0185
71.771050 96.938 -178.2370
72.291132 96.924 -178.4549
72.814984 96.911 -178.6723
73.342631 96.897 -178.8889
73.874102 96.883 -179.1044
74.409424 96.870 -179.3188
74.948626 96.856 -179.5323
75.491734 96.843 -179.7448
76.038779 96.830 -179.9567
76.589787 96.816 179.8319
77.144788 96.803 179.6207
77.703811 96.791 179.4089
78.266885 96.778 179.1958
78.834039 96.766 178.9801
79.405303 96.754 178.7609
79.980706 96.741 178.5368
80.560280 96.728 178.3068
81.144053 96.715 178.0698
81.732056 96.701 177.8255
82.324320 96.685 177.5745
82.920876 96.668 177.3194
83.521755 96.649 177.0641
84.126988 96.628 176.8130
84.736607 96.605 176.5692
85.350643 96.582 176.3346
85.969129 96.558 176.1097
86.592097 96.533 175.8950
