* Measurement data measured by REW V5.31.3
* Source: EXCL: Microphone (USB Sound Device        ), MICROPHONE (Master Volume), R, volume: 0.390
* Format: 256k Log Swept Sine, 1 sweep at -17.0 dBFS with no timing reference
* Dated: Jul 5, 2025 2:53:00 PM
* REW Settings:
*  C-weighting compensation: Off
*  Target level: 75.0 dB
* Note: SymphoneEars Hexad R
* Measurement: R SymphoneEars Hexad L
* Smoothing: 1/12 octave
* Frequency Step: 96 ppo
* Start Frequency: 0.36621094 Hz
*
* Freq(Hz) SPL(dB) Phase(degrees)
0.366211 89.769 177.5846
0.368865 89.771 177.5755
0.371538 89.774 177.5620
0.374230 89.778 177.5452
0.376942 89.782 177.5261
0.379673 89.787 177.5054
0.382424 89.792 177.4835
0.385196 89.797 177.4608
0.387987 89.802 177.4375
0.390798 89.808 177.4136
0.393630 89.813 177.3892
0.396483 89.818 177.3642
0.399356 89.824 177.3388
0.402250 89.829 177.3128
0.405165 89.835 177.2863
0.408101 89.840 177.2594
0.411058 89.846 177.2318
0.414037 89.851 177.2038
0.417037 89.857 177.1752
0.420059 89.863 177.1461
0.423103 89.869 177.1165
0.426169 89.874 177.0862
0.429257 89.880 177.0555
0.432368 89.886 177.0241
0.435501 89.892 176.9921
0.438656 89.898 176.9595
0.441835 89.904 176.9264
0.445037 89.910 176.8926
0.448262 89.916 176.8582
0.451510 89.922 176.8232
0.454782 89.928 176.7875
0.458077 89.934 176.7512
0.461397 89.941 176.7142
0.464740 89.947 176.6765
0.468108 89.953 176.6382
0.471500 89.960 176.5992
0.474917 89.966 176.5594
0.478358 89.973 176.5190
0.481825 89.979 176.4778
0.485316 89.986 176.4359
0.488833 89.992 176.3932
0.492375 89.999 176.3498
0.495943 90.006 176.3057
0.499537 90.013 176.2607
0.503157 90.019 176.2150
0.506803 90.026 176.1684
0.510475 90.033 176.1211
0.514175 90.040 176.0729
0.517900 90.047 176.0238
0.521653 90.054 175.9740
0.525434 90.061 175.9232
0.529241 90.068 175.8716
0.533076 90.076 175.8191
0.536939 90.083 175.7657
0.540830 90.090 175.7113
0.544749 90.098 175.6561
0.548696 90.105 175.5998
0.552673 90.113 175.5426
0.556677 90.120 175.4845
0.560711 90.128 175.4253
0.564774 90.135 175.3652
0.568867 90.143 175.3040
0.572989 90.151 175.2418
0.577141 90.159 175.1785
0.581324 90.167 175.1142
0.585536 90.175 175.0487
0.589779 90.183 174.9822
0.594053 90.191 174.9145
0.598358 90.199 174.8457
0.602694 90.207 174.7757
0.607061 90.215 174.7046
0.611460 90.223 174.6322
0.615891 90.232 174.5587
0.620354 90.240 174.4838
0.624849 90.249 174.4078
0.629377 90.257 174.3304
0.633938 90.266 174.2518
0.638532 90.274 174.1718
0.643159 90.283 174.0905
0.647819 90.292 174.0078
0.652514 90.301 173.9236
0.657242 90.310 173.8381
0.662005 90.319 173.7512
0.666802 90.328 173.6627
0.671634 90.337 173.5728
0.676501 90.346 173.4813
0.681403 90.355 173.3883
0.686341 90.364 173.2937
0.691314 90.374 173.1975
0.696324 90.383 173.0997
0.701370 90.393 173.0001
0.706452 90.402 172.8989
0.711571 90.412 172.7959
0.716728 90.422 172.6911
0.721921 90.431 172.5844
0.727153 90.441 172.4758
0.732422 90.451 172.3652
0.737729 90.460 172.2526
0.743075 90.470 172.1378
0.748460 90.480 172.0207
0.753883 90.489 171.9015
0.759346 90.499 171.7799
0.764849 90.509 171.6561
0.770391 90.519 171.5299
0.775974 90.529 171.4015
0.781597 90.539 171.2707
0.787261 90.549 171.1376
0.792966 90.559 171.0021
0.798712 90.570 170.8644
0.804500 90.580 170.7243
0.810329 90.590 170.5820
0.816201 90.601 170.4373
0.822116 90.612 170.2903
0.828073 90.622 170.1409
0.834074 90.633 169.9893
0.840118 90.644 169.8354
0.846206 90.655 169.6792
0.852338 90.666 169.5207
0.858514 90.677 169.3600
0.864735 90.688 169.1969
0.871001 90.699 169.0316
0.877313 90.710 168.8640
0.883670 90.721 168.6942
0.890074 90.732 168.5221
0.896524 90.744 168.3477
0.903020 90.755 168.1712
0.909564 90.766 167.9924
0.916155 90.777 167.8114
0.922794 90.789 167.6282
0.929481 90.800 167.4427
0.936216 90.811 167.2551
0.943000 90.823 167.0653
0.949834 90.834 166.8733
0.956717 90.845 166.6792
0.963649 90.857 166.4829
0.970632 90.868 166.2844
0.977666 90.879 166.0838
0.984750 90.890 165.8810
0.991886 90.902 165.6760
0.999074 90.913 165.4690
1.006314 90.924 165.2598
1.013606 90.935 165.0484
1.020951 90.946 164.8350
1.028349 90.956 164.6194
1.035801 90.967 164.4016
1.043307 90.978 164.1817
1.050867 90.988 163.9597
1.058482 90.999 163.7354
1.066152 91.009 163.5089
1.073878 91.019 163.2800
1.081660 91.029 163.0487
1.089498 91.039 162.8146
1.097393 91.049 162.5776
1.105345 91.058 162.3372
1.113355 91.068 162.0932
1.121423 91.077 161.8452
1.129549 91.086 161.5931
1.137734 91.096 161.3367
1.145979 91.105 161.0759
1.154283 91.114 160.8108
1.162647 91.123 160.5414
1.171072 91.131 160.2676
1.179558 91.140 159.9896
1.188106 91.149 159.7074
1.196715 91.157 159.4210
1.205387 91.165 159.1306
1.214122 91.174 158.8361
1.222920 91.182 158.5377
1.231782 91.190 158.2354
1.240708 91.198 157.9293
1.249699 91.205 157.6195
1.258754 91.213 157.3061
1.267876 91.220 156.9891
1.277063 91.228 156.6687
1.286318 91.235 156.3450
1.295639 91.242 156.0181
1.305027 91.249 155.6880
1.314484 91.255 155.3549
1.324009 91.262 155.0190
1.333604 91.268 154.6802
1.343268 91.274 154.3389
1.353002 91.280 153.9950
1.362806 91.286 153.6488
1.372681 91.291 153.3003
1.382628 91.297 152.9498
1.392647 91.302 152.5973
1.402739 91.307 152.2429
1.412904 91.311 151.8868
1.423142 91.316 151.5291
1.433455 91.320 151.1696
1.443843 91.324 150.8083
1.454305 91.328 150.4448
1.464844 91.331 150.0788
1.475459 91.334 149.7097
1.486150 91.337 149.3367
1.496920 91.340 148.9596
1.507767 91.342 148.5779
1.518693 91.344 148.1915
1.529698 91.345 147.8002
1.540783 91.346 147.4041
1.551948 91.347 147.0031
1.563194 91.348 146.5974
1.574521 91.348 146.1870
1.585931 91.348 145.7722
1.597423 91.347 145.3529
1.608999 91.347 144.9294
1.620658 91.345 144.5017
1.632402 91.344 144.0701
1.644232 91.342 143.6348
1.656146 91.340 143.1958
1.668147 91.338 142.7534
1.680235 91.335 142.3078
1.692411 91.333 141.8592
1.704675 91.329 141.4078
1.717028 91.326 140.9538
1.729470 91.322 140.4975
1.742003 91.319 140.0391
1.754626 91.314 139.5788
1.767341 91.310 139.1167
1.780147 91.305 138.6532
1.793047 91.301 138.1880
1.806040 91.296 137.7213
1.819128 91.290 137.2526
1.832310 91.285 136.7815
1.845587 91.278 136.3073
1.858961 91.272 135.8292
1.872432 91.265 135.3467
1.886001 91.258 134.8595
1.899667 91.250 134.3673
1.913433 91.242 133.8700
1.927299 91.233 133.3678
1.941265 91.224 132.8606
1.955332 91.215 132.3488
1.969501 91.205 131.8326
1.983773 91.195 131.3121
1.998148 91.184 130.7878
2.012627 91.173 130.2599
2.027212 91.162 129.7288
2.041902 91.151 129.1949
2.056698 91.140 128.6586
2.071602 91.128 128.1204
2.086614 91.117 127.5808
2.101734 91.105 127.0403
2.116964 91.094 126.4994
2.132304 91.082 125.9587
2.147756 91.070 125.4184
2.163320 91.059 124.8790
2.178996 91.047 124.3407
2.194786 91.035 123.8032
2.210690 91.024 123.2663
2.226710 91.012 122.7296
2.242845 91.000 122.1925
2.259098 90.987 121.6547
2.275468 90.975 121.1158
2.291957 90.962 120.5758
2.308566 90.949 120.0345
2.325295 90.936 119.4919
2.342145 90.923 118.9482
2.359117 90.910 118.4033
2.376212 90.897 117.8575
2.393431 90.884 117.3109
2.410775 90.871 116.7637
2.428244 90.859 116.2162
2.445840 90.847 115.6687
2.463564 90.836 115.1217
2.481416 90.825 114.5754
2.499397 90.814 114.0303
2.517509 90.805 113.4869
2.535752 90.796 112.9458
2.554127 90.788 112.4074
2.572635 90.780 111.8723
2.591277 90.773 111.3406
2.610055 90.767 110.8127
2.628968 90.761 110.2884
2.648019 90.755 109.7676
2.667208 90.751 109.2499
2.686535 90.746 108.7352
2.706003 90.743 108.2228
2.725612 90.740 107.7126
2.745363 90.738 107.2040
2.765257 90.737 106.6966
2.785295 90.737 106.1901
2.805478 90.738 105.6840
2.825808 90.740 105.1782
2.846285 90.743 104.6725
2.866910 90.748 104.1667
2.887685 90.754 103.6611
2.908611 90.762 103.1561
2.929688 90.771 102.6524
2.950917 90.782 102.1510
2.972301 90.794 101.6526
2.993839 90.808 101.1577
3.015534 90.823 100.6664
3.037386 90.840 100.1786
3.059396 90.858 99.6937
3.081565 90.878 99.2111
3.103896 90.900 98.7300
3.126388 90.922 98.2495
3.149043 90.947 97.7688
3.171862 90.973 97.2868
3.194847 91.000 96.8029
3.217998 91.029 96.3163
3.241317 91.059 95.8266
3.264805 91.091 95.3336
3.288463 91.124 94.8377
3.312293 91.159 94.3395
3.336295 91.196 93.8398
3.360471 91.235 93.3394
3.384822 91.276 92.8386
3.409350 91.319 92.3375
3.434056 91.363 91.8358
3.458940 91.409 91.3331
3.484005 91.456 90.8288
3.509252 91.505 90.3221
3.534681 91.554 89.8123
3.560295 91.605 89.2987
3.586094 91.657 88.7803
3.612081 91.709 88.2568
3.638255 91.762 87.7275
3.664620 91.816 87.1925
3.691175 91.871 86.6518
3.717923 91.927 86.1059
3.744864 91.984 85.5553
3.772001 92.043 85.0006
3.799335 92.102 84.4422
3.826866 92.161 83.8807
3.854597 92.222 83.3163
3.882529 92.283 82.7495
3.910664 92.344 82.1803
3.939002 92.404 81.6089
3.967546 92.465 81.0349
3.996296 92.526 80.4583
4.025255 92.586 79.8784
4.054423 92.646 79.2950
4.083804 92.706 78.7078
4.113396 92.766 78.1170
4.143204 92.826 77.5232
4.173227 92.885 76.9272
4.203468 92.944 76.3302
4.233928 93.003 75.7332
4.264609 93.061 75.1375
4.295512 93.118 74.5439
4.326639 93.175 73.9531
4.357992 93.231 73.3654
4.389572 93.286 72.7806
4.421380 93.340 72.1981
4.453419 93.392 71.6176
4.485691 93.444 71.0389
4.518196 93.495 70.4623
4.550936 93.545 69.8887
4.583914 93.595 69.3193
4.617131 93.643 68.7554
4.650589 93.690 68.1984
4.684289 93.737 67.6494
4.718233 93.783 67.1092
4.752424 93.827 66.5783
4.786862 93.871 66.0564
4.821549 93.914 65.5434
4.856488 93.956 65.0388
4.891680 93.997 64.5427
4.927127 94.037 64.0553
4.962831 94.077 63.5772
4.998794 94.116 63.1089
5.035017 94.154 62.6513
5.071503 94.192 62.2050
5.108253 94.230 61.7706
5.145270 94.268 61.3484
5.182555 94.306 60.9383
5.220110 94.343 60.5401
5.257937 94.380 60.1533
5.296038 94.417 59.7773
5.334415 94.454 59.4115
5.373071 94.491 59.0555
5.412006 94.528 58.7089
5.451224 94.566 58.3716
5.490725 94.604 58.0435
5.530514 94.643 57.7246
5.570590 94.682 57.4149
5.610957 94.722 57.1139
5.651616 94.762 56.8206
5.692570 94.803 56.5339
5.733821 94.844 56.2527
5.775370 94.886 55.9757
5.817221 94.929 55.7020
5.859375 94.972 55.4310
5.901834 95.015 55.1626
5.944602 95.059 54.8966
5.987679 95.104 54.6325
6.031068 95.149 54.3698
6.074771 95.194 54.1077
6.118792 95.239 53.8451
6.163131 95.284 53.5813
6.207792 95.329 53.3155
6.252776 95.374 53.0473
6.298086 95.418 52.7766
6.343725 95.462 52.5034
6.389694 95.506 52.2280
6.435996 95.549 51.9505
6.482634 95.592 51.6710
6.529610 95.633 51.3894
6.576926 95.673 51.1057
6.624585 95.713 50.8199
6.672590 95.751 50.5321
6.720942 95.787 50.2427
6.769645 95.823 49.9523
6.818700 95.857 49.6616
6.868111 95.890 49.3715
6.917881 95.921 49.0826
6.968010 95.951 48.7952
7.018504 95.979 48.5097
7.069362 96.006 48.2263
7.120590 96.032 47.9454
7.172189 96.056 47.6677
7.224161 96.078 47.3936
7.276511 96.100 47.1240
7.329239 96.120 46.8592
7.382350 96.139 46.5994
7.435845 96.157 46.3447
7.489729 96.174 46.0948
7.544002 96.191 45.8498
7.598669 96.206 45.6093
7.653732 96.221 45.3734
7.709194 96.236 45.1418
7.765058 96.250 44.9144
7.821327 96.264 44.6906
7.878004 96.277 44.4698
7.935091 96.290 44.2512
7.992592 96.304 44.0339
8.050510 96.317 43.8172
8.108847 96.329 43.6005
8.167607 96.342 43.3833
8.226793 96.355 43.1649
8.286408 96.368 42.9444
8.346454 96.380 42.7212
8.406936 96.392 42.4943
8.467856 96.404 42.2634
8.529218 96.416 42.0280
8.591024 96.427 41.7879
8.653278 96.438 41.5430
8.715983 96.448 41.2930
8.779143 96.457 41.0379
8.842760 96.466 40.7775
8.906839 96.473 40.5121
8.971381 96.480 40.2419
9.036392 96.486 39.9673
9.101873 96.492 39.6889
9.167829 96.496 39.4069
9.234263 96.499 39.1218
9.301178 96.502 38.8340
9.368578 96.503 38.5438
9.436467 96.504 38.2518
9.504847 96.504 37.9584
9.573723 96.504 37.6641
9.643099 96.503 37.3688
9.712976 96.502 37.0729
9.783361 96.500 36.7762
9.854255 96.498 36.4789
9.925663 96.496 36.1809
9.997588 96.495 35.8820
10.070035 96.493 35.5820
10.143007 96.492 35.2804
10.216507 96.491 34.9769
10.290540 96.490 34.6711
10.365109 96.490 34.3627
10.440219 96.490 34.0512
10.515873 96.490 33.7365
10.592076 96.491 33.4180
10.668830 96.493 33.0957
10.746141 96.495 32.7693
10.824012 96.497 32.4390
10.902447 96.500 32.1047
10.981451 96.503 31.7667
11.061027 96.506 31.4252
11.141180 96.509 31.0805
11.221913 96.513 30.7331
11.303232 96.517 30.3835
11.385140 96.521 30.0322
11.467641 96.526 29.6797
11.550741 96.530 29.3265
11.634442 96.535 28.9731
11.718750 96.541 28.6201
11.803669 96.546 28.2678
11.889203 96.553 27.9166
11.975357 96.559 27.5668
12.062136 96.567 27.2186
12.149543 96.574 26.8722
12.237583 96.583 26.5277
12.326262 96.592 26.1853
12.415583 96.601 25.8449
12.505552 96.611 25.5068
12.596172 96.622 25.1710
12.687449 96.633 24.8376
12.779387 96.644 24.5069
12.871992 96.656 24.1790
12.965268 96.668 23.8543
13.059220 96.680 23.5331
13.153852 96.692 23.2158
13.249170 96.705 22.9027
13.345179 96.717 22.5942
13.441884 96.730 22.2907
13.539289 96.742 21.9925
13.637401 96.755 21.6998
13.736223 96.768 21.4127
13.835761 96.780 21.1313
13.936021 96.793 20.8555
14.037007 96.806 20.5852
14.138725 96.819 20.3201
14.241180 96.831 20.0599
14.344377 96.844 19.8042
14.448323 96.856 19.5527
14.553021 96.868 19.3050
14.658478 96.880 19.0607
14.764700 96.892 18.8196
14.871691 96.902 18.5816
14.979457 96.913 18.3464
15.088005 96.922 18.1140
15.197339 96.931 17.8846
15.307465 96.939 17.6581
15.418389 96.946 17.4347
15.530117 96.952 17.2144
15.642655 96.957 16.9972
15.756008 96.961 16.7830
15.870182 96.965 16.5716
15.985184 96.967 16.3627
16.101019 96.969 16.1558
16.217694 96.971 15.9502
16.335214 96.971 15.7453
16.453586 96.972 15.5404
16.572815 96.971 15.3345
16.692909 96.970 15.1271
16.813872 96.968 14.9174
16.935713 96.966 14.7048
17.058436 96.963 14.4890
17.182048 96.959 14.2697
17.306556 96.954 14.0468
17.431967 96.949 13.8203
17.558286 96.943 13.5903
17.685521 96.936 13.3569
17.813677 96.928 13.1204
17.942762 96.920 12.8808
18.072783 96.912 12.6382
18.203746 96.903 12.3927
18.335658 96.895 12.1440
18.468526 96.886 11.8919
18.602356 96.877 11.6362
18.737156 96.869 11.3764
18.872934 96.861 11.1124
19.009695 96.854 10.8437
19.147447 96.846 10.5703
19.286197 96.840 10.2921
19.425953 96.833 10.0091
19.566721 96.828 9.7218
19.708510 96.822 9.4304
19.851326 96.817 9.1355
19.995177 96.812 8.8378
20.140070 96.808 8.5380
20.286013 96.805 8.2368
20.433014 96.801 7.9351
20.581080 96.799 7.6336
20.730219 96.797 7.3331
20.880439 96.795 7.0343
21.031747 96.794 6.7379
21.184152 96.793 6.4444
21.337661 96.794 6.1542
21.492282 96.794 5.8679
21.648024 96.796 5.5855
21.804895 96.797 5.3074
21.962902 96.800 5.0336
22.122054 96.802 4.7640
22.282360 96.805 4.4987
22.443827 96.809 4.2376
22.606464 96.812 3.9807
22.770280 96.816 3.7278
22.935283 96.819 3.4791
23.101481 96.822 3.2346
23.268884 96.824 2.9943
23.437500 96.827 2.7582
23.607338 96.828 2.5263
23.778406 96.829 2.2984
23.950714 96.830 2.0742
24.124271 96.830 1.8532
24.299086 96.829 1.6350
24.475167 96.827 1.4188
24.652524 96.825 1.2041
24.831166 96.822 0.9902
25.011103 96.819 0.7764
25.192344 96.814 0.5624
25.374898 96.809 0.3476
25.558775 96.803 0.1315
25.743984 96.797 -0.0863
25.930536 96.790 -0.3063
26.118439 96.782 -0.5291
26.307704 96.774 -0.7552
26.498341 96.766 -0.9854
26.690359 96.757 -1.2199
26.883768 96.748 -1.4593
27.078579 96.739 -1.7036
27.274801 96.730 -1.9528
27.472446 96.721 -2.2067
27.671522 96.712 -2.4647
27.872042 96.702 -2.7263
28.074014 96.693 -2.9912
28.277450 96.685 -3.2586
28.482360 96.677 -3.5284
28.688755 96.669 -3.8000
28.896645 96.662 -4.0732
29.106042 96.656 -4.3476
29.316957 96.650 -4.6227
29.529400 96.645 -4.8981
29.743382 96.640 -5.1733
29.958915 96.636 -5.4478
30.176009 96.633 -5.7211
30.394677 96.629 -5.9929
30.614929 96.627 -6.2628
30.836778 96.624 -6.5307
31.060234 96.622 -6.7963
31.285309 96.620 -7.0592
31.512015 96.617 -7.3193
31.740364 96.615 -7.5761
31.970368 96.612 -7.8294
32.202039 96.609 -8.0793
32.435388 96.605 -8.3260
32.670428 96.602 -8.5702
32.907171 96.598 -8.8125
33.145630 96.593 -9.0541
33.385817 96.589 -9.2959
33.627745 96.583 -9.5386
33.871425 96.578 -9.7827
34.116871 96.571 -10.0285
34.364096 96.564 -10.2760
34.613113 96.556 -10.5251
34.863934 96.548 -10.7758
35.116572 96.539 -11.0281
35.371041 96.530 -11.2825
35.627354 96.521 -11.5393
35.885525 96.512 -11.7989
36.145566 96.503 -12.0616
36.407492 96.493 -12.3272
36.671316 96.484 -12.5954
36.937051 96.475 -12.8654
37.204712 96.466 -13.1364
37.474313 96.457 -13.4076
37.745867 96.448 -13.6785
38.019389 96.440 -13.9489
38.294893 96.432 -14.2190
38.572394 96.425 -14.4890
38.851905 96.418 -14.7590
39.133442 96.411 -15.0291
39.417019 96.404 -15.2989
39.702651 96.398 -15.5681
39.990353 96.391 -15.8365
40.280140 96.384 -16.1040
40.572026 96.377 -16.3709
40.866028 96.370 -16.6377
41.162160 96.363 -16.9046
41.460438 96.355 -17.1719
41.760877 96.346 -17.4392
42.063494 96.338 -17.7060
42.368303 96.328 -17.9721
42.675322 96.318 -18.2373
42.984565 96.309 -18.5020
43.296048 96.299 -18.7668
43.609789 96.289 -19.0325
43.925804 96.279 -19.2996
44.244108 96.269 -19.5686
44.564719 96.260 -19.8397
44.887654 96.250 -20.1129
45.212928 96.241 -20.3885
45.540560 96.231 -20.6660
45.870565 96.222 -20.9451
46.202962 96.212 -21.2246
46.537768 96.202 -21.5034
46.875000 96.192 -21.7809
47.214676 96.183 -22.0573
47.556813 96.173 -22.3334
47.901429 96.164 -22.6105
48.248542 96.155 -22.8893
48.598171 96.146 -23.1698
48.950334 96.136 -23.4510
49.305048 96.126 -23.7316
49.662333 96.115 -24.0113
50.022206 96.104 -24.2905
50.384688 96.094 -24.5702
50.749796 96.083 -24.8511
51.117550 96.072 -25.1329
51.487969 96.061 -25.4148
51.861072 96.049 -25.6956
52.236879 96.038 -25.9752
52.615409 96.027 -26.2543
52.996681 96.016 -26.5340
53.380717 96.006 -26.8150
53.767536 95.995 -27.0969
54.157158 95.985 -27.3789
54.549603 95.975 -27.6607
54.944892 95.966 -27.9433
55.343045 95.957 -28.2283
55.744084 95.948 -28.5174
56.148028 95.939 -28.8110
56.554900 95.929 -29.1084
56.964720 95.920 -29.4086
57.377510 95.910 -29.7112
57.793291 95.899 -30.0169
58.212085 95.889 -30.3272
58.633914 95.879 -30.6424
59.058799 95.867 -30.9619
59.486764 95.855 -31.2835
59.917829 95.843 -31.6049
60.352019 95.830 -31.9250
60.789354 95.817 -32.2439
61.229859 95.805 -32.5625
61.673556 95.792 -32.8818
62.120468 95.780 -33.2018
62.570618 95.767 -33.5216
63.024031 95.753 -33.8401
63.480729 95.740 -34.1567
63.940736 95.726 -34.4714
64.404077 95.712 -34.7853
64.870776 95.698 -35.0993
65.340856 95.683 -35.4140
65.814343 95.668 -35.7290
66.291261 95.653 -36.0439
66.771635 95.637 -36.3584
67.255489 95.622 -36.6730
67.742850 95.607 -36.9889
68.233743 95.592 -37.3071
68.728193 95.577 -37.6282
69.226226 95.562 -37.9522
69.727867 95.548 -38.2784
70.233144 95.533 -38.6057
70.742083 95.518 -38.9327
71.254709 95.502 -39.2581
71.771050 95.487 -39.5814
72.291132 95.472 -39.9030
72.814984 95.457 -40.2241
73.342631 95.443 -40.5460
73.874102 95.428 -40.8694
74.409424 95.414 -41.1947
74.948626 95.399 -41.5217
75.491734 95.384 -41.8507
76.038779 95.370 -42.1822
76.589787 95.355 -42.5168
77.144788 95.341 -42.8554
77.703811 95.327 -43.1988
78.266885 95.313 -43.5473
78.834039 95.299 -43.9008
79.405303 95.284 -44.2589
79.980706 95.270 -44.6219
80.560280 95.255 -44.9905
81.144053 95.240 -45.3660
81.732056 95.225 -45.7494
82.324320 95.208 -46.1403
82.920876 95.190 -46.5369
83.521755 95.170 -46.9362
84.126988 95.148 -47.3344
84.736607 95.125 -47.7280
85.350643 95.100 -48.1142
85.969129 95.074 -48.4916
86.592097 95.047 -48.8597
87.219579 95.021 -49.2195
87.851608 94.994 -49.5727
88.488217 94.968 -49.9214
89.129439 94.942 -50.2679
89.775308 94.917 -50.6138
90.425856 94.892 -50.9601
91.081119 94.867 -51.3069
91.741131 94.843 -51.6537
92.405925 94.818 -52.0000
93.075536 94.794 -52.3458
93.750000 94.770 -52.6915
94.429351 94.746 -53.0381
95.113625 94.723 -53.3862
95.802858 94.699 -53.7361
96.497085 94.675 -54.0880
97.196342 94.651 -54.4415
97.900667 94.626 -54.7961
98.610096 94.601 -55.1510
99.324665 94.575 -55.5052
100.044413 94.549 -55.8576
100.769376 94.524 -56.2078
101.499592 94.498 -56.5557
102.235100 94.473 -56.9017
