* Measurement data measured by REW V5.31.3
* Source: EXCL: Microphone (USB Sound Device        ), MICROPHONE (Master Volume), R, volume: 0.390
* Format: 256k Log Swept Sine, 1 sweep at -15.0 dBFS with no timing reference
* Dated: Jul 5, 2025 1:02:34 AM
* REW Settings:
*  C-weighting compensation: Off
*  Target level: 75.0 dB
* Note: Symphonium Giant L
* Measurement: L Symphonium Giant L
* Smoothing: 1/12 octave
* Frequency Step: 96 ppo
* Start Frequency: 0.36621094 Hz
*
* Freq(Hz) SPL(dB) Phase(degrees)
0.366211 94.197 157.9218
0.368865 94.191 157.8988
0.371538 94.182 157.8643
0.374230 94.171 157.8210
0.376942 94.159 157.7710
0.379673 94.146 157.7162
0.382424 94.132 157.6574
0.385196 94.118 157.5954
0.387987 94.104 157.5306
0.390798 94.089 157.4631
0.393630 94.075 157.3931
0.396483 94.060 157.3206
0.399356 94.045 157.2455
0.402250 94.030 157.1680
0.405165 94.015 157.0879
0.408101 94.000 157.0053
0.411058 93.984 156.9201
0.414037 93.969 156.8323
0.417037 93.953 156.7419
0.420059 93.938 156.6489
0.423103 93.922 156.5531
0.426169 93.906 156.4547
0.429257 93.890 156.3536
0.432368 93.874 156.2497
0.435501 93.858 156.1430
0.438656 93.841 156.0336
0.441835 93.825 155.9213
0.445037 93.808 155.8062
0.448262 93.791 155.6883
0.451510 93.774 155.5675
0.454782 93.757 155.4438
0.458077 93.740 155.3171
0.461397 93.723 155.1876
0.464740 93.706 155.0550
0.468108 93.688 154.9195
0.471500 93.671 154.7811
0.474917 93.653 154.6396
0.478358 93.635 154.4951
0.481825 93.617 154.3475
0.485316 93.599 154.1969
0.488833 93.581 154.0433
0.492375 93.562 153.8866
0.495943 93.544 153.7268
0.499537 93.525 153.5639
0.503157 93.506 153.3980
0.506803 93.488 153.2289
0.510475 93.469 153.0568
0.514175 93.449 152.8815
0.517900 93.430 152.7032
0.521653 93.411 152.5217
0.525434 93.391 152.3372
0.529241 93.371 152.1496
0.533076 93.351 151.9590
0.536939 93.331 151.7652
0.540830 93.311 151.5684
0.544749 93.291 151.3686
0.548696 93.270 151.1658
0.552673 93.250 150.9600
0.556677 93.229 150.7512
0.560711 93.208 150.5395
0.564774 93.187 150.3249
0.568867 93.166 150.1074
0.572989 93.144 149.8871
0.577141 93.123 149.6640
0.581324 93.101 149.4382
0.585536 93.079 149.2097
0.589779 93.057 148.9786
0.594053 93.035 148.7449
0.598358 93.013 148.5087
0.602694 92.990 148.2700
0.607061 92.967 148.0290
0.611460 92.945 147.7858
0.615891 92.922 147.5403
0.620354 92.898 147.2927
0.624849 92.875 147.0432
0.629377 92.852 146.7917
0.633938 92.828 146.5385
0.638532 92.804 146.2836
0.643159 92.780 146.0271
0.647819 92.756 145.7692
0.652514 92.732 145.5101
0.657242 92.707 145.2499
0.662005 92.682 144.9887
0.666802 92.657 144.7267
0.671634 92.632 144.4640
0.676501 92.607 144.2010
0.681403 92.582 143.9377
0.686341 92.556 143.6743
0.691314 92.530 143.4111
0.696324 92.504 143.1482
0.701370 92.478 142.8859
0.706452 92.451 142.6243
0.711571 92.424 142.3634
0.716728 92.395 142.1032
0.721921 92.366 141.8436
0.727153 92.335 141.5839
0.732422 92.303 141.3236
0.737729 92.268 141.0615
0.743075 92.231 140.7966
0.748460 92.192 140.5281
0.753883 92.152 140.2552
0.759346 92.111 139.9774
0.764849 92.070 139.6943
0.770391 92.027 139.4058
0.775974 91.984 139.1116
0.781597 91.941 138.8117
0.787261 91.897 138.5059
0.792966 91.852 138.1942
0.798712 91.807 137.8765
0.804500 91.761 137.5528
0.810329 91.715 137.2230
0.816201 91.668 136.8870
0.822116 91.620 136.5448
0.828073 91.572 136.1965
0.834074 91.523 135.8418
0.840118 91.473 135.4809
0.846206 91.422 135.1137
0.852338 91.371 134.7401
0.858514 91.318 134.3602
0.864735 91.265 133.9740
0.871001 91.211 133.5815
0.877313 91.156 133.1827
0.883670 91.099 132.7777
0.890074 91.042 132.3664
0.896524 90.984 131.9490
0.903020 90.925 131.5255
0.909564 90.864 131.0960
0.916155 90.802 130.6607
0.922794 90.739 130.2196
0.929481 90.675 129.7729
0.936216 90.609 129.3207
0.943000 90.542 128.8633
0.949834 90.473 128.4009
0.956717 90.403 127.9336
0.963649 90.331 127.4618
0.970632 90.258 126.9857
0.977666 90.182 126.5057
0.984750 90.106 126.0221
0.991886 90.027 125.5353
0.999074 89.946 125.0457
1.006314 89.864 124.5539
1.013606 89.779 124.0603
1.020951 89.692 123.5655
1.028349 89.603 123.0700
1.035801 89.512 122.5746
1.043307 89.419 122.0799
1.050867 89.323 121.5867
1.058482 89.225 121.0956
1.066152 89.124 120.6074
1.073878 89.021 120.1227
1.081660 88.915 119.6422
1.089498 88.807 119.1659
1.097393 88.697 118.6940
1.105345 88.584 118.2259
1.113355 88.470 117.7611
1.121423 88.355 117.2989
1.129549 88.238 116.8384
1.137734 88.119 116.3791
1.145979 88.000 115.9205
1.154283 87.878 115.4621
1.162647 87.756 115.0034
1.171072 87.631 114.5440
1.179558 87.505 114.0835
1.188106 87.376 113.6214
1.196715 87.246 113.1572
1.205387 87.113 112.6905
1.214122 86.977 112.2208
1.222920 86.839 111.7475
1.231782 86.698 111.2701
1.240708 86.554 110.7880
1.249699 86.406 110.3005
1.258754 86.255 109.8072
1.267876 86.100 109.3071
1.277063 85.941 108.7997
1.286318 85.778 108.2841
1.295639 85.611 107.7595
1.305027 85.439 107.2252
1.314484 85.262 106.6801
1.324009 85.079 106.1234
1.333604 84.891 105.5541
1.343268 84.697 104.9711
1.353002 84.497 104.3734
1.362806 84.291 103.7598
1.372681 84.078 103.1292
1.382628 83.857 102.4804
1.392647 83.629 101.8124
1.402739 83.394 101.1239
1.412904 83.150 100.4139
1.423142 82.896 99.6816
1.433455 82.633 98.9261
1.443843 82.358 98.1471
1.454305 82.071 97.3445
1.464844 81.768 96.5183
1.475459 81.447 95.6687
1.486150 81.105 94.7955
1.496920 80.741 93.8974
1.507767 80.353 92.9724
1.518693 79.941 92.0177
1.529698 79.505 91.0291
1.540783 79.047 90.0018
1.551948 78.568 88.9299
1.563194 78.070 87.8064
1.574521 77.554 86.6228
1.585931 77.023 85.3689
1.597423 76.478 84.0327
1.608999 75.924 82.5995
1.620658 75.361 81.0514
1.632402 74.794 79.3664
1.644232 74.225 77.5173
1.656146 73.656 75.4704
1.668147 73.093 73.1831
1.680235 72.538 70.6021
1.692411 71.995 67.6596
1.704675 71.469 64.2702
1.717028 70.963 60.3267
1.729470 70.484 55.6981
1.742003 70.035 50.2310
1.754626 69.623 43.7632
1.767341 69.253 36.1586
1.780147 68.932 27.3731
1.793047 68.666 17.5448
1.806040 68.460 7.0525
1.819128 68.322 -3.5376
1.832310 68.254 -13.6498
1.845587 68.261 -22.8817
1.858961 68.343 -31.0632
1.872432 68.498 -38.2027
1.886001 68.725 -44.4018
1.899667 69.017 -49.7921
1.913433 69.371 -54.5027
1.927299 69.780 -58.6465
1.941265 70.238 -62.3174
1.955332 70.739 -65.5918
1.969501 71.276 -68.5311
1.983773 71.842 -71.1844
1.998148 72.432 -73.5915
2.012627 73.037 -75.7841
2.027212 73.651 -77.7879
2.041902 74.269 -79.6240
2.056698 74.882 -81.3095
2.071602 75.485 -82.8585
2.086614 76.072 -84.2827
2.101734 76.636 -85.5923
2.116964 77.172 -86.7962
2.132304 77.674 -87.9028
2.147756 78.139 -88.9208
2.163320 78.564 -89.8600
2.178996 78.948 -90.7321
2.194786 79.292 -91.5508
2.210690 79.599 -92.3313
2.226710 79.874 -93.0877
2.242845 80.120 -93.8311
2.259098 80.341 -94.5684
2.275468 80.539 -95.3031
2.291957 80.715 -96.0360
2.308566 80.873 -96.7662
2.325295 81.013 -97.4916
2.342145 81.137 -98.2091
2.359117 81.247 -98.9155
2.376212 81.343 -99.6070
2.393431 81.427 -100.2796
2.410775 81.501 -100.9291
2.428244 81.566 -101.5511
2.445840 81.624 -102.1411
2.463564 81.676 -102.6948
2.481416 81.723 -103.2079
2.499397 81.767 -103.6770
2.517509 81.806 -104.0996
2.535752 81.841 -104.4747
2.554127 81.870 -104.8038
2.572635 81.891 -105.0903
2.591277 81.904 -105.3393
2.610055 81.910 -105.5556
2.628968 81.910 -105.7429
2.648019 81.906 -105.9034
2.667208 81.898 -106.0379
2.686535 81.888 -106.1460
2.706003 81.877 -106.2265
2.725612 81.864 -106.2778
2.745363 81.851 -106.2975
2.765257 81.838 -106.2832
2.785295 81.825 -106.2320
2.805478 81.812 -106.1408
2.825808 81.801 -106.0064
2.846285 81.791 -105.8254
2.866910 81.782 -105.5943
2.887685 81.776 -105.3096
2.908611 81.771 -104.9677
2.929688 81.769 -104.5653
2.950917 81.769 -104.0996
2.972301 81.772 -103.5688
2.993839 81.776 -102.9725
3.015534 81.782 -102.3117
3.037386 81.789 -101.5892
3.059396 81.797 -100.8088
3.081565 81.806 -99.9755
3.103896 81.816 -99.0953
3.126388 81.827 -98.1752
3.149043 81.838 -97.2227
3.171862 81.850 -96.2459
3.194847 81.864 -95.2531
3.217998 81.881 -94.2519
3.241317 81.903 -93.2487
3.264805 81.935 -92.2478
3.288463 81.980 -91.2508
3.312293 82.041 -90.2570
3.336295 82.120 -89.2652
3.360471 82.216 -88.2759
3.384822 82.329 -87.2925
3.409350 82.455 -86.3213
3.434056 82.592 -85.3702
3.458940 82.738 -84.4484
3.484005 82.892 -83.5652
3.509252 83.051 -82.7295
3.534681 83.214 -81.9497
3.560295 83.379 -81.2328
3.586094 83.545 -80.5844
3.612081 83.711 -80.0081
3.638255 83.878 -79.5053
3.664620 84.044 -79.0748
3.691175 84.211 -78.7134
3.717923 84.379 -78.4165
3.744864 84.548 -78.1796
3.772001 84.719 -77.9981
3.799335 84.891 -77.8681
3.826866 85.063 -77.7862
3.854597 85.233 -77.7492
3.882529 85.402 -77.7545
3.910664 85.566 -77.7999
3.939002 85.727 -77.8840
3.967546 85.882 -78.0059
3.996296 86.030 -78.1654
4.025255 86.173 -78.3632
4.054423 86.309 -78.5998
4.083804 86.438 -78.8752
4.113396 86.562 -79.1876
4.143204 86.679 -79.5339
4.173227 86.791 -79.9097
4.203468 86.898 -80.3098
4.233928 86.998 -80.7289
4.264609 87.093 -81.1619
4.295512 87.182 -81.6046
4.326639 87.265 -82.0540
4.357992 87.342 -82.5087
4.389572 87.413 -82.9693
4.421380 87.477 -83.4377
4.453419 87.534 -83.9159
4.485691 87.584 -84.4047
4.518196 87.629 -84.9027
4.550936 87.666 -85.4069
4.583914 87.698 -85.9127
4.617131 87.725 -86.4148
4.650589 87.746 -86.9079
4.684289 87.763 -87.3870
4.718233 87.775 -87.8485
4.752424 87.782 -88.2903
4.786862 87.784 -88.7125
4.821549 87.782 -89.1160
4.856488 87.774 -89.5021
4.891680 87.762 -89.8710
4.927127 87.746 -90.2224
4.962831 87.727 -90.5548
4.998794 87.706 -90.8661
5.035017 87.683 -91.1537
5.071503 87.659 -91.4147
5.108253 87.634 -91.6466
5.145270 87.609 -91.8476
5.182555 87.584 -92.0170
5.220110 87.559 -92.1555
5.257937 87.534 -92.2652
5.296038 87.509 -92.3494
5.334415 87.486 -92.4117
5.373071 87.465 -92.4560
5.412006 87.448 -92.4855
5.451224 87.435 -92.5024
5.490725 87.426 -92.5081
5.530514 87.422 -92.5027
5.570590 87.423 -92.4873
5.610957 87.429 -92.4642
5.651616 87.439 -92.4380
5.692570 87.454 -92.4149
5.733821 87.473 -92.4016
5.775370 87.497 -92.4049
5.817221 87.525 -92.4301
5.859375 87.557 -92.4809
5.901834 87.594 -92.5588
5.944602 87.636 -92.6646
5.987679 87.681 -92.7992
6.031068 87.730 -92.9642
6.074771 87.781 -93.1618
6.118792 87.834 -93.3950
6.163131 87.887 -93.6664
6.207792 87.941 -93.9782
6.252776 87.995 -94.3316
6.298086 88.048 -94.7263
6.343725 88.101 -95.1607
6.389694 88.153 -95.6319
6.435996 88.203 -96.1367
6.482634 88.252 -96.6722
6.529610 88.298 -97.2359
6.576926 88.341 -97.8264
6.624585 88.380 -98.4430
6.672590 88.416 -99.0848
6.720942 88.448 -99.7492
6.769645 88.477 -100.4326
6.818700 88.503 -101.1299
6.868111 88.525 -101.8360
6.917881 88.544 -102.5469
6.968010 88.560 -103.2597
7.018504 88.572 -103.9729
7.069362 88.581 -104.6850
7.120590 88.587 -105.3939
7.172189 88.591 -106.0965
7.224161 88.593 -106.7889
7.276511 88.594 -107.4675
7.329239 88.594 -108.1294
7.382350 88.594 -108.7730
7.435845 88.594 -109.3980
7.489729 88.594 -110.0044
7.544002 88.595 -110.5924
7.598669 88.598 -111.1622
7.653732 88.603 -111.7136
7.709194 88.612 -112.2465
7.765058 88.623 -112.7613
7.821327 88.639 -113.2596
7.878004 88.658 -113.7440
7.935091 88.681 -114.2177
7.992592 88.708 -114.6841
8.050510 88.740 -115.1459
8.108847 88.777 -115.6050
8.167607 88.819 -116.0632
8.226793 88.864 -116.5227
8.286408 88.914 -116.9861
8.346454 88.967 -117.4565
8.406936 89.024 -117.9361
8.467856 89.083 -118.4264
8.529218 89.145 -118.9280
8.591024 89.209 -119.4406
8.653278 89.274 -119.9639
8.715983 89.341 -120.4976
8.779143 89.407 -121.0410
8.842760 89.474 -121.5936
8.906839 89.540 -122.1537
8.971381 89.605 -122.7192
9.036392 89.669 -123.2873
9.101873 89.732 -123.8553
9.167829 89.793 -124.4208
9.234263 89.852 -124.9818
9.301178 89.910 -125.5362
9.368578 89.966 -126.0816
9.436467 90.021 -126.6153
9.504847 90.073 -127.1351
9.573723 90.125 -127.6392
9.643099 90.175 -128.1266
9.712976 90.224 -128.5965
9.783361 90.273 -129.0484
9.854255 90.321 -129.4818
9.925663 90.369 -129.8968
9.997588 90.417 -130.2936
10.070035 90.465 -130.6734
10.143007 90.513 -131.0374
10.216507 90.562 -131.3872
10.290540 90.610 -131.7242
10.365109 90.660 -132.0497
10.440219 90.709 -132.3654
10.515873 90.759 -132.6729
10.592076 90.809 -132.9740
10.668830 90.859 -133.2698
10.746141 90.908 -133.5616
10.824012 90.957 -133.8499
10.902447 91.004 -134.1354
10.981451 91.051 -134.4186
11.061027 91.097 -134.6996
11.141180 91.141 -134.9785
11.221913 91.183 -135.2549
11.303232 91.224 -135.5285
11.385140 91.263 -135.7990
11.467641 91.301 -136.0660
11.550741 91.336 -136.3293
11.634442 91.370 -136.5889
11.718750 91.402 -136.8446
11.803669 91.432 -137.0965
11.889203 91.461 -137.3451
11.975357 91.489 -137.5909
12.062136 91.515 -137.8346
12.149543 91.539 -138.0771
12.237583 91.563 -138.3193
12.326262 91.585 -138.5620
12.415583 91.606 -138.8064
12.505552 91.625 -139.0532
12.596172 91.643 -139.3032
12.687449 91.659 -139.5570
12.779387 91.674 -139.8149
12.871992 91.687 -140.0773
12.965268 91.699 -140.3443
13.059220 91.708 -140.6156
13.153852 91.716 -140.8910
13.249170 91.723 -141.1704
13.345179 91.728 -141.4535
13.441884 91.732 -141.7401
13.539289 91.734 -142.0302
13.637401 91.736 -142.3240
13.736223 91.737 -142.6217
13.835761 91.737 -142.9241
13.936021 91.737 -143.2319
14.037007 91.737 -143.5462
14.138725 91.737 -143.8679
14.241180 91.737 -144.1984
14.344377 91.737 -144.5387
14.448323 91.737 -144.8898
14.553021 91.737 -145.2524
14.658478 91.738 -145.6269
14.764700 91.739 -146.0134
14.871691 91.739 -146.4114
14.979457 91.739 -146.8203
15.088005 91.739 -147.2387
15.197339 91.739 -147.6654
15.307465 91.738 -148.0988
15.418389 91.738 -148.5370
15.530117 91.738 -148.9784
15.642655 91.738 -149.4215
15.756008 91.738 -149.8650
15.870182 91.740 -150.3079
15.985184 91.742 -150.7496
16.101019 91.746 -151.1898
16.217694 91.752 -151.6287
16.335214 91.759 -152.0665
16.453586 91.769 -152.5036
16.572815 91.780 -152.9404
16.692909 91.792 -153.3774
16.813872 91.807 -153.8144
16.935713 91.822 -154.2514
17.058436 91.839 -154.6878
17.182048 91.856 -155.1225
17.306556 91.874 -155.5544
17.431967 91.893 -155.9820
17.558286 91.912 -156.4037
17.685521 91.930 -156.8181
17.813677 91.949 -157.2236
17.942762 91.968 -157.6191
18.072783 91.987 -158.0037
18.203746 92.007 -158.3771
18.335658 92.026 -158.7390
18.468526 92.045 -159.0896
18.602356 92.065 -159.4295
18.737156 92.084 -159.7592
18.872934 92.103 -160.0793
19.009695 92.121 -160.3906
19.147447 92.139 -160.6936
19.286197 92.156 -160.9888
19.425953 92.172 -161.2767
19.566721 92.187 -161.5576
19.708510 92.201 -161.8318
19.851326 92.213 -162.0998
19.995177 92.224 -162.3620
20.140070 92.234 -162.6192
20.286013 92.242 -162.8721
20.433014 92.249 -163.1215
20.581080 92.254 -163.3684
20.730219 92.257 -163.6139
20.880439 92.259 -163.8587
21.031747 92.260 -164.1038
21.184152 92.258 -164.3499
21.337661 92.256 -164.5979
21.492282 92.252 -164.8484
21.648024 92.246 -165.1021
21.804895 92.239 -165.3599
21.962902 92.232 -165.6226
22.122054 92.223 -165.8911
22.282360 92.214 -166.1664
22.443827 92.203 -166.4493
22.606464 92.192 -166.7405
22.770280 92.181 -167.0402
22.935283 92.169 -167.3486
23.101481 92.157 -167.6654
23.268884 92.144 -167.9900
23.437500 92.132 -168.3216
23.607338 92.119 -168.6594
23.778406 92.107 -169.0025
23.950714 92.095 -169.3502
24.124271 92.084 -169.7020
24.299086 92.074 -170.0575
24.475167 92.064 -170.4164
24.652524 92.057 -170.7785
24.831166 92.050 -171.1431
25.011103 92.044 -171.5096
25.192344 92.040 -171.8770
25.374898 92.036 -172.2439
25.558775 92.034 -172.6089
25.743984 92.032 -172.9705
25.930536 92.030 -173.3272
26.118439 92.030 -173.6779
26.307704 92.030 -174.0216
26.498341 92.031 -174.3577
26.690359 92.032 -174.6859
26.883768 92.033 -175.0058
27.078579 92.035 -175.3173
27.274801 92.036 -175.6201
27.472446 92.037 -175.9142
27.671522 92.038 -176.1996
27.872042 92.038 -176.4765
28.074014 92.037 -176.7455
28.277450 92.036 -177.0072
28.482360 92.033 -177.2626
28.688755 92.030 -177.5128
28.896645 92.025 -177.7589
29.106042 92.019 -178.0016
29.316957 92.012 -178.2417
29.529400 92.004 -178.4798
29.743382 91.994 -178.7165
29.958915 91.982 -178.9527
30.176009 91.970 -179.1893
30.394677 91.957 -179.4278
30.614929 91.943 -179.6698
30.836778 91.929 -179.9168
31.060234 91.914 179.8298
31.285309 91.899 179.5692
31.512015 91.883 179.3012
31.740364 91.866 179.0261
31.970368 91.849 178.7446
32.202039 91.832 178.4577
32.435388 91.815 178.1661
32.670428 91.798 177.8705
32.907171 91.782 177.5715
33.145630 91.766 177.2694
33.385817 91.751 176.9647
33.627745 91.736 176.6581
33.871425 91.722 176.3504
34.116871 91.708 176.0429
34.364096 91.695 175.7371
34.613113 91.681 175.4343
34.863934 91.669 175.1360
35.116572 91.656 174.8432
35.371041 91.643 174.5567
35.627354 91.631 174.2770
35.885525 91.618 174.0039
36.145566 91.606 173.7373
36.407492 91.593 173.4765
36.671316 91.580 173.2209
36.937051 91.567 172.9699
37.204712 91.553 172.7229
37.474313 91.538 172.4793
37.745867 91.523 172.2387
38.019389 91.506 172.0004
38.294893 91.489 171.7635
38.572394 91.471 171.5273
38.851905 91.452 171.2907
39.133442 91.432 171.0533
39.417019 91.412 170.8147
39.702651 91.391 170.5752
39.990353 91.370 170.3350
40.280140 91.348 170.0945
40.572026 91.326 169.8538
40.866028 91.304 169.6125
41.162160 91.282 169.3701
41.460438 91.260 169.1261
41.760877 91.239 168.8806
42.063494 91.218 168.6338
42.368303 91.197 168.3868
42.675322 91.175 168.1409
42.984565 91.154 167.8973
43.296048 91.133 167.6570
43.609789 91.111 167.4204
43.925804 91.090 167.1870
44.244108 91.069 166.9561
44.564719 91.048 166.7267
44.887654 91.027 166.4980
45.212928 91.006 166.2701
45.540560 90.984 166.0432
45.870565 90.961 165.8182
46.202962 90.937 165.5958
46.537768 90.914 165.3767
46.875000 90.890 165.1605
47.214676 90.865 164.9465
47.556813 90.842 164.7333
47.901429 90.818 164.5199
48.248542 90.794 164.3055
48.598171 90.770 164.0900
48.950334 90.746 163.8742
49.305048 90.722 163.6590
49.662333 90.697 163.4454
50.022206 90.673 163.2343
50.384688 90.648 163.0261
50.749796 90.623 162.8210
51.117550 90.598 162.6191
51.487969 90.573 162.4203
51.861072 90.548 162.2245
52.236879 90.522 162.0314
52.615409 90.497 161.8408
52.996681 90.471 161.6523
53.380717 90.444 161.4656
53.767536 90.418 161.2806
54.157158 90.391 161.0970
54.549603 90.365 160.9141
54.944892 90.339 160.7311
55.343045 90.313 160.5470
55.744084 90.287 160.3606
56.148028 90.263 160.1710
56.554900 90.238 159.9775
56.964720 90.214 159.7796
57.377510 90.189 159.5782
57.793291 90.165 159.3749
58.212085 90.139 159.1722
58.633914 90.114 158.9720
59.058799 90.087 158.7755
59.486764 90.061 158.5823
59.917829 90.034 158.3916
60.352019 90.006 158.2027
60.789354 89.977 158.0157
61.229859 89.947 157.8314
61.673556 89.917 157.6504
62.120468 89.885 157.4725
62.570618 89.854 157.2969
63.024031 89.822 157.1226
63.480729 89.789 156.9487
63.940736 89.757 156.7748
64.404077 89.725 156.6012
64.870776 89.692 156.4284
65.340856 89.660 156.2570
65.814343 89.628 156.0874
66.291261 89.597 155.9198
66.771635 89.566 155.7547
67.255489 89.534 155.5928
67.742850 89.503 155.4353
68.233743 89.472 155.2830
68.728193 89.441 155.1357
69.226226 89.410 154.9920
69.727867 89.379 154.8504
70.233144 89.348 154.7094
70.742083 89.317 154.5686
71.254709 89.286 154.4279
71.771050 89.254 154.2875
72.291132 89.223 154.1475
72.814984 89.191 154.0079
73.342631 89.159 153.8689
73.874102 89.128 153.7306
74.409424 89.096 153.5925
74.948626 89.065 153.4547
75.491734 89.034 153.3170
76.038779 89.003 153.1799
76.589787 88.972 153.0438
77.144788 88.941 152.9079
77.703811 88.911 152.7711
78.266885 88.880 152.6318
78.834039 88.850 152.4893
79.405303 88.820 152.3431
79.980706 88.789 152.1924
80.560280 88.758 152.0368
81.144053 88.727 151.8760
81.732056 88.694 151.7106
82.324320 88.661 151.5422
82.920876 88.626 151.3726
83.521755 88.589 151.2042
84.126988 88.550 151.0399
84.736607 88.510 150.8821
85.350643 88.469 150.7326
85.969129 88.426 150.5920
86.592097 88.383 150.4601
87.219579 88.341 150.3362
