* Measurement data measured by REW V5.30.4
* Source: EXCL: Microphone (Realtek(R) Audio), MICROPHONE (Master Volume), L, volume: 1.000
* Format: 256k Log Swept Sine, 1 sweep at -21.0 dBFS with no timing reference
* Dated: Jan 23, 2024 5:53:14 PM
* REW Settings:
*  C-weighting compensation: Off
*  Target level: 75.0 dB
* Note: Tanchjim Mino Default R
* Measurement: R Tanchjim Mino
* Smoothing: 1/12 octave
* Frequency Step: 96 ppo
* Start Frequency: 0.36621094 Hz
*
* Freq(Hz) SPL(dB) Phase(degrees)
0.366211 78.366 -14.9382
0.368865 78.390 -14.9906
0.371538 78.426 -15.0679
0.374230 78.471 -15.1632
0.376942 78.521 -15.2703
0.379673 78.575 -15.3849
0.382424 78.631 -15.5039
0.385196 78.688 -15.6257
0.387987 78.746 -15.7491
0.390798 78.805 -15.8737
0.393630 78.865 -15.9990
0.396483 78.925 -16.1250
0.399356 78.986 -16.2515
0.402250 79.047 -16.3786
0.405165 79.108 -16.5061
0.408101 79.170 -16.6341
0.411058 79.232 -16.7625
0.414037 79.295 -16.8915
0.417037 79.358 -17.0208
0.420059 79.422 -17.1507
0.423103 79.486 -17.2810
0.426169 79.551 -17.4118
0.429257 79.616 -17.5431
0.432367 79.682 -17.6749
0.435501 79.748 -17.8071
0.438656 79.815 -17.9399
0.441835 79.882 -18.0731
0.445037 79.949 -18.2069
0.448262 80.017 -18.3412
0.451510 80.086 -18.4760
0.454782 80.155 -18.6114
0.458077 80.224 -18.7474
0.461397 80.294 -18.8840
0.464740 80.365 -19.0211
0.468108 80.436 -19.1589
0.471500 80.508 -19.2973
0.474917 80.580 -19.4363
0.478358 80.652 -19.5760
0.481825 80.725 -19.7164
0.485316 80.799 -19.8576
0.488833 80.873 -19.9994
0.492375 80.948 -20.1421
0.495943 81.023 -20.2855
0.499537 81.099 -20.4298
0.503157 81.175 -20.5749
0.506803 81.252 -20.7209
0.510475 81.330 -20.8678
0.514174 81.408 -21.0156
0.517900 81.487 -21.1645
0.521653 81.566 -21.3143
0.525433 81.645 -21.4652
0.529241 81.726 -21.6172
0.533076 81.807 -21.7703
0.536939 81.888 -21.9246
0.540830 81.970 -22.0801
0.544749 82.053 -22.2368
0.548696 82.136 -22.3949
0.552673 82.220 -22.5542
0.556677 82.305 -22.7150
0.560711 82.390 -22.8772
0.564774 82.476 -23.0409
0.568867 82.562 -23.2061
0.572989 82.649 -23.3730
0.577141 82.737 -23.5414
0.581324 82.825 -23.7116
0.585536 82.914 -23.8835
0.589779 83.003 -24.0572
0.594053 83.094 -24.2328
0.598358 83.184 -24.4104
0.602694 83.276 -24.5899
0.607061 83.368 -24.7715
0.611460 83.461 -24.9553
0.615891 83.554 -25.1412
0.620354 83.649 -25.3294
0.624849 83.743 -25.5200
0.629377 83.839 -25.7129
0.633938 83.935 -25.9084
0.638532 84.032 -26.1064
0.643159 84.130 -26.3070
0.647819 84.228 -26.5104
0.652514 84.327 -26.7166
0.657242 84.427 -26.9256
0.662005 84.528 -27.1377
0.666802 84.629 -27.3528
0.671634 84.731 -27.5710
0.676501 84.834 -27.7926
0.681403 84.937 -28.0174
0.686341 85.041 -28.2457
0.691314 85.146 -28.4775
0.696324 85.252 -28.7129
0.701369 85.358 -28.9520
0.706452 85.464 -29.1949
0.711571 85.571 -29.4415
0.716727 85.678 -29.6919
0.721921 85.783 -29.9458
0.727153 85.888 -30.2031
0.732422 85.991 -30.4634
0.737729 86.091 -30.7261
0.743075 86.190 -30.9907
0.748460 86.287 -31.2568
0.753883 86.383 -31.5240
0.759346 86.479 -31.7920
0.764849 86.574 -32.0607
0.770391 86.669 -32.3299
0.775974 86.764 -32.5994
0.781597 86.859 -32.8694
0.787261 86.954 -33.1396
0.792965 87.049 -33.4101
0.798712 87.144 -33.6808
0.804499 87.239 -33.9517
0.810329 87.334 -34.2228
0.816201 87.429 -34.4941
0.822116 87.524 -34.7655
0.828073 87.619 -35.0371
0.834073 87.714 -35.3089
0.840118 87.809 -35.5808
0.846205 87.905 -35.8530
0.852337 88.000 -36.1253
0.858514 88.095 -36.3979
0.864735 88.190 -36.6707
0.871001 88.285 -36.9438
0.877313 88.381 -37.2173
0.883670 88.476 -37.4912
0.890074 88.571 -37.7655
0.896523 88.667 -38.0403
0.903020 88.762 -38.3156
0.909564 88.857 -38.5916
0.916155 88.953 -38.8682
0.922793 89.048 -39.1457
0.929480 89.143 -39.4239
0.936216 89.239 -39.7032
0.943000 89.334 -39.9834
0.949833 89.430 -40.2648
0.956716 89.526 -40.5474
0.963649 89.621 -40.8313
0.970632 89.717 -41.1167
0.977666 89.813 -41.4036
0.984750 89.908 -41.6922
0.991886 90.004 -41.9827
0.999074 90.100 -42.2751
1.006313 90.196 -42.5696
1.013605 90.292 -42.8663
1.020950 90.388 -43.1655
1.028349 90.485 -43.4672
1.035801 90.581 -43.7716
1.043306 90.677 -44.0789
1.050867 90.774 -44.3893
1.058482 90.871 -44.7030
1.066152 90.967 -45.0201
1.073878 91.064 -45.3409
1.081659 91.161 -45.6655
1.089498 91.258 -45.9941
1.097393 91.355 -46.3268
1.105345 91.452 -46.6638
1.113355 91.549 -47.0051
1.121422 91.645 -47.3505
1.129549 91.741 -47.6999
1.137734 91.837 -48.0533
1.145978 91.932 -48.4103
1.154283 92.028 -48.7709
1.162647 92.122 -49.1347
1.171072 92.217 -49.5015
1.179558 92.311 -49.8712
1.188106 92.405 -50.2436
1.196715 92.498 -50.6184
1.205387 92.591 -50.9954
1.214122 92.684 -51.3744
1.222920 92.776 -51.7553
1.231781 92.868 -52.1379
1.240708 92.960 -52.5219
1.249698 93.052 -52.9073
1.258754 93.143 -53.2938
1.267875 93.234 -53.6814
1.277063 93.324 -54.0698
1.286317 93.414 -54.4589
1.295638 93.504 -54.8486
1.305027 93.594 -55.2388
1.314484 93.684 -55.6293
1.324009 93.773 -56.0200
1.333603 93.862 -56.4107
1.343267 93.951 -56.8016
1.353001 94.040 -57.1923
1.362805 94.128 -57.5828
1.372681 94.217 -57.9731
1.382628 94.305 -58.3631
1.392647 94.393 -58.7527
1.402739 94.481 -59.1420
1.412904 94.569 -59.5309
1.423142 94.657 -59.9195
1.433455 94.745 -60.3079
1.443842 94.833 -60.6965
1.454305 94.920 -61.0855
1.464843 95.008 -61.4756
1.475458 95.095 -61.8672
1.486150 95.181 -62.2610
1.496919 95.267 -62.6573
1.507766 95.353 -63.0564
1.518692 95.438 -63.4584
1.529697 95.522 -63.8631
1.540782 95.606 -64.2704
1.551947 95.690 -64.6802
1.563193 95.772 -65.0923
1.574521 95.854 -65.5065
1.585931 95.936 -65.9226
1.597423 96.017 -66.3403
1.608998 96.097 -66.7595
1.620658 96.177 -67.1800
1.632402 96.256 -67.6015
1.644231 96.335 -68.0239
1.656146 96.413 -68.4470
1.668147 96.491 -68.8705
1.680235 96.568 -69.2944
1.692410 96.645 -69.7185
1.704674 96.722 -70.1425
1.717027 96.798 -70.5663
1.729469 96.874 -70.9899
1.742002 96.949 -71.4130
1.754625 97.024 -71.8356
1.767340 97.099 -72.2577
1.780147 97.173 -72.6792
1.793046 97.248 -73.1004
1.806040 97.321 -73.5216
1.819127 97.395 -73.9434
1.832309 97.468 -74.3664
1.845587 97.540 -74.7916
1.858961 97.612 -75.2197
1.872431 97.683 -75.6513
1.886000 97.753 -76.0866
1.899666 97.823 -76.5256
1.913432 97.891 -76.9681
1.927298 97.959 -77.4137
1.941264 98.027 -77.8621
1.955331 98.093 -78.3127
1.969500 98.159 -78.7652
1.983772 98.223 -79.2190
1.998147 98.288 -79.6735
2.012626 98.351 -80.1283
2.027211 98.414 -80.5829
2.041901 98.477 -81.0366
2.056697 98.538 -81.4890
2.071601 98.600 -81.9396
2.086613 98.660 -82.3877
2.101733 98.721 -82.8329
2.116963 98.781 -83.2747
2.132303 98.840 -83.7129
2.147755 98.899 -84.1471
2.163318 98.958 -84.5774
2.178995 99.016 -85.0040
2.194785 99.074 -85.4277
2.210689 99.131 -85.8492
2.226709 99.188 -86.2697
2.242844 99.243 -86.6897
2.259097 99.298 -87.1100
2.275467 99.352 -87.5305
2.291956 99.405 -87.9514
2.308565 99.457 -88.3725
2.325294 99.509 -88.7932
2.342144 99.559 -89.2134
2.359116 99.609 -89.6325
2.376211 99.659 -90.0501
2.393430 99.708 -90.4656
2.410774 99.756 -90.8784
2.428243 99.804 -91.2880
2.445839 99.851 -91.6939
2.463562 99.899 -92.0954
2.481415 99.945 -92.4921
2.499396 99.992 -92.8834
2.517508 100.039 -93.2690
2.535750 100.085 -93.6487
2.554126 100.131 -94.0226
2.572634 100.177 -94.3910
2.591276 100.222 -94.7543
2.610054 100.267 -95.1132
2.628967 100.312 -95.4681
2.648018 100.355 -95.8192
2.667206 100.398 -96.1668
2.686534 100.441 -96.5109
2.706002 100.483 -96.8517
2.725610 100.525 -97.1889
2.745361 100.566 -97.5226
2.765255 100.608 -97.8527
2.785294 100.649 -98.1789
2.805477 100.690 -98.5012
2.825807 100.732 -98.8192
2.846284 100.773 -99.1329
2.866909 100.815 -99.4418
2.887684 100.858 -99.7459
2.908609 100.900 -100.0447
2.929686 100.943 -100.3380
2.950916 100.987 -100.6256
2.972299 101.030 -100.9075
2.993838 101.074 -101.1838
3.015532 101.117 -101.4547
3.037384 101.161 -101.7205
3.059394 101.205 -101.9818
3.081564 101.249 -102.2389
3.103894 101.294 -102.4924
3.126386 101.339 -102.7429
3.149041 101.384 -102.9907
3.171861 101.430 -103.2364
3.194845 101.476 -103.4804
3.217996 101.523 -103.7230
3.241315 101.571 -103.9642
3.264803 101.620 -104.2041
3.288461 101.670 -104.4423
3.312291 101.720 -104.6784
3.336293 101.772 -104.9119
3.360469 101.824 -105.1426
3.384820 101.877 -105.3706
3.409348 101.931 -105.5962
3.434054 101.985 -105.8201
3.458938 102.040 -106.0433
3.484003 102.096 -106.2665
3.509250 102.153 -106.4909
3.534679 102.210 -106.7173
3.560293 102.268 -106.9468
3.586092 102.326 -107.1801
3.612079 102.385 -107.4177
3.638253 102.445 -107.6599
3.664618 102.505 -107.9067
3.691173 102.567 -108.1576
3.717921 102.629 -108.4124
3.744862 102.691 -108.6707
3.771999 102.755 -108.9325
3.799332 102.819 -109.1979
3.826864 102.883 -109.4672
3.854595 102.948 -109.7410
3.882527 103.013 -110.0197
3.910661 103.079 -110.3040
3.938999 103.144 -110.5943
3.967543 103.209 -110.8913
3.996294 103.274 -111.1954
4.025252 103.339 -111.5068
4.054421 103.404 -111.8256
4.083801 103.469 -112.1518
4.113394 103.534 -112.4850
4.143201 103.599 -112.8249
4.173225 103.663 -113.1712
4.203466 103.728 -113.5232
4.233926 103.791 -113.8808
4.264606 103.855 -114.2436
4.295509 103.917 -114.6115
4.326636 103.979 -114.9843
4.357989 104.040 -115.3622
4.389569 104.100 -115.7457
4.421378 104.159 -116.1349
4.453417 104.217 -116.5302
4.485688 104.274 -116.9314
4.518193 104.330 -117.3380
4.550934 104.386 -117.7491
4.583912 104.440 -118.1638
4.617129 104.493 -118.5808
4.650587 104.545 -118.9993
4.684287 104.595 -119.4183
4.718231 104.645 -119.8373
4.752421 104.693 -120.2564
4.786859 104.740 -120.6758
4.821547 104.785 -121.0958
4.856485 104.829 -121.5164
4.891677 104.872 -121.9373
4.927125 104.913 -122.3577
4.962829 104.953 -122.7766
4.998791 104.993 -123.1927
5.035015 105.031 -123.6050
5.071500 105.068 -124.0124
5.108251 105.104 -124.4144
5.145267 105.139 -124.8109
5.182552 105.173 -125.2019
5.220107 105.206 -125.5876
5.257934 105.238 -125.9681
5.296035 105.269 -126.3432
5.334412 105.300 -126.7125
5.373067 105.330 -127.0756
5.412003 105.360 -127.4317
5.451221 105.390 -127.7804
5.490722 105.419 -128.1212
5.530510 105.449 -128.4541
5.570587 105.478 -128.7790
5.610953 105.507 -129.0964
5.651613 105.537 -129.4069
5.692567 105.566 -129.7111
5.733818 105.597 -130.0096
5.775367 105.627 -130.3029
5.817218 105.659 -130.5914
5.859372 105.691 -130.8750
5.901831 105.724 -131.1541
5.944598 105.758 -131.4287
5.987675 105.793 -131.6996
6.031065 105.828 -131.9677
6.074768 105.865 -132.2345
6.118788 105.903 -132.5013
6.163127 105.941 -132.7692
6.207788 105.981 -133.0392
6.252772 106.021 -133.3117
6.298082 106.063 -133.5871
6.343721 106.106 -133.8657
6.389690 106.149 -134.1482
6.435992 106.194 -134.4356
6.482630 106.238 -134.7289
6.529606 106.284 -135.0291
6.576922 106.329 -135.3370
6.624581 106.375 -135.6530
6.672585 106.421 -135.9774
6.720938 106.467 -136.3100
6.769640 106.514 -136.6507
6.818696 106.559 -136.9994
6.868107 106.605 -137.3561
6.917876 106.649 -137.7209
6.968006 106.693 -138.0938
7.018499 106.736 -138.4748
7.069358 106.778 -138.8634
7.120586 106.819 -139.2589
7.172184 106.859 -139.6603
7.224157 106.898 -140.0664
7.276506 106.935 -140.4764
7.329235 106.970 -140.8897
7.382345 107.004 -141.3057
7.435841 107.037 -141.7238
7.489724 107.068 -142.1432
7.543997 107.097 -142.5626
7.598664 107.125 -142.9807
7.653728 107.152 -143.3963
7.709189 107.177 -143.8086
7.765053 107.201 -144.2169
7.821322 107.223 -144.6210
7.877998 107.245 -145.0202
7.935086 107.265 -145.4139
7.992587 107.285 -145.8013
8.050504 107.304 -146.1820
8.108841 107.323 -146.5556
8.167601 107.341 -146.9223
8.226787 107.360 -147.2821
8.286402 107.378 -147.6357
8.346449 107.396 -147.9833
8.406931 107.414 -148.3254
8.467851 107.433 -148.6624
8.529212 107.453 -148.9949
8.591018 107.473 -149.3237
8.653272 107.493 -149.6500
8.715977 107.515 -149.9749
8.779137 107.537 -150.2994
8.842754 107.559 -150.6245
8.906833 107.583 -150.9508
8.971375 107.607 -151.2792
9.036386 107.631 -151.6105
9.101867 107.656 -151.9457
9.167823 107.681 -152.2854
9.234257 107.707 -152.6301
9.301172 107.732 -152.9798
9.368572 107.757 -153.3346
9.436460 107.782 -153.6943
9.504841 107.806 -154.0587
9.573717 107.830 -154.4276
9.643092 107.853 -154.8004
9.712970 107.875 -155.1763
9.783354 107.897 -155.5545
9.854248 107.917 -155.9338
9.925656 107.936 -156.3134
9.997581 107.955 -156.6925
10.070028 107.973 -157.0701
10.143000 107.990 -157.4452
10.216500 108.006 -157.8170
10.290533 108.022 -158.1848
10.365103 108.037 -158.5480
10.440212 108.052 -158.9064
10.515866 108.068 -159.2601
10.592069 108.083 -159.6091
10.668823 108.099 -159.9538
10.746134 108.115 -160.2946
10.824005 108.132 -160.6325
10.902440 108.150 -160.9686
10.981443 108.169 -161.3043
11.061020 108.188 -161.6406
11.141172 108.209 -161.9789
11.221906 108.231 -162.3206
11.303225 108.253 -162.6671
11.385133 108.276 -163.0197
11.467634 108.300 -163.3793
11.550734 108.324 -163.7467
11.634435 108.348 -164.1224
11.718742 108.371 -164.5065
11.803661 108.395 -164.8992
11.889195 108.417 -165.2999
11.975349 108.439 -165.7076
12.062128 108.459 -166.1213
12.149535 108.479 -166.5398
12.237576 108.496 -166.9615
12.326254 108.513 -167.3847
12.415575 108.527 -167.8076
12.505544 108.541 -168.2286
12.596164 108.553 -168.6460
12.687441 108.564 -169.0586
12.779379 108.574 -169.4652
12.871984 108.583 -169.8651
12.965260 108.593 -170.2578
13.059211 108.602 -170.6437
13.153843 108.611 -171.0233
13.249161 108.621 -171.3976
13.345170 108.632 -171.7680
13.441875 108.643 -172.1363
13.539280 108.656 -172.5044
13.637391 108.669 -172.8746
13.736214 108.683 -173.2486
13.835752 108.698 -173.6284
13.936011 108.713 -174.0155
14.036998 108.728 -174.4110
14.138716 108.742 -174.8154
14.241171 108.756 -175.2284
14.344368 108.768 -175.6493
14.448313 108.779 -176.0768
14.553011 108.788 -176.5086
14.658468 108.794 -176.9421
14.764689 108.798 -177.3743
14.871680 108.799 -177.8019
14.979446 108.798 -178.2215
15.087994 108.796 -178.6300
15.197328 108.791 -179.0245
15.307454 108.785 -179.4029
15.418378 108.779 -179.7639
15.530106 108.773 179.8932
15.642643 108.768 179.5676
15.755996 108.765 179.2574
15.870171 108.763 178.9599
15.985172 108.765 178.6713
16.101007 108.769 178.3870
16.217682 108.776 178.1018
16.335201 108.786 177.8107
16.453573 108.799 177.5086
16.572803 108.814 177.1911
16.692898 108.830 176.8548
16.813862 108.848 176.4973
16.935701 108.865 176.1174
17.058424 108.880 175.7158
17.182035 108.895 175.2941
17.306543 108.906 174.8554
17.431953 108.914 174.4038
17.558273 108.919 173.9443
17.685509 108.920 173.4821
17.813665 108.918 173.0225
17.942751 108.912 172.5709
18.072771 108.904 172.1315
18.203733 108.894 171.7079
18.335646 108.882 171.3025
18.468513 108.870 170.9159
18.602345 108.859 170.5477
18.737144 108.849 170.1959
18.872921 108.841 169.8571
19.009682 108.835 169.5271
19.147434 108.833 169.2006
19.286184 108.833 168.8722
19.425940 108.837 168.5363
19.566708 108.844 168.1873
19.708496 108.853 167.8205
19.851313 108.863 167.4318
19.995163 108.875 167.0179
20.140057 108.886 166.5766
20.285999 108.897 166.1070
20.433001 108.906 165.6092
20.581066 108.912 165.0845
20.730206 108.915 164.5357
20.880424 108.912 163.9672
21.031733 108.904 163.3849
21.184137 108.890 162.7961
21.337646 108.869 162.2097
21.492268 108.842 161.6357
21.648010 108.807 161.0847
21.804880 108.767 160.5675
21.962887 108.722 160.0938
22.122040 108.674 159.6716
22.282345 108.625 159.3055
22.443811 108.578 158.9963
22.606449 108.535 158.7394
22.770266 108.499 158.5255
22.935268 108.471 158.3405
23.101467 108.452 158.1667
23.268869 108.443 157.9851
23.437485 108.442 157.7773
23.607323 108.447 157.5283
23.778391 108.455 157.2284
23.950699 108.464 156.8742
24.124256 108.470 156.4696
24.299070 108.470 156.0246
24.475151 108.464 155.5538
24.652508 108.449 155.0749
24.831150 108.427 154.6054
25.011087 108.398 154.1610
25.192327 108.365 153.7529
25.374882 108.330 153.3867
25.558758 108.296 153.0616
25.743967 108.265 152.7709
25.930519 108.238 152.5038
26.118422 108.217 152.2473
26.307686 108.200 151.9886
26.498322 108.188 151.7177
26.690340 108.178 151.4277
26.883749 108.169 151.1163
27.078560 108.160 150.7842
27.274782 108.150 150.4341
27.472427 108.140 150.0694
27.671503 108.127 149.6931
27.872023 108.114 149.3069
28.073996 108.098 148.9119
28.277431 108.081 148.5092
28.482342 108.061 148.1012
28.688736 108.038 147.6920
28.896626 108.011 147.2882
29.106022 107.981 146.8975
29.316936 107.949 146.5275
29.529379 107.915 146.1834
29.743361 107.882 145.8664
29.958893 107.851 145.5720
30.175987 107.824 145.2908
30.394655 107.800 145.0101
30.614908 107.780 144.7170
30.836756 107.762 144.4023
31.060211 107.743 144.0630
31.285286 107.721 143.7036
31.511992 107.694 143.3356
31.740341 107.661 142.9745
31.970345 107.623 142.6365
32.202015 107.582 142.3337
32.435364 107.541 142.0713
32.670403 107.502 141.8458
32.907146 107.467 141.6464
33.145607 107.437 141.4578
33.385796 107.412 141.2651
33.627724 107.390 141.0573
33.871403 107.369 140.8306
34.116848 107.346 140.5885
34.364071 107.322 140.3400
34.613087 107.295 140.0963
34.863907 107.266 139.8665
35.116547 107.238 139.6552
35.371017 107.212 139.4601
35.627331 107.190 139.2739
35.885502 107.171 139.0853
36.145542 107.156 138.8835
36.407467 107.142 138.6607
36.671291 107.129 138.4142
36.937027 107.115 138.1470
37.204689 107.098 137.8666
37.474289 107.078 137.5826
37.745842 107.055 137.3047
38.019363 107.030 137.0406
38.294868 107.004 136.7955
38.572369 106.977 136.5718
38.851879 106.952 136.3695
39.133415 106.929 136.1871
39.416992 106.909 136.0212
39.702625 106.893 135.8667
39.990326 106.881 135.7158
40.280113 106.874 135.5588
40.571999 106.871 135.3853
40.866001 106.871 135.1856
41.162132 106.872 134.9543
41.460411 106.873 134.6914
41.760849 106.872 134.4035
42.063465 106.866 134.1022
42.368275 106.857 133.8017
42.675293 106.844 133.5151
42.984535 106.831 133.2510
43.296021 106.818 133.0110
43.609760 106.809 132.7893
43.925774 106.805 132.5744
44.244080 106.805 132.3522
44.564690 106.809 132.1114
44.887623 106.815 131.8467
45.212898 106.820 131.5609
45.540531 106.824 131.2633
45.870537 106.825 130.9657
46.202934 106.826 130.6774
46.537739 106.826 130.4013
46.874969 106.828 130.1339
47.214645 106.832 129.8679
47.556782 106.835 129.5973
47.901398 106.838 129.3218
48.248512 106.839 129.0469
48.598141 106.837 128.7815
48.950302 106.834 128.5330
49.305016 106.832 128.3032
49.662300 106.831 128.0858
50.022175 106.835 127.8668
50.384655 106.842 127.6273
50.749763 106.852 127.3479
51.117516 106.862 127.0154
51.487934 106.869 126.6281
51.861038 106.869 126.1978
52.236843 106.861 125.7477
52.615372 106.847 125.3034
52.996643 106.829 124.8821
53.380680 106.812 124.4859
53.767498 106.799 124.1022
54.157120 106.791 123.7119
54.549564 106.787 123.2999
54.944855 106.784 122.8618
55.343006 106.781 122.4036
55.744045 106.777 121.9370
56.147991 106.772 121.4736
56.554863 106.767 121.0212
56.964684 106.762 120.5812
57.377472 106.760 120.1472
57.793251 106.759 119.7056
58.212044 106.760 119.2390
58.633873 106.759 118.7337
59.058758 106.752 118.1876
59.486721 106.736 117.6142
59.917786 106.710 117.0381
60.351974 106.675 116.4823
60.789310 106.636 115.9549
61.229816 106.597 115.4441
61.673512 106.558 114.9286
62.120422 106.517 114.3977
62.570572 106.471 113.8673
63.023983 106.419 113.3763
63.480682 106.366 112.9620
63.940689 106.320 112.6344
64.404030 106.288 112.3683
64.870728 106.271 112.1232
65.340805 106.267 111.8718
65.814293 106.271 111.6118
66.291214 106.281 111.3527
66.771591 106.299 111.0952
67.255447 106.323 110.8242
67.742805 106.352 110.5183
68.233696 106.382 110.1628
68.728142 106.409 109.7543
69.226173 106.431 109.2958
69.727814 106.447 108.7914
70.233093 106.455 108.2453
70.742035 106.455 107.6625
71.254662 106.448 107.0515
71.771004 106.433 106.4252
72.291084 106.412 105.7989
72.814934 106.388 105.1848
73.342583 106.365 104.5861
73.874054 106.343 103.9988
74.409378 106.324 103.4179
74.948578 106.308 102.8442
75.491684 106.292 102.2830
76.038727 106.278 101.7378
