* Measurement data measured by REW V5.31.3
* Source: EXCL: Microphone (USB Sound Device        ), MICROPHONE (Master Volume), R, volume: 0.390
* Format: 256k Log Swept Sine, 1 sweep at -15.0 dBFS with no timing reference
* Dated: Apr 26, 2025 11:24:59 PM
* REW Settings:
*  C-weighting compensation: Off
*  Target level: 75.0 dB
* Note: Tanchjim Origin R
* Measurement: R Tanchjim Origin
* Smoothing: 1/12 octave
* Frequency Step: 96 ppo
* Start Frequency: 0.36621094 Hz
*
* Freq(Hz) SPL(dB) Phase(degrees)
0.366211 94.728 156.3913
0.368865 94.722 156.3668
0.371538 94.714 156.3300
0.374230 94.703 156.2839
0.376942 94.690 156.2306
0.379673 94.677 156.1721
0.382424 94.664 156.1094
0.385196 94.649 156.0433
0.387987 94.635 155.9742
0.390798 94.621 155.9022
0.393630 94.606 155.8275
0.396483 94.591 155.7500
0.399356 94.576 155.6699
0.402250 94.561 155.5872
0.405165 94.546 155.5017
0.408101 94.531 155.4134
0.411058 94.516 155.3224
0.414037 94.500 155.2287
0.417037 94.485 155.1321
0.420059 94.469 155.0327
0.423103 94.453 154.9304
0.426169 94.437 154.8252
0.429257 94.421 154.7171
0.432368 94.405 154.6061
0.435501 94.389 154.4921
0.438656 94.372 154.3751
0.441835 94.356 154.2551
0.445037 94.339 154.1320
0.448262 94.323 154.0059
0.451510 94.306 153.8767
0.454782 94.289 153.7444
0.458077 94.272 153.6089
0.461397 94.254 153.4703
0.464740 94.237 153.3286
0.468108 94.220 153.1836
0.471500 94.202 153.0354
0.474917 94.184 152.8841
0.478358 94.166 152.7294
0.481825 94.148 152.5715
0.485316 94.130 152.4104
0.488833 94.112 152.2460
0.492375 94.094 152.0782
0.495943 94.075 151.9072
0.499537 94.057 151.7329
0.503157 94.038 151.5553
0.506803 94.019 151.3743
0.510475 94.000 151.1900
0.514175 93.981 151.0024
0.517900 93.961 150.8115
0.521653 93.942 150.6172
0.525434 93.922 150.4196
0.529241 93.902 150.2188
0.533076 93.882 150.0146
0.536939 93.862 149.8072
0.540830 93.842 149.5965
0.544749 93.822 149.3825
0.548696 93.801 149.1654
0.552673 93.781 148.9450
0.556677 93.760 148.7214
0.560711 93.739 148.4948
0.564774 93.718 148.2650
0.568867 93.697 148.0321
0.572989 93.675 147.7962
0.577141 93.654 147.5574
0.581324 93.632 147.3156
0.585536 93.610 147.0710
0.589779 93.588 146.8236
0.594053 93.566 146.5734
0.598358 93.544 146.3206
0.602694 93.521 146.0652
0.607061 93.499 145.8072
0.611460 93.476 145.5469
0.615891 93.453 145.2842
0.620354 93.430 145.0193
0.624849 93.406 144.7523
0.629377 93.383 144.4833
0.633938 93.359 144.2124
0.638532 93.335 143.9398
0.643159 93.311 143.6655
0.647819 93.287 143.3898
0.652514 93.263 143.1127
0.657242 93.238 142.8345
0.662005 93.214 142.5554
0.666802 93.189 142.2754
0.671634 93.164 141.9948
0.676501 93.138 141.7138
0.681403 93.113 141.4325
0.686341 93.087 141.1513
0.691314 93.061 140.8703
0.696324 93.035 140.5897
0.701370 93.009 140.3098
0.706452 92.982 140.0306
0.711571 92.955 139.7523
0.716728 92.927 139.4749
0.721921 92.897 139.1980
0.727153 92.867 138.9212
0.732422 92.834 138.6437
0.737729 92.799 138.3644
0.743075 92.762 138.0822
0.748460 92.724 137.7962
0.753883 92.684 137.5054
0.759346 92.643 137.2094
0.764849 92.601 136.9079
0.770391 92.559 136.6005
0.775974 92.516 136.2872
0.781597 92.473 135.9677
0.787261 92.429 135.6420
0.792966 92.384 135.3100
0.798712 92.339 134.9716
0.804500 92.293 134.6268
0.810329 92.247 134.2756
0.816201 92.200 133.9178
0.822116 92.152 133.5534
0.828073 92.104 133.1824
0.834074 92.055 132.8047
0.840118 92.005 132.4204
0.846206 91.954 132.0294
0.852338 91.903 131.6317
0.858514 91.850 131.2273
0.864735 91.797 130.8162
0.871001 91.743 130.3984
0.877313 91.688 129.9740
0.883670 91.632 129.5430
0.890074 91.575 129.1054
0.896524 91.516 128.6614
0.903020 91.457 128.2110
0.909564 91.397 127.7543
0.916155 91.335 127.2915
0.922794 91.272 126.8227
0.929481 91.207 126.3481
0.936216 91.142 125.8678
0.943000 91.075 125.3821
0.949834 91.006 124.8912
0.956717 90.936 124.3954
0.963649 90.865 123.8949
0.970632 90.791 123.3902
0.977666 90.716 122.8816
0.984750 90.640 122.3694
0.991886 90.561 121.8542
0.999074 90.481 121.3364
1.006314 90.398 120.8165
1.013606 90.314 120.2951
1.020951 90.228 119.7729
1.028349 90.139 119.2504
1.035801 90.048 118.7284
1.043307 89.955 118.2077
1.050867 89.860 117.6891
1.058482 89.762 117.1734
1.066152 89.662 116.6613
1.073878 89.559 116.1536
1.081660 89.455 115.6508
1.089498 89.348 115.1533
1.097393 89.239 114.6610
1.105345 89.130 114.1734
1.113355 89.019 113.6898
1.121423 88.908 113.2095
1.129549 88.798 112.7317
1.137734 88.687 112.2556
1.145979 88.576 111.7808
1.154283 88.464 111.3068
1.162647 88.353 110.8330
1.171072 88.240 110.3590
1.179558 88.127 109.8844
1.188106 88.013 109.4087
1.196715 87.897 108.9315
1.205387 87.779 108.4522
1.214122 87.660 107.9706
1.222920 87.538 107.4859
1.231782 87.413 106.9976
1.240708 87.285 106.5053
1.249699 87.153 106.0084
1.258754 87.017 105.5062
1.267876 86.877 104.9981
1.277063 86.732 104.4834
1.286318 86.582 103.9615
1.295639 86.427 103.4317
1.305027 86.265 102.8932
1.314484 86.096 102.3452
1.324009 85.921 101.7870
1.333604 85.737 101.2178
1.343268 85.546 100.6366
1.353002 85.346 100.0428
1.362806 85.136 99.4355
1.372681 84.917 98.8138
1.382628 84.686 98.1769
1.392647 84.445 97.5241
1.402739 84.192 96.8549
1.412904 83.926 96.1686
1.423142 83.646 95.4650
1.433455 83.351 94.7442
1.443843 83.039 94.0065
1.454305 82.708 93.2527
1.464844 82.355 92.4840
1.475459 81.977 91.7017
1.486150 81.571 90.9067
1.496920 81.133 90.0991
1.507767 80.663 89.2783
1.518693 80.160 88.4431
1.529698 79.625 87.5912
1.540783 79.060 86.7199
1.551948 78.465 85.8258
1.563194 77.842 84.9046
1.574521 77.196 83.9515
1.585931 76.527 82.9604
1.597423 75.838 81.9242
1.608999 75.134 80.8343
1.620658 74.417 79.6798
1.632402 73.691 78.4477
1.644232 72.959 77.1216
1.656146 72.226 75.6806
1.668147 71.496 74.0981
1.680235 70.774 72.3396
1.692411 70.065 70.3594
1.704675 69.374 68.0963
1.717028 68.708 65.4670
1.729470 68.072 62.3559
1.742003 67.474 58.6003
1.754626 66.921 53.9687
1.767341 66.423 48.1331
1.780147 65.986 40.6426
1.793047 65.621 30.9418
1.806040 65.337 18.5460
1.819128 65.140 3.5333
1.832310 65.040 -12.8647
1.845587 65.038 -28.5809
1.858961 65.137 -42.0633
1.872432 65.334 -52.9410
1.886001 65.625 -61.5683
1.899667 66.003 -68.4669
1.913433 66.460 -74.0859
1.927299 66.987 -78.7589
1.941265 67.577 -82.7220
1.955332 68.219 -86.1416
1.969501 68.905 -89.1357
1.983773 69.626 -91.7894
1.998148 70.372 -94.1652
2.012627 71.135 -96.3096
2.027212 71.907 -98.2579
2.041902 72.678 -100.0374
2.056698 73.441 -101.6691
2.071602 74.188 -103.1700
2.086614 74.910 -104.5538
2.101734 75.600 -105.8318
2.116964 76.253 -107.0142
2.132304 76.861 -108.1104
2.147756 77.420 -109.1305
2.163320 77.927 -110.0860
2.178996 78.381 -110.9906
2.194786 78.784 -111.8610
2.210690 79.139 -112.7149
2.226710 79.453 -113.5689
2.242845 79.729 -114.4354
2.259098 79.973 -115.3215
2.275468 80.186 -116.2298
2.291957 80.371 -117.1597
2.308566 80.531 -118.1082
2.325295 80.667 -119.0712
2.342145 80.780 -120.0438
2.359117 80.873 -121.0204
2.376212 80.948 -121.9955
2.393431 81.006 -122.9629
2.410775 81.048 -123.9165
2.428244 81.078 -124.8503
2.445840 81.098 -125.7579
2.463564 81.108 -126.6335
2.481416 81.112 -127.4719
2.499397 81.110 -128.2687
2.517509 81.105 -129.0217
2.535752 81.097 -129.7316
2.554127 81.086 -130.4027
2.572635 81.071 -131.0431
2.591277 81.049 -131.6631
2.610055 81.020 -132.2724
2.628968 80.980 -132.8783
2.648019 80.931 -133.4851
2.667208 80.869 -134.0940
2.686535 80.797 -134.7041
2.706003 80.713 -135.3128
2.725612 80.617 -135.9157
2.745363 80.510 -136.5072
2.765257 80.392 -137.0807
2.785295 80.263 -137.6279
2.805478 80.124 -138.1395
2.825808 79.974 -138.6052
2.846285 79.814 -139.0136
2.866910 79.643 -139.3528
2.887685 79.459 -139.6111
2.908611 79.262 -139.7781
2.929688 79.048 -139.8450
2.950917 78.814 -139.8053
2.972301 78.559 -139.6535
2.993839 78.281 -139.3840
3.015534 77.980 -138.9897
3.037386 77.659 -138.4615
3.059396 77.322 -137.7882
3.081565 76.973 -136.9568
3.103896 76.618 -135.9525
3.126388 76.264 -134.7591
3.149043 75.918 -133.3601
3.171862 75.589 -131.7388
3.194847 75.284 -129.8798
3.217998 75.012 -127.7695
3.241317 74.782 -125.3970
3.264805 74.601 -122.7546
3.288463 74.474 -119.8380
3.312293 74.405 -116.6487
3.336295 74.392 -113.1994
3.360471 74.435 -109.5224
3.384822 74.528 -105.6735
3.409350 74.666 -101.7299
3.434056 74.843 -97.7826
3.458940 75.054 -93.9258
3.484005 75.291 -90.2462
3.509252 75.549 -86.8148
3.534681 75.823 -83.6828
3.560295 76.106 -80.8807
3.586094 76.396 -78.4206
3.612081 76.691 -76.2993
3.638255 76.988 -74.5020
3.664620 77.291 -73.0056
3.691175 77.600 -71.7819
3.717923 77.918 -70.8011
3.744864 78.246 -70.0337
3.772001 78.582 -69.4524
3.799335 78.923 -69.0320
3.826866 79.267 -68.7501
3.854597 79.609 -68.5868
3.882529 79.944 -68.5251
3.910664 80.269 -68.5513
3.939002 80.579 -68.6546
3.967546 80.873 -68.8279
3.996296 81.146 -69.0676
4.025255 81.398 -69.3730
4.054423 81.630 -69.7450
4.083804 81.842 -70.1837
4.113396 82.035 -70.6856
4.143204 82.210 -71.2437
4.173227 82.370 -71.8481
4.203468 82.515 -72.4873
4.233928 82.645 -73.1495
4.264609 82.763 -73.8234
4.295512 82.869 -74.4998
4.326639 82.962 -75.1719
4.357992 83.045 -75.8372
4.389572 83.115 -76.4969
4.421380 83.174 -77.1559
4.453419 83.220 -77.8196
4.485691 83.254 -78.4907
4.518196 83.274 -79.1681
4.550936 83.283 -79.8468
4.583914 83.279 -80.5185
4.617131 83.265 -81.1730
4.650589 83.241 -81.7993
4.684289 83.207 -82.3869
4.718233 83.164 -82.9273
4.752424 83.111 -83.4150
4.786862 83.049 -83.8482
4.821549 82.976 -84.2277
4.856488 82.894 -84.5547
4.891680 82.802 -84.8295
4.927127 82.703 -85.0505
4.962831 82.597 -85.2144
4.998794 82.488 -85.3162
5.035017 82.377 -85.3494
5.071503 82.266 -85.3069
5.108253 82.156 -85.1810
5.145270 82.046 -84.9650
5.182555 81.939 -84.6544
5.220110 81.832 -84.2486
5.257937 81.729 -83.7514
5.296038 81.629 -83.1709
5.334415 81.537 -82.5185
5.373071 81.454 -81.8074
5.412006 81.384 -81.0508
5.451224 81.328 -80.2603
5.490725 81.290 -79.4445
5.530514 81.269 -78.6098
5.570590 81.265 -77.7628
5.610957 81.279 -76.9138
5.651616 81.308 -76.0780
5.692570 81.350 -75.2738
5.733821 81.404 -74.5212
5.775370 81.468 -73.8387
5.817221 81.542 -73.2411
5.859375 81.624 -72.7382
5.901834 81.714 -72.3341
5.944602 81.812 -72.0286
5.987679 81.916 -71.8200
6.031068 82.024 -71.7060
6.074771 82.134 -71.6849
6.118792 82.243 -71.7556
6.163131 82.348 -71.9179
6.207792 82.447 -72.1718
6.252776 82.540 -72.5169
6.298086 82.625 -72.9505
6.343725 82.704 -73.4663
6.389694 82.775 -74.0549
6.435996 82.837 -74.7050
6.482634 82.891 -75.4057
6.529610 82.936 -76.1478
6.576926 82.970 -76.9259
6.624585 82.994 -77.7373
6.672590 83.007 -78.5806
6.720942 83.010 -79.4520
6.769645 83.002 -80.3443
6.818700 82.986 -81.2472
6.868111 82.961 -82.1498
6.917881 82.927 -83.0424
6.968010 82.886 -83.9182
7.018504 82.836 -84.7739
7.069362 82.780 -85.6074
7.120590 82.718 -86.4163
7.172189 82.651 -87.1959
7.224161 82.581 -87.9403
7.276511 82.510 -88.6428
7.329239 82.439 -89.2976
7.382350 82.369 -89.9015
7.435845 82.300 -90.4543
7.489729 82.235 -90.9588
7.544002 82.175 -91.4194
7.598669 82.122 -91.8410
7.653732 82.078 -92.2277
7.709194 82.045 -92.5828
7.765058 82.022 -92.9101
7.821327 82.011 -93.2155
7.878004 82.012 -93.5084
7.935091 82.025 -93.8003
7.992592 82.050 -94.1030
8.050510 82.087 -94.4259
8.108847 82.136 -94.7756
8.167607 82.197 -95.1565
8.226793 82.267 -95.5727
8.286408 82.346 -96.0287
8.346454 82.432 -96.5289
8.406936 82.523 -97.0768
8.467856 82.618 -97.6733
8.529218 82.717 -98.3166
8.591024 82.817 -99.0026
8.653278 82.918 -99.7258
8.715983 83.019 -100.4807
8.779143 83.118 -101.2624
8.842760 83.214 -102.0662
8.906839 83.307 -102.8865
8.971381 83.397 -103.7160
9.036392 83.483 -104.5461
9.101873 83.565 -105.3685
9.167829 83.644 -106.1763
9.234263 83.719 -106.9642
9.301178 83.790 -107.7276
9.368578 83.858 -108.4612
9.436467 83.924 -109.1599
9.504847 83.989 -109.8189
9.573723 84.052 -110.4353
9.643099 84.115 -111.0079
9.712976 84.178 -111.5366
9.783361 84.243 -112.0223
9.854255 84.309 -112.4663
9.925663 84.377 -112.8702
9.997588 84.448 -113.2366
10.070035 84.522 -113.5694
10.143007 84.598 -113.8734
10.216507 84.678 -114.1535
10.290540 84.760 -114.4141
10.365109 84.845 -114.6591
10.440219 84.933 -114.8921
10.515873 85.021 -115.1167
10.592076 85.111 -115.3360
10.668830 85.201 -115.5523
10.746141 85.290 -115.7669
10.824012 85.379 -115.9801
10.902447 85.466 -116.1914
10.981451 85.551 -116.4005
11.061027 85.634 -116.6062
11.141180 85.713 -116.8073
11.221913 85.790 -117.0020
11.303232 85.864 -117.1885
11.385140 85.935 -117.3651
11.467641 86.003 -117.5309
11.550741 86.068 -117.6851
11.634442 86.130 -117.8273
11.718750 86.190 -117.9576
11.803669 86.248 -118.0766
11.889203 86.304 -118.1853
11.975357 86.358 -118.2855
12.062136 86.411 -118.3792
12.149543 86.462 -118.4683
12.237583 86.511 -118.5548
12.326262 86.558 -118.6405
12.415583 86.604 -118.7274
12.505552 86.646 -118.8167
12.596172 86.687 -118.9094
12.687449 86.725 -119.0059
12.779387 86.759 -119.1059
12.871992 86.791 -119.2092
12.965268 86.819 -119.3151
13.059220 86.845 -119.4224
13.153852 86.867 -119.5302
13.249170 86.886 -119.6374
13.345179 86.903 -119.7436
13.441884 86.917 -119.8487
13.539289 86.930 -119.9531
13.637401 86.942 -120.0577
13.736223 86.952 -120.1642
13.835761 86.962 -120.2750
13.936021 86.972 -120.3930
14.037007 86.982 -120.5212
14.138725 86.992 -120.6628
14.241180 87.003 -120.8209
14.344377 87.013 -120.9984
14.448323 87.023 -121.1974
14.553021 87.032 -121.4192
14.658478 87.041 -121.6642
14.764700 87.048 -121.9322
14.871691 87.054 -122.2216
14.979457 87.058 -122.5304
15.088005 87.061 -122.8559
15.197339 87.062 -123.1949
15.307465 87.061 -123.5443
15.418389 87.060 -123.9010
15.530117 87.058 -124.2625
15.642655 87.057 -124.6268
15.756008 87.056 -124.9927
15.870182 87.057 -125.3599
15.985184 87.061 -125.7290
16.101019 87.067 -126.1011
16.217694 87.076 -126.4778
16.335214 87.089 -126.8610
16.453586 87.105 -127.2523
16.572815 87.124 -127.6531
16.692909 87.146 -128.0640
16.813872 87.170 -128.4848
16.935713 87.197 -128.9144
17.058436 87.225 -129.3508
17.182048 87.255 -129.7913
17.306556 87.286 -130.2325
17.431967 87.317 -130.6711
17.558286 87.349 -131.1033
17.685521 87.383 -131.5259
17.813677 87.417 -131.9362
17.942762 87.452 -132.3321
18.072783 87.489 -132.7121
18.203746 87.527 -133.0757
18.335658 87.566 -133.4227
18.468526 87.607 -133.7535
18.602356 87.649 -134.0687
18.737156 87.692 -134.3691
18.872934 87.735 -134.6552
19.009695 87.779 -134.9273
19.147447 87.822 -135.1858
19.286197 87.866 -135.4306
19.425953 87.908 -135.6617
19.566721 87.950 -135.8793
19.708510 87.991 -136.0835
19.851326 88.030 -136.2748
19.995177 88.069 -136.4540
20.140070 88.106 -136.6223
20.286013 88.141 -136.7808
20.433014 88.175 -136.9309
20.581080 88.206 -137.0739
20.730219 88.236 -137.2107
20.880439 88.263 -137.3423
21.031747 88.288 -137.4692
21.184152 88.310 -137.5921
21.337661 88.330 -137.7116
21.492282 88.348 -137.8284
21.648024 88.363 -137.9435
21.804895 88.377 -138.0587
21.962902 88.389 -138.1756
22.122054 88.399 -138.2966
22.282360 88.408 -138.4237
22.443827 88.415 -138.5591
22.606464 88.421 -138.7043
22.770280 88.425 -138.8601
22.935283 88.428 -139.0268
23.101481 88.429 -139.2041
23.268884 88.429 -139.3912
23.437500 88.429 -139.5871
23.607338 88.428 -139.7910
23.778406 88.426 -140.0026
23.950714 88.426 -140.2224
24.124271 88.426 -140.4510
24.299086 88.428 -140.6898
24.475167 88.431 -140.9400
24.652524 88.436 -141.2025
24.831166 88.443 -141.4776
25.011103 88.450 -141.7645
25.192344 88.459 -142.0612
25.374898 88.469 -142.3650
25.558775 88.479 -142.6727
25.743984 88.490 -142.9804
25.930536 88.503 -143.2848
26.118439 88.516 -143.5830
26.307704 88.531 -143.8729
26.498341 88.547 -144.1531
26.690359 88.566 -144.4229
26.883768 88.585 -144.6822
27.078579 88.607 -144.9311
27.274801 88.629 -145.1698
27.472446 88.652 -145.3985
27.671522 88.676 -145.6173
27.872042 88.701 -145.8262
28.074014 88.725 -146.0255
28.277450 88.749 -146.2151
28.482360 88.772 -146.3954
28.688755 88.794 -146.5664
28.896645 88.815 -146.7284
29.106042 88.835 -146.8818
29.316957 88.853 -147.0270
29.529400 88.869 -147.1648
29.743382 88.884 -147.2962
29.958915 88.898 -147.4226
30.176009 88.910 -147.5459
30.394677 88.920 -147.6679
30.614929 88.929 -147.7906
30.836778 88.937 -147.9158
31.060234 88.944 -148.0450
31.285309 88.950 -148.1794
31.512015 88.954 -148.3202
31.740364 88.958 -148.4682
31.970368 88.962 -148.6246
32.202039 88.965 -148.7904
32.435388 88.967 -148.9664
32.670428 88.970 -149.1528
32.907171 88.972 -149.3492
33.145630 88.974 -149.5544
33.385817 88.976 -149.7663
33.627745 88.978 -149.9824
33.871425 88.980 -150.2003
34.116871 88.983 -150.4174
34.364096 88.987 -150.6322
34.613113 88.991 -150.8434
34.863934 88.997 -151.0503
35.116572 89.004 -151.2528
35.371041 89.012 -151.4507
35.627354 89.022 -151.6442
35.885525 89.032 -151.8332
36.145566 89.043 -152.0177
36.407492 89.054 -152.1975
36.671316 89.065 -152.3724
36.937051 89.076 -152.5418
37.204712 89.086 -152.7052
37.474313 89.096 -152.8621
37.745867 89.104 -153.0123
38.019389 89.112 -153.1560
38.294893 89.119 -153.2942
38.572394 89.126 -153.4280
38.851905 89.131 -153.5591
39.133442 89.136 -153.6885
39.417019 89.139 -153.8172
39.702651 89.143 -153.9460
39.990353 89.145 -154.0754
40.280140 89.147 -154.2061
40.572026 89.149 -154.3389
40.866028 89.151 -154.4748
41.162160 89.152 -154.6144
41.460438 89.154 -154.7581
41.760877 89.156 -154.9053
42.063494 89.158 -155.0554
42.368303 89.160 -155.2071
42.675322 89.162 -155.3592
42.984565 89.165 -155.5111
43.296048 89.168 -155.6622
43.609789 89.171 -155.8124
43.925804 89.175 -155.9616
44.244108 89.179 -156.1093
44.564719 89.183 -156.2548
44.887654 89.186 -156.3969
45.212928 89.189 -156.5346
45.540560 89.193 -156.6672
45.870565 89.196 -156.7949
46.202962 89.199 -156.9190
46.537768 89.201 -157.0409
46.875000 89.204 -157.1620
47.214676 89.207 -157.2832
47.556813 89.209 -157.4044
47.901429 89.210 -157.5248
48.248542 89.211 -157.6436
48.598171 89.212 -157.7607
48.950334 89.213 -157.8763
49.305048 89.214 -157.9912
49.662333 89.215 -158.1066
50.022206 89.216 -158.2228
50.384688 89.218 -158.3398
50.749796 89.219 -158.4569
51.117550 89.220 -158.5725
51.487969 89.220 -158.6853
51.861072 89.221 -158.7943
52.236879 89.221 -158.8993
52.615409 89.222 -159.0009
52.996681 89.222 -159.1003
53.380717 89.222 -159.1981
53.767536 89.223 -159.2947
54.157158 89.223 -159.3902
54.549603 89.223 -159.4846
54.944892 89.223 -159.5787
55.343045 89.223 -159.6737
55.744084 89.224 -159.7714
56.148028 89.225 -159.8735
56.554900 89.226 -159.9810
56.964720 89.227 -160.0939
57.377510 89.228 -160.2114
57.793291 89.228 -160.3317
58.212085 89.228 -160.4524
58.633914 89.227 -160.5711
59.058799 89.227 -160.6860
59.486764 89.226 -160.7966
59.917829 89.226 -160.9043
60.352019 89.226 -161.0109
60.789354 89.226 -161.1176
61.229859 89.225 -161.2246
61.673556 89.224 -161.3308
62.120468 89.222 -161.4350
62.570618 89.219 -161.5369
63.024031 89.216 -161.6370
63.480729 89.212 -161.7357
63.940736 89.208 -161.8327
64.404077 89.203 -161.9272
64.870776 89.198 -162.0190
65.340856 89.193 -162.1088
65.814343 89.189 -162.1982
66.291261 89.185 -162.2884
66.771635 89.181 -162.3795
67.255489 89.176 -162.4699
67.742850 89.171 -162.5575
68.233743 89.165 -162.6406
68.728193 89.160 -162.7191
69.226226 89.154 -162.7935
69.727867 89.149 -162.8648
70.233144 89.144 -162.9342
70.742083 89.138 -163.0030
71.254709 89.133 -163.0726
71.771050 89.128 -163.1438
72.291132 89.123 -163.2166
72.814984 89.118 -163.2903
73.342631 89.113 -163.3637
73.874102 89.108 -163.4358
74.409424 89.104 -163.5059
74.948626 89.099 -163.5737
75.491734 89.096 -163.6399
76.038779 89.092 -163.7052
76.589787 89.089 -163.7699
77.144788 89.086 -163.8339
77.703811 89.083 -163.8976
78.266885 89.079 -163.9619
78.834039 89.076 -164.0282
79.405303 89.073 -164.0979
79.980706 89.070 -164.1719
80.560280 89.066 -164.2520
81.144053 89.063 -164.3405
81.732056 89.058 -164.4388
82.324320 89.052 -164.5453
82.920876 89.045 -164.6554
83.521755 89.035 -164.7634
84.126988 89.025 -164.8643
