* Measurement data measured by REW V5.31.3
* Source: EXCL: Microphone (USB Sound Device        ), MICROPHONE (Master Volume), R, volume: 0.390
* Format: 256k Log Swept Sine, 1 sweep at -15.0 dBFS with no timing reference
* Dated: Apr 27, 2025 11:41:49 PM
* REW Settings:
*  C-weighting compensation: Off
*  Target level: 75.0 dB
* Note: Tanchjim Zero Ultima L
* Measurement: L Tanchjim Zero Ultima
* Smoothing: 1/12 octave
* Frequency Step: 96 ppo
* Start Frequency: 0.36621094 Hz
*
* Freq(Hz) SPL(dB) Phase(degrees)
0.366211 94.778 156.3183
0.368865 94.772 156.2937
0.371538 94.763 156.2569
0.374230 94.752 156.2107
0.376942 94.740 156.1573
0.379673 94.727 156.0987
0.382424 94.713 156.0359
0.385196 94.699 155.9696
0.387987 94.685 155.9003
0.390798 94.670 155.8282
0.393630 94.656 155.7533
0.396483 94.641 155.6757
0.399356 94.626 155.5955
0.402250 94.611 155.5125
0.405165 94.596 155.4268
0.408101 94.580 155.3384
0.411058 94.565 155.2472
0.414037 94.550 155.1532
0.417037 94.534 155.0564
0.420059 94.518 154.9567
0.423103 94.502 154.8542
0.426169 94.486 154.7488
0.429257 94.470 154.6404
0.432368 94.454 154.5291
0.435501 94.438 154.4148
0.438656 94.422 154.2975
0.441835 94.405 154.1772
0.445037 94.388 154.0539
0.448262 94.372 153.9275
0.451510 94.355 153.7979
0.454782 94.338 153.6653
0.458077 94.321 153.5295
0.461397 94.303 153.3905
0.464740 94.286 153.2484
0.468108 94.268 153.1031
0.471500 94.251 152.9545
0.474917 94.233 152.8028
0.478358 94.215 152.6478
0.481825 94.197 152.4895
0.485316 94.179 152.3279
0.488833 94.161 152.1630
0.492375 94.142 151.9949
0.495943 94.124 151.8234
0.499537 94.105 151.6486
0.503157 94.086 151.4705
0.506803 94.067 151.2891
0.510475 94.048 151.1043
0.514175 94.029 150.9162
0.517900 94.009 150.7248
0.521653 93.990 150.5300
0.525434 93.970 150.3319
0.529241 93.951 150.1305
0.533076 93.931 149.9258
0.536939 93.910 149.7178
0.540830 93.890 149.5066
0.544749 93.870 149.2921
0.548696 93.849 149.0743
0.552673 93.829 148.8534
0.556677 93.808 148.6292
0.560711 93.787 148.4020
0.564774 93.766 148.1716
0.568867 93.744 147.9381
0.572989 93.723 147.7016
0.577141 93.701 147.4622
0.581324 93.680 147.2198
0.585536 93.658 146.9745
0.589779 93.636 146.7265
0.594053 93.614 146.4756
0.598358 93.591 146.2222
0.602694 93.569 145.9661
0.607061 93.546 145.7075
0.611460 93.523 145.4465
0.615891 93.500 145.1832
0.620354 93.477 144.9176
0.624849 93.453 144.6499
0.629377 93.430 144.3803
0.633938 93.406 144.1087
0.638532 93.382 143.8354
0.643159 93.358 143.5605
0.647819 93.334 143.2842
0.652514 93.310 143.0065
0.657242 93.285 142.7276
0.662005 93.260 142.4478
0.666802 93.235 142.1672
0.671634 93.210 141.8860
0.676501 93.185 141.6044
0.681403 93.159 141.3226
0.686341 93.134 141.0408
0.691314 93.108 140.7592
0.696324 93.082 140.4781
0.701370 93.055 140.1976
0.706452 93.028 139.9179
0.711571 93.001 139.6392
0.716728 92.973 139.3612
0.721921 92.943 139.0839
0.727153 92.913 138.8067
0.732422 92.880 138.5288
0.737729 92.845 138.2491
0.743075 92.808 137.9666
0.748460 92.769 137.6801
0.753883 92.729 137.3889
0.759346 92.688 137.0926
0.764849 92.647 136.7906
0.770391 92.604 136.4829
0.775974 92.561 136.1691
0.781597 92.518 135.8492
0.787261 92.473 135.5231
0.792966 92.429 135.1907
0.798712 92.384 134.8519
0.804500 92.338 134.5067
0.810329 92.291 134.1550
0.816201 92.244 133.7967
0.822116 92.196 133.4319
0.828073 92.148 133.0604
0.834074 92.099 132.6823
0.840118 92.049 132.2975
0.846206 91.998 131.9061
0.852338 91.947 131.5079
0.858514 91.894 131.1030
0.864735 91.841 130.6914
0.871001 91.787 130.2731
0.877313 91.731 129.8482
0.883670 91.675 129.4167
0.890074 91.618 128.9787
0.896524 91.560 128.5342
0.903020 91.500 128.0833
0.909564 91.439 127.6261
0.916155 91.378 127.1628
0.922794 91.314 126.6936
0.929481 91.250 126.2185
0.936216 91.184 125.7377
0.943000 91.117 125.2516
0.949834 91.048 124.7602
0.956717 90.978 124.2640
0.963649 90.906 123.7632
0.970632 90.832 123.2581
0.977666 90.757 122.7491
0.984750 90.680 122.2366
0.991886 90.602 121.7211
0.999074 90.521 121.2031
1.006314 90.438 120.6830
1.013606 90.354 120.1615
1.020951 90.267 119.6391
1.028349 90.178 119.1166
1.035801 90.087 118.5947
1.043307 89.993 118.0741
1.050867 89.897 117.5557
1.058482 89.799 117.0402
1.066152 89.698 116.5285
1.073878 89.595 116.0213
1.081660 89.490 115.5192
1.089498 89.383 115.0225
1.097393 89.274 114.5310
1.105345 89.164 114.0445
1.113355 89.053 113.5621
1.121423 88.942 113.0831
1.129549 88.831 112.6068
1.137734 88.720 112.1324
1.145979 88.609 111.6594
1.154283 88.498 111.1873
1.162647 88.387 110.7156
1.171072 88.275 110.2440
1.179558 88.163 109.7719
1.188106 88.049 109.2989
1.196715 87.934 108.8246
1.205387 87.817 108.3485
1.214122 87.698 107.8701
1.222920 87.577 107.3890
1.231782 87.453 106.9046
1.240708 87.325 106.4163
1.249699 87.194 105.9237
1.258754 87.059 105.4260
1.267876 86.920 104.9228
1.277063 86.776 104.4133
1.286318 86.626 103.8969
1.295639 86.470 103.3729
1.305027 86.308 102.8406
1.314484 86.139 102.2992
1.324009 85.963 101.7480
1.333604 85.778 101.1861
1.343268 85.586 100.6128
1.353002 85.384 100.0273
1.362806 85.172 99.4287
1.372681 84.950 98.8163
1.382628 84.717 98.1893
1.392647 84.472 97.5471
1.402739 84.215 96.8889
1.412904 83.944 96.2143
1.423142 83.659 95.5232
1.433455 83.358 94.8155
1.443843 83.040 94.0919
1.454305 82.701 93.3531
1.464844 82.340 92.6006
1.475459 81.953 91.8356
1.486150 81.535 91.0593
1.496920 81.086 90.2722
1.507767 80.603 89.4737
1.518693 80.085 88.6629
1.529698 79.534 87.8377
1.540783 78.951 86.9957
1.551948 78.338 86.1338
1.563194 77.696 85.2481
1.574521 77.028 84.3340
1.585931 76.337 83.3859
1.597423 75.626 82.3973
1.608999 74.898 81.3599
1.620658 74.157 80.2638
1.632402 73.406 79.0964
1.644232 72.648 77.8419
1.656146 71.890 76.4806
1.668147 71.134 74.9863
1.680235 70.386 73.3251
1.692411 69.651 71.4512
1.704675 68.935 69.3025
1.717028 68.245 66.7920
1.729470 67.586 63.7960
1.742003 66.966 60.1337
1.754626 66.394 55.5358
1.767341 65.878 49.5968
1.780147 65.427 41.7138
1.793047 65.051 31.0673
1.806040 64.759 16.8558
1.819128 64.561 -0.7989
1.832310 64.463 -19.7267
1.845587 64.470 -36.7600
1.858961 64.582 -50.3164
1.872432 64.798 -60.6291
1.886001 65.113 -68.5155
1.899667 65.519 -74.7021
1.913433 66.008 -79.7012
1.927299 66.571 -83.8529
1.941265 67.197 -87.3822
1.955332 67.879 -90.4409
1.969501 68.605 -93.1335
1.983773 69.367 -95.5340
1.998148 70.154 -97.6958
2.012627 70.959 -99.6583
2.027212 71.770 -101.4513
2.041902 72.581 -103.0976
2.056698 73.382 -104.6150
2.071602 74.165 -106.0175
2.086614 74.921 -107.3166
2.101734 75.644 -108.5219
2.116964 76.326 -109.6421
2.132304 76.962 -110.6854
2.147756 77.545 -111.6609
2.163320 78.074 -112.5791
2.178996 78.548 -113.4533
2.194786 78.967 -114.2990
2.210690 79.337 -115.1335
2.226710 79.662 -115.9728
2.242845 79.949 -116.8286
2.259098 80.199 -117.7076
2.275468 80.418 -118.6120
2.291957 80.607 -119.5407
2.308566 80.769 -120.4908
2.325295 80.905 -121.4578
2.342145 81.018 -122.4365
2.359117 81.110 -123.4215
2.376212 81.181 -124.4069
2.393431 81.235 -125.3865
2.410775 81.274 -126.3544
2.428244 81.299 -127.3042
2.445840 81.314 -128.2299
2.463564 81.319 -129.1257
2.481416 81.318 -129.9863
2.499397 81.313 -130.8078
2.517509 81.305 -131.5880
2.535752 81.295 -132.3280
2.554127 81.283 -133.0323
2.572635 81.268 -133.7095
2.591277 81.247 -134.3702
2.610055 81.220 -135.0245
2.628968 81.184 -135.6799
2.648019 81.138 -136.3409
2.667208 81.081 -137.0089
2.686535 81.013 -137.6831
2.706003 80.933 -138.3609
2.725612 80.842 -139.0382
2.745363 80.739 -139.7094
2.765257 80.625 -140.3678
2.785295 80.498 -141.0054
2.805478 80.360 -141.6131
2.825808 80.210 -142.1805
2.846285 80.047 -142.6965
2.866910 79.871 -143.1496
2.887685 79.681 -143.5286
2.908611 79.475 -143.8238
2.929688 79.249 -144.0276
2.950917 79.001 -144.1350
2.972301 78.729 -144.1426
2.993839 78.431 -144.0462
3.015534 78.107 -143.8404
3.037386 77.761 -143.5173
3.059396 77.396 -143.0665
3.081565 77.017 -142.4753
3.103896 76.630 -141.7284
3.126388 76.241 -140.8081
3.149043 75.859 -139.6947
3.171862 75.490 -138.3668
3.194847 75.145 -136.8017
3.217998 74.831 -134.9756
3.241317 74.558 -132.8646
3.264805 74.333 -130.4449
3.288463 74.160 -127.6933
3.312293 74.044 -124.5909
3.336295 73.983 -121.1298
3.360471 73.975 -117.3245
3.384822 74.016 -113.2198
3.409350 74.103 -108.8939
3.434056 74.228 -104.4525
3.458940 74.388 -100.0180
3.484005 74.577 -95.7134
3.509252 74.791 -91.6472
3.534681 75.023 -87.9032
3.560295 75.271 -84.5358
3.586094 75.532 -81.5711
3.612081 75.804 -79.0116
3.638255 76.086 -76.8417
3.664620 76.382 -75.0335
3.691175 76.692 -73.5521
3.717923 77.019 -72.3601
3.744864 77.362 -71.4213
3.772001 77.720 -70.7020
3.799335 78.087 -70.1714
3.826866 78.460 -69.8024
3.854597 78.833 -69.5711
3.882529 79.201 -69.4572
3.910664 79.557 -69.4442
3.939002 79.896 -69.5194
3.967546 80.216 -69.6742
3.996296 80.513 -69.9039
4.025255 80.785 -70.2074
4.054423 81.034 -70.5851
4.083804 81.259 -71.0366
4.113396 81.464 -71.5579
4.143204 81.649 -72.1410
4.173227 81.816 -72.7752
4.203468 81.967 -73.4477
4.233928 82.102 -74.1456
4.264609 82.223 -74.8569
4.295512 82.331 -75.5717
4.326639 82.427 -76.2829
4.357992 82.510 -76.9877
4.389572 82.581 -77.6881
4.421380 82.638 -78.3893
4.453419 82.683 -79.0974
4.485691 82.714 -79.8157
4.518196 82.731 -80.5429
4.550936 82.734 -81.2737
4.583914 82.725 -81.9991
4.617131 82.704 -82.7081
4.650589 82.672 -83.3886
4.684289 82.629 -84.0293
4.718233 82.575 -84.6207
4.752424 82.511 -85.1572
4.786862 82.435 -85.6369
4.821549 82.348 -86.0606
4.856488 82.250 -86.4296
4.891680 82.141 -86.7440
4.927127 82.023 -87.0017
4.962831 81.898 -87.1982
4.998794 81.768 -87.3270
5.035017 81.635 -87.3803
5.071503 81.501 -87.3487
5.108253 81.366 -87.2229
5.145270 81.232 -86.9941
5.182555 81.098 -86.6564
5.220110 80.964 -86.2077
5.257937 80.832 -85.6513
5.296038 80.705 -84.9946
5.334415 80.585 -84.2493
5.373071 80.475 -83.4291
5.412006 80.379 -82.5484
5.451224 80.301 -81.6200
5.490725 80.242 -80.6540
5.530514 80.204 -79.6580
5.570590 80.187 -78.6406
5.610957 80.189 -77.6150
5.651616 80.210 -76.5998
5.692570 80.247 -75.6179
5.733821 80.297 -74.6936
5.775370 80.360 -73.8493
5.817221 80.434 -73.1034
5.859375 80.519 -72.4674
5.901834 80.613 -71.9467
5.944602 80.716 -71.5412
5.987679 80.827 -71.2489
6.031068 80.943 -71.0669
6.074771 81.061 -70.9928
6.118792 81.177 -71.0249
6.163131 81.289 -71.1624
6.207792 81.395 -71.4051
6.252776 81.492 -71.7521
6.298086 81.582 -72.2001
6.343725 81.663 -72.7418
6.389694 81.735 -73.3665
6.435996 81.798 -74.0611
6.482634 81.851 -74.8130
6.529610 81.892 -75.6119
6.576926 81.923 -76.4517
6.624585 81.941 -77.3296
6.672590 81.947 -78.2444
6.720942 81.941 -79.1919
6.769645 81.924 -80.1643
6.818700 81.897 -81.1503
6.868111 81.859 -82.1373
6.917881 81.811 -83.1144
6.968010 81.755 -84.0740
7.018504 81.689 -85.0124
7.069362 81.615 -85.9275
7.120590 81.534 -86.8161
7.172189 81.447 -87.6732
7.224161 81.357 -88.4914
7.276511 81.265 -89.2627
7.329239 81.172 -89.9800
7.382350 81.080 -90.6390
7.435845 80.990 -91.2390
7.489729 80.903 -91.7828
7.544002 80.822 -92.2751
7.598669 80.749 -92.7211
7.653732 80.687 -93.1253
7.709194 80.636 -93.4910
7.765058 80.598 -93.8224
7.821327 80.575 -94.1266
7.878004 80.565 -94.4146
7.935091 80.569 -94.7002
7.992592 80.589 -94.9976
8.050510 80.623 -95.3184
8.108847 80.671 -95.6703
8.167607 80.733 -96.0589
8.226793 80.807 -96.4891
8.286408 80.892 -96.9663
8.346454 80.985 -97.4959
8.406936 81.084 -98.0819
8.467856 81.189 -98.7254
8.529218 81.297 -99.4241
8.591024 81.408 -100.1729
8.653278 81.520 -100.9651
8.715983 81.631 -101.7942
8.779143 81.740 -102.6542
8.842760 81.846 -103.5397
8.906839 81.949 -104.4440
8.971381 82.047 -105.3584
9.036392 82.141 -106.2728
9.101873 82.231 -107.1775
9.167829 82.316 -108.0644
9.234263 82.397 -108.9274
9.301178 82.473 -109.7609
9.368578 82.546 -110.5589
9.436467 82.616 -111.3153
9.504847 82.684 -112.0243
9.573723 82.751 -112.6824
9.643099 82.816 -113.2881
9.712976 82.882 -113.8415
9.783361 82.949 -114.3433
9.854255 83.018 -114.7951
9.925663 83.089 -115.1986
9.997588 83.164 -115.5571
10.070035 83.241 -115.8753
10.143007 83.322 -116.1589
10.216507 83.407 -116.4139
10.290540 83.495 -116.6458
10.365109 83.586 -116.8593
10.440219 83.679 -117.0589
10.515873 83.775 -117.2492
10.592076 83.871 -117.4343
10.668830 83.968 -117.6169
10.746141 84.065 -117.7988
10.824012 84.161 -117.9804
10.902447 84.254 -118.1615
10.981451 84.346 -118.3416
11.061027 84.434 -118.5195
11.141180 84.519 -118.6936
11.221913 84.601 -118.8619
11.303232 84.679 -119.0219
11.385140 84.753 -119.1718
11.467641 84.824 -119.3100
11.550741 84.892 -119.4356
11.634442 84.956 -119.5478
11.718750 85.017 -119.6465
11.803669 85.076 -119.7321
11.889203 85.133 -119.8057
11.975357 85.187 -119.8692
12.062136 85.240 -119.9246
12.149543 85.290 -119.9742
12.237583 85.339 -120.0203
12.326262 85.386 -120.0650
12.415583 85.431 -120.1107
12.505552 85.473 -120.1590
12.596172 85.512 -120.2112
12.687449 85.549 -120.2677
12.779387 85.582 -120.3289
12.871992 85.613 -120.3944
12.965268 85.639 -120.4636
13.059220 85.663 -120.5356
13.153852 85.682 -120.6092
13.249170 85.699 -120.6836
13.345179 85.713 -120.7582
13.441884 85.725 -120.8329
13.539289 85.734 -120.9082
13.637401 85.742 -120.9850
13.736223 85.749 -121.0654
13.835761 85.755 -121.1518
13.936021 85.761 -121.2473
14.037007 85.767 -121.3551
14.138725 85.773 -121.4787
14.241180 85.779 -121.6216
14.344377 85.785 -121.7866
14.448323 85.791 -121.9760
14.553021 85.796 -122.1910
14.658478 85.799 -122.4322
14.764700 85.801 -122.6989
14.871691 85.802 -122.9896
14.979457 85.801 -123.3018
15.088005 85.798 -123.6325
15.197339 85.793 -123.9783
15.307465 85.787 -124.3359
15.418389 85.780 -124.7018
15.530117 85.773 -125.0736
15.642655 85.767 -125.4493
15.756008 85.762 -125.8278
15.870182 85.759 -126.2091
15.985184 85.759 -126.5940
16.101019 85.762 -126.9839
16.217694 85.769 -127.3809
16.335214 85.780 -127.7868
16.453586 85.795 -128.2036
16.572815 85.813 -128.6325
16.692909 85.834 -129.0737
16.813872 85.858 -129.5265
16.935713 85.885 -129.9893
17.058436 85.913 -130.4592
17.182048 85.942 -130.9326
17.306556 85.973 -131.4054
17.431967 86.005 -131.8732
17.558286 86.037 -132.3317
17.685521 86.071 -132.7773
17.813677 86.106 -133.2068
17.942762 86.143 -133.6183
18.072783 86.181 -134.0104
18.203746 86.222 -134.3828
18.335658 86.264 -134.7360
18.468526 86.308 -135.0708
18.602356 86.353 -135.3884
18.737156 86.399 -135.6897
18.872934 86.447 -135.9755
19.009695 86.494 -136.2463
19.147447 86.541 -136.5022
19.286197 86.588 -136.7429
19.425953 86.634 -136.9682
19.566721 86.679 -137.1776
19.708510 86.722 -137.3713
19.851326 86.764 -137.5495
19.995177 86.804 -137.7131
20.140070 86.843 -137.8634
20.286013 86.880 -138.0018
20.433014 86.915 -138.1302
20.581080 86.948 -138.2504
20.730219 86.979 -138.3638
20.880439 87.007 -138.4718
21.031747 87.032 -138.5753
21.184152 87.055 -138.6752
21.337661 87.075 -138.7722
21.492282 87.092 -138.8670
21.648024 87.107 -138.9609
21.804895 87.120 -139.0555
21.962902 87.131 -139.1528
22.122054 87.139 -139.2552
22.282360 87.146 -139.3653
22.443827 87.152 -139.4853
22.606464 87.156 -139.6173
22.770280 87.158 -139.7624
22.935283 87.159 -139.9211
23.101481 87.157 -140.0931
23.268884 87.155 -140.2775
23.437500 87.151 -140.4731
23.607338 87.147 -140.6788
23.778406 87.143 -140.8940
23.950714 87.139 -141.1185
24.124271 87.136 -141.3528
24.299086 87.134 -141.5979
24.475167 87.134 -141.8550
24.652524 87.136 -142.1247
24.831166 87.140 -142.4073
25.011103 87.146 -142.7021
25.192344 87.153 -143.0072
25.374898 87.161 -143.3201
25.558775 87.171 -143.6373
25.743984 87.182 -143.9556
25.930536 87.195 -144.2713
26.118439 87.209 -144.5818
26.307704 87.225 -144.8849
26.498341 87.243 -145.1790
26.690359 87.263 -145.4633
26.883768 87.284 -145.7370
27.078579 87.307 -145.9999
27.274801 87.331 -146.2513
27.472446 87.355 -146.4908
27.671522 87.381 -146.7179
27.872042 87.406 -146.9320
28.074014 87.430 -147.1330
28.277450 87.455 -147.3210
28.482360 87.479 -147.4962
28.688755 87.501 -147.6592
28.896645 87.523 -147.8109
29.106042 87.543 -147.9520
29.316957 87.562 -148.0839
29.529400 87.579 -148.2077
29.743382 87.594 -148.3251
29.958915 87.608 -148.4382
30.176009 87.620 -148.5492
30.394677 87.631 -148.6603
30.614929 87.639 -148.7737
30.836778 87.647 -148.8911
31.060234 87.652 -149.0140
31.285309 87.657 -149.1432
31.512015 87.659 -149.2794
31.740364 87.661 -149.4231
31.970368 87.662 -149.5748
32.202039 87.662 -149.7354
32.435388 87.663 -149.9052
32.670428 87.663 -150.0847
32.907171 87.663 -150.2738
33.145630 87.664 -150.4717
33.385817 87.665 -150.6770
33.627745 87.667 -150.8882
33.871425 87.669 -151.1036
34.116871 87.673 -151.3217
34.364096 87.678 -151.5414
34.613113 87.684 -151.7616
34.863934 87.691 -151.9814
35.116572 87.699 -152.1997
35.371041 87.708 -152.4150
35.627354 87.718 -152.6260
35.885525 87.728 -152.8309
36.145566 87.739 -153.0286
36.407492 87.749 -153.2181
36.671316 87.760 -153.3987
36.937051 87.770 -153.5700
37.204712 87.780 -153.7321
37.474313 87.789 -153.8849
37.745867 87.798 -154.0292
38.019389 87.806 -154.1659
38.294893 87.813 -154.2965
38.572394 87.819 -154.4229
38.851905 87.825 -154.5470
39.133442 87.830 -154.6702
39.417019 87.834 -154.7936
39.702651 87.837 -154.9176
39.990353 87.839 -155.0424
40.280140 87.840 -155.1683
40.572026 87.841 -155.2960
40.866028 87.842 -155.4265
41.162160 87.843 -155.5611
41.460438 87.844 -155.7010
41.760877 87.846 -155.8463
42.063494 87.847 -155.9968
42.368303 87.848 -156.1509
42.675322 87.849 -156.3066
42.984565 87.849 -156.4618
43.296048 87.850 -156.6146
43.609789 87.851 -156.7639
43.925804 87.853 -156.9097
44.244108 87.855 -157.0525
44.564719 87.857 -157.1931
44.887654 87.860 -157.3323
45.212928 87.863 -157.4701
45.540560 87.865 -157.6062
45.870565 87.867 -157.7399
46.202962 87.869 -157.8710
46.537768 87.870 -157.9993
46.875000 87.871 -158.1256
47.214676 87.873 -158.2507
47.556813 87.874 -158.3753
47.901429 87.874 -158.5000
48.248542 87.875 -158.6247
48.598171 87.875 -158.7491
48.950334 87.876 -158.8727
49.305048 87.876 -158.9952
49.662333 87.876 -159.1164
50.022206 87.877 -159.2361
50.384688 87.877 -159.3545
50.749796 87.878 -159.4712
51.117550 87.878 -159.5858
51.487969 87.879 -159.6977
51.861072 87.879 -159.8059
52.236879 87.879 -159.9100
52.615409 87.879 -160.0097
52.996681 87.878 -160.1052
53.380717 87.878 -160.1975
53.767536 87.877 -160.2880
54.157158 87.877 -160.3783
54.549603 87.877 -160.4698
54.944892 87.877 -160.5635
55.343045 87.877 -160.6600
55.744084 87.876 -160.7595
56.148028 87.877 -160.8623
56.554900 87.877 -160.9688
56.964720 87.878 -161.0792
57.377510 87.879 -161.1934
57.793291 87.881 -161.3107
58.212085 87.882 -161.4302
58.633914 87.884 -161.5515
59.058799 87.885 -161.6743
59.486764 87.886 -161.7979
59.917829 87.886 -161.9208
60.352019 87.884 -162.0403
60.789354 87.882 -162.1540
61.229859 87.879 -162.2603
61.673556 87.874 -162.3597
62.120468 87.870 -162.4541
62.570618 87.865 -162.5460
63.024031 87.859 -162.6369
63.480729 87.853 -162.7275
63.940736 87.847 -162.8175
64.404077 87.841 -162.9065
64.870776 87.835 -162.9953
65.340856 87.829 -163.0853
65.814343 87.824 -163.1779
66.291261 87.820 -163.2729
66.771635 87.815 -163.3689
67.255489 87.810 -163.4632
67.742850 87.805 -163.5535
68.233743 87.801 -163.6394
68.728193 87.796 -163.7214
69.226226 87.792 -163.8008
69.727867 87.788 -163.8784
70.233144 87.783 -163.9543
70.742083 87.778 -164.0284
71.254709 87.772 -164.1006
71.771050 87.766 -164.1712
72.291132 87.760 -164.2409
72.814984 87.755 -164.3107
73.342631 87.749 -164.3813
73.874102 87.743 -164.4529
74.409424 87.738 -164.5249
74.948626 87.732 -164.5966
75.491734 87.728 -164.6677
76.038779 87.723 -164.7384
76.589787 87.719 -164.8095
77.144788 87.715 -164.8819
77.703811 87.711 -164.9562
78.266885 87.706 -165.0329
78.834039 87.702 -165.1125
79.405303 87.697 -165.1961
79.980706 87.692 -165.2849
80.560280 87.687 -165.3796
81.144053 87.680 -165.4800
81.732056 87.672 -165.5849
82.324320 87.664 -165.6920
82.920876 87.654 -165.7985
83.521755 87.642 -165.9019
