* Measurement data measured by REW V5.30.4
* Source: EXCL: Microphone (Realtek(R) Audio), MICROPHONE (Master Volume), L, volume: 1.000
* Format: 256k Log Swept Sine, 1 sweep at -21.0 dBFS with no timing reference
* Dated: Jan 23, 2024 5:57:11 PM
* REW Settings:
*  C-weighting compensation: Off
*  Target level: 75.0 dB
* Note: Tanchjim Mino Popular L
* Measurement: L Tanchjim Mino Popular
* Smoothing: 1/12 octave
* Frequency Step: 96 ppo
* Start Frequency: 0.36621094 Hz
*
* Freq(Hz) SPL(dB) Phase(degrees)
0.366211 79.477 -10.0445
0.368865 79.498 -10.0880
0.371538 79.528 -10.1524
0.374230 79.565 -10.2318
0.376942 79.607 -10.3213
0.379673 79.653 -10.4171
0.382424 79.700 -10.5170
0.385196 79.748 -10.6194
0.387987 79.797 -10.7235
0.390798 79.846 -10.8288
0.393630 79.896 -10.9351
0.396483 79.947 -11.0422
0.399356 79.998 -11.1501
0.402250 80.049 -11.2587
0.405165 80.101 -11.3681
0.408101 80.153 -11.4781
0.411058 80.205 -11.5889
0.414037 80.258 -11.7004
0.417037 80.311 -11.8127
0.420059 80.365 -11.9256
0.423103 80.419 -12.0394
0.426169 80.473 -12.1538
0.429257 80.528 -12.2690
0.432367 80.583 -12.3850
0.435501 80.639 -12.5018
0.438656 80.695 -12.6193
0.441835 80.751 -12.7376
0.445037 80.808 -12.8567
0.448262 80.865 -12.9767
0.451510 80.923 -13.0974
0.454782 80.981 -13.2190
0.458077 81.039 -13.3414
0.461397 81.098 -13.4647
0.464740 81.157 -13.5889
0.468108 81.217 -13.7140
0.471500 81.277 -13.8399
0.474917 81.338 -13.9668
0.478358 81.399 -14.0947
0.481825 81.460 -14.2235
0.485316 81.522 -14.3532
0.488833 81.584 -14.4840
0.492375 81.647 -14.6158
0.495943 81.710 -14.7486
0.499537 81.774 -14.8825
0.503157 81.838 -15.0175
0.506803 81.903 -15.1535
0.510475 81.968 -15.2908
0.514174 82.034 -15.4291
0.517900 82.100 -15.5687
0.521653 82.166 -15.7095
0.525433 82.233 -15.8515
0.529241 82.301 -15.9948
0.533076 82.369 -16.1394
0.536939 82.437 -16.2854
0.540830 82.506 -16.4327
0.544749 82.576 -16.5815
0.548696 82.646 -16.7316
0.552673 82.716 -16.8833
0.556677 82.788 -17.0365
0.560711 82.859 -17.1912
0.564774 82.931 -17.3475
0.568867 83.004 -17.5055
0.572989 83.077 -17.6651
0.577141 83.150 -17.8265
0.581324 83.225 -17.9896
0.585536 83.299 -18.1546
0.589779 83.375 -18.3214
0.594053 83.450 -18.4901
0.598358 83.527 -18.6608
0.602694 83.604 -18.8336
0.607061 83.681 -19.0083
0.611460 83.759 -19.1852
0.615891 83.838 -19.3643
0.620354 83.917 -19.5457
0.624849 83.997 -19.7293
0.629377 84.077 -19.9153
0.633938 84.158 -20.1037
0.638532 84.239 -20.2946
0.643159 84.321 -20.4880
0.647819 84.404 -20.6841
0.652514 84.487 -20.8829
0.657242 84.571 -21.0844
0.662005 84.656 -21.2888
0.666802 84.741 -21.4960
0.671634 84.826 -21.7063
0.676501 84.913 -21.9196
0.681403 85.000 -22.1361
0.686341 85.087 -22.3558
0.691314 85.175 -22.5788
0.696324 85.264 -22.8052
0.701369 85.353 -23.0351
0.706452 85.443 -23.2684
0.711571 85.533 -23.5053
0.716727 85.623 -23.7457
0.721921 85.713 -23.9894
0.727153 85.802 -24.2364
0.732422 85.890 -24.4861
0.737729 85.977 -24.7384
0.743075 86.063 -24.9926
0.748460 86.148 -25.2484
0.753883 86.233 -25.5055
0.759346 86.317 -25.7636
0.764849 86.402 -26.0227
0.770391 86.486 -26.2825
0.775974 86.571 -26.5431
0.781597 86.656 -26.8043
0.787261 86.741 -27.0661
0.792965 86.826 -27.3284
0.798712 86.912 -27.5913
0.804499 86.998 -27.8547
0.810329 87.084 -28.1186
0.816201 87.170 -28.3829
0.822116 87.257 -28.6476
0.828073 87.343 -28.9128
0.834073 87.430 -29.1784
0.840118 87.517 -29.4445
0.846205 87.605 -29.7110
0.852337 87.692 -29.9779
0.858514 87.780 -30.2453
0.864735 87.868 -30.5132
0.871001 87.956 -30.7816
0.877313 88.044 -31.0506
0.883670 88.133 -31.3201
0.890074 88.222 -31.5902
0.896523 88.311 -31.8610
0.903020 88.400 -32.1324
0.909564 88.489 -32.4047
0.916155 88.578 -32.6777
0.922793 88.668 -32.9516
0.929480 88.758 -33.2264
0.936216 88.848 -33.5023
0.943000 88.938 -33.7792
0.949833 89.028 -34.0572
0.956716 89.118 -34.3366
0.963649 89.209 -34.6172
0.970632 89.299 -34.8993
0.977666 89.390 -35.1829
0.984750 89.481 -35.4681
0.991886 89.572 -35.7551
0.999074 89.663 -36.0440
1.006313 89.755 -36.3348
1.013605 89.846 -36.6277
1.020950 89.937 -36.9229
1.028349 90.029 -37.2205
1.035801 90.121 -37.5205
1.043306 90.212 -37.8233
1.050867 90.304 -38.1289
1.058482 90.396 -38.4374
1.066152 90.488 -38.7491
1.073878 90.580 -39.0641
1.081659 90.672 -39.3826
1.089498 90.764 -39.7047
1.097393 90.857 -40.0304
1.105345 90.949 -40.3599
1.113355 91.040 -40.6932
1.121422 91.132 -41.0300
1.129549 91.224 -41.3704
1.137734 91.315 -41.7141
1.145978 91.407 -42.0611
1.154283 91.498 -42.4111
1.162647 91.589 -42.7640
1.171072 91.680 -43.1195
1.179558 91.770 -43.4775
1.188106 91.861 -43.8379
1.196715 91.951 -44.2004
1.205387 92.041 -44.5650
1.214122 92.131 -44.9314
1.222920 92.221 -45.2995
1.231781 92.310 -45.6692
1.240708 92.400 -46.0402
1.249698 92.489 -46.4126
1.258754 92.578 -46.7860
1.267875 92.667 -47.1605
1.277063 92.756 -47.5359
1.286317 92.844 -47.9120
1.295638 92.933 -48.2889
1.305027 93.021 -48.6662
1.314484 93.109 -49.0441
1.324009 93.198 -49.4223
1.333603 93.286 -49.8008
1.343267 93.373 -50.1795
1.353001 93.461 -50.5583
1.362805 93.549 -50.9372
1.372681 93.637 -51.3161
1.382628 93.724 -51.6950
1.392647 93.812 -52.0737
1.402739 93.900 -52.4524
1.412904 93.987 -52.8310
1.423142 94.075 -53.2096
1.433455 94.162 -53.5882
1.443842 94.249 -53.9671
1.454305 94.337 -54.3465
1.464843 94.424 -54.7268
1.475458 94.511 -55.1085
1.486150 94.597 -55.4920
1.496919 94.684 -55.8775
1.507766 94.769 -56.2652
1.518692 94.855 -56.6552
1.529697 94.940 -57.0474
1.540782 95.024 -57.4417
1.551947 95.109 -57.8380
1.563193 95.192 -58.2362
1.574521 95.276 -58.6362
1.585931 95.358 -59.0378
1.597423 95.441 -59.4408
1.608998 95.523 -59.8452
1.620658 95.604 -60.2508
1.632402 95.686 -60.6574
1.644231 95.767 -61.0650
1.656146 95.847 -61.4734
1.668147 95.927 -61.8826
1.680235 96.007 -62.2924
1.692410 96.087 -62.7026
1.704674 96.166 -63.1133
1.717027 96.245 -63.5243
1.729469 96.324 -63.9355
1.742002 96.402 -64.3470
1.754625 96.480 -64.7586
1.767340 96.558 -65.1704
1.780147 96.636 -65.5824
1.793046 96.714 -65.9948
1.806040 96.791 -66.4078
1.819127 96.868 -66.8220
1.832309 96.945 -67.2378
1.845587 97.021 -67.6559
1.858961 97.097 -68.0769
1.872431 97.173 -68.5011
1.886000 97.247 -68.9287
1.899666 97.322 -69.3596
1.913432 97.395 -69.7936
1.927298 97.468 -70.2306
1.941264 97.540 -70.6701
1.955331 97.612 -71.1117
1.969500 97.683 -71.5552
1.983772 97.754 -72.0000
1.998147 97.824 -72.4459
2.012626 97.893 -72.8923
2.027211 97.962 -73.3389
2.041901 98.031 -73.7854
2.056697 98.099 -74.2312
2.071601 98.167 -74.6760
2.086613 98.234 -75.1194
2.101733 98.301 -75.5611
2.116963 98.368 -76.0007
2.132303 98.434 -76.4381
2.147755 98.500 -76.8730
2.163318 98.566 -77.3056
2.178995 98.632 -77.7361
2.194785 98.697 -78.1650
2.210689 98.761 -78.5932
2.226709 98.825 -79.0214
2.242844 98.889 -79.4501
2.259097 98.951 -79.8798
2.275467 99.013 -80.3107
2.291956 99.075 -80.7425
2.308565 99.136 -81.1753
2.325294 99.196 -81.6085
2.342144 99.255 -82.0421
2.359116 99.314 -82.4754
2.376211 99.372 -82.9083
2.393430 99.430 -83.3402
2.410774 99.488 -83.7707
2.428243 99.545 -84.1993
2.445839 99.601 -84.6257
2.463562 99.657 -85.0495
2.481415 99.714 -85.4702
2.499396 99.769 -85.8876
2.517508 99.825 -86.3013
2.535750 99.880 -86.7115
2.554126 99.935 -87.1184
2.572634 99.990 -87.5222
2.591276 100.044 -87.9235
2.610054 100.098 -88.3229
2.628967 100.151 -88.7206
2.648018 100.203 -89.1171
2.667206 100.256 -89.5122
2.686534 100.307 -89.9060
2.706002 100.358 -90.2984
2.725610 100.409 -90.6892
2.745361 100.459 -91.0783
2.765255 100.509 -91.4654
2.785294 100.558 -91.8503
2.805477 100.608 -92.2327
2.825807 100.657 -92.6124
2.846284 100.706 -92.9892
2.866909 100.755 -93.3628
2.887684 100.804 -93.7331
2.908609 100.853 -94.1000
2.929686 100.902 -94.4636
2.950916 100.951 -94.8239
2.972299 101.000 -95.1812
2.993838 101.048 -95.5357
3.015532 101.096 -95.8876
3.037384 101.144 -96.2370
3.059394 101.192 -96.5841
3.081564 101.239 -96.9289
3.103894 101.286 -97.2714
3.126386 101.334 -97.6118
3.149041 101.381 -97.9499
3.171861 101.428 -98.2859
3.194845 101.475 -98.6197
3.217996 101.522 -98.9513
3.241315 101.570 -99.2806
3.264803 101.617 -99.6076
3.288461 101.665 -99.9321
3.312291 101.713 -100.2540
3.336293 101.761 -100.5734
3.360469 101.809 -100.8901
3.384820 101.857 -101.2045
3.409348 101.906 -101.5165
3.434054 101.954 -101.8266
3.458938 102.002 -102.1348
3.484003 102.051 -102.4414
3.509250 102.099 -102.7469
3.534679 102.148 -103.0513
3.560293 102.196 -103.3551
3.586092 102.245 -103.6583
3.612079 102.294 -103.9612
3.638253 102.343 -104.2639
3.664618 102.392 -104.5664
3.691173 102.442 -104.8685
3.717921 102.491 -105.1702
3.744862 102.541 -105.4715
3.771999 102.591 -105.7724
3.799332 102.641 -106.0728
3.826864 102.691 -106.3729
3.854595 102.741 -106.6727
3.882527 102.791 -106.9725
3.910661 102.841 -107.2722
3.938999 102.891 -107.5720
3.967543 102.941 -107.8722
3.996294 102.991 -108.1727
4.025252 103.041 -108.4738
4.054421 103.091 -108.7754
4.083801 103.141 -109.0775
4.113394 103.191 -109.3802
4.143201 103.241 -109.6832
4.173225 103.290 -109.9866
4.203466 103.340 -110.2902
4.233926 103.390 -110.5938
4.264606 103.439 -110.8973
4.295509 103.488 -111.2006
4.326636 103.537 -111.5037
4.357989 103.586 -111.8066
4.389569 103.634 -112.1094
4.421378 103.682 -112.4120
4.453417 103.730 -112.7147
4.485688 103.778 -113.0174
4.518193 103.826 -113.3199
4.550934 103.873 -113.6221
4.583912 103.920 -113.9237
4.617129 103.967 -114.2244
4.650587 104.013 -114.5239
4.684287 104.060 -114.8218
4.718231 104.106 -115.1181
4.752421 104.152 -115.4126
4.786859 104.198 -115.7053
4.821547 104.244 -115.9963
4.856485 104.290 -116.2857
4.891677 104.335 -116.5734
4.927125 104.380 -116.8595
4.962829 104.425 -117.1439
4.998791 104.471 -117.4264
5.035015 104.516 -117.7071
5.071500 104.561 -117.9856
5.108251 104.607 -118.2619
5.145267 104.652 -118.5360
5.182552 104.698 -118.8078
5.220107 104.744 -119.0774
5.257934 104.790 -119.3451
5.296035 104.836 -119.6113
5.334412 104.883 -119.8762
5.373067 104.930 -120.1402
5.412003 104.977 -120.4037
5.451221 105.024 -120.6667
5.490722 105.073 -120.9293
5.530510 105.121 -121.1917
5.570587 105.170 -121.4538
5.610953 105.220 -121.7160
5.651613 105.269 -121.9786
5.692567 105.320 -122.2424
5.733818 105.371 -122.5079
5.775367 105.422 -122.7757
5.817218 105.473 -123.0464
5.859372 105.525 -123.3203
5.901831 105.578 -123.5974
5.944598 105.631 -123.8779
5.987675 105.684 -124.1620
6.031065 105.738 -124.4501
6.074768 105.791 -124.7425
6.118788 105.845 -125.0398
6.163127 105.899 -125.3425
6.207788 105.953 -125.6510
6.252772 106.007 -125.9654
6.298082 106.060 -126.2859
6.343721 106.114 -126.6124
6.389690 106.167 -126.9448
6.435992 106.220 -127.2828
6.482630 106.272 -127.6265
6.529606 106.324 -127.9758
6.576922 106.375 -128.3308
6.624581 106.425 -128.6914
6.672585 106.475 -129.0576
6.720938 106.523 -129.4289
6.769640 106.571 -129.8049
6.818696 106.617 -130.1849
6.868107 106.663 -130.5681
6.917876 106.707 -130.9539
6.968006 106.750 -131.3422
7.018499 106.792 -131.7325
7.069358 106.832 -132.1246
7.120586 106.872 -132.5178
7.172184 106.909 -132.9111
7.224157 106.946 -133.3035
7.276506 106.981 -133.6942
7.329235 107.015 -134.0826
7.382345 107.048 -134.4681
7.435841 107.079 -134.8504
7.489724 107.109 -135.2291
7.543997 107.139 -135.6035
7.598664 107.167 -135.9727
7.653728 107.194 -136.3362
7.709189 107.221 -136.6933
7.765053 107.246 -137.0439
7.821322 107.272 -137.3877
7.877998 107.296 -137.7248
7.935086 107.321 -138.0551
7.992587 107.345 -138.3784
8.050504 107.369 -138.6947
8.108841 107.393 -139.0040
8.167601 107.417 -139.3065
8.226787 107.442 -139.6027
8.286402 107.467 -139.8931
8.346449 107.492 -140.1785
8.406931 107.518 -140.4594
8.467851 107.545 -140.7362
8.529212 107.572 -141.0096
8.591018 107.600 -141.2803
8.653272 107.629 -141.5493
8.715977 107.659 -141.8176
8.779137 107.689 -142.0860
8.842754 107.721 -142.3554
8.906833 107.753 -142.6263
8.971375 107.785 -142.8994
9.036386 107.819 -143.1755
9.101867 107.853 -143.4555
9.167823 107.887 -143.7398
9.234257 107.922 -144.0291
9.301172 107.958 -144.3236
9.368572 107.993 -144.6235
9.436460 108.028 -144.9290
9.504841 108.064 -145.2404
9.573717 108.099 -145.5577
9.643092 108.134 -145.8809
9.712970 108.169 -146.2095
9.783354 108.203 -146.5435
9.854248 108.236 -146.8823
9.925656 108.269 -147.2257
9.997581 108.302 -147.5732
10.070028 108.333 -147.9243
10.143000 108.364 -148.2785
10.216500 108.394 -148.6352
10.290533 108.423 -148.9938
10.365103 108.451 -149.3537
10.440212 108.479 -149.7146
10.515866 108.506 -150.0758
10.592069 108.532 -150.4368
10.668823 108.557 -150.7973
10.746134 108.581 -151.1568
10.824005 108.606 -151.5150
10.902440 108.629 -151.8718
10.981443 108.652 -152.2268
11.061020 108.675 -152.5799
11.141172 108.697 -152.9310
11.221906 108.719 -153.2802
11.303225 108.740 -153.6274
11.385133 108.762 -153.9727
11.467634 108.783 -154.3163
11.550734 108.804 -154.6582
11.634435 108.826 -154.9987
11.718742 108.847 -155.3378
11.803661 108.868 -155.6758
11.889195 108.889 -156.0128
11.975349 108.909 -156.3489
12.062128 108.930 -156.6844
12.149535 108.951 -157.0192
12.237576 108.972 -157.3536
12.326254 108.993 -157.6874
12.415575 109.014 -158.0208
12.505544 109.034 -158.3537
12.596164 109.055 -158.6861
12.687441 109.075 -159.0181
12.779379 109.096 -159.3494
12.871984 109.116 -159.6802
12.965260 109.137 -160.0103
13.059211 109.158 -160.3399
13.153843 109.178 -160.6690
13.249161 109.199 -160.9977
13.345170 109.220 -161.3262
13.441875 109.241 -161.6547
13.539280 109.262 -161.9836
13.637391 109.283 -162.3132
13.736214 109.305 -162.6439
13.835752 109.327 -162.9763
13.936011 109.348 -163.3107
14.036998 109.370 -163.6479
14.138716 109.392 -163.9880
14.241171 109.414 -164.3317
14.344368 109.436 -164.6792
14.448313 109.458 -165.0306
14.553011 109.479 -165.3861
14.658468 109.500 -165.7455
14.764689 109.520 -166.1085
14.871680 109.539 -166.4746
14.979446 109.557 -166.8431
15.087994 109.575 -167.2132
15.197328 109.591 -167.5838
15.307454 109.606 -167.9540
15.418378 109.620 -168.3226
15.530106 109.633 -168.6885
15.642643 109.645 -169.0509
15.755996 109.657 -169.4088
15.870171 109.668 -169.7619
15.985172 109.678 -170.1098
16.101007 109.688 -170.4526
16.217682 109.699 -170.7908
16.335201 109.709 -171.1250
16.453573 109.720 -171.4562
16.572803 109.731 -171.7858
16.692898 109.743 -172.1149
16.813862 109.755 -172.4449
16.935701 109.767 -172.7769
17.058424 109.779 -173.1119
17.182035 109.792 -173.4504
17.306543 109.804 -173.7924
17.431953 109.816 -174.1378
17.558273 109.826 -174.4857
17.685509 109.837 -174.8350
17.813665 109.846 -175.1844
17.942751 109.855 -175.5323
18.072771 109.862 -175.8773
18.203733 109.870 -176.2186
18.335646 109.877 -176.5553
18.468513 109.885 -176.8877
18.602345 109.893 -177.2165
18.737144 109.902 -177.5431
18.872921 109.912 -177.8697
19.009682 109.923 -178.1988
19.147434 109.935 -178.5332
19.286184 109.948 -178.8754
19.425940 109.962 -179.2275
19.566708 109.975 -179.5907
19.708496 109.988 -179.9653
19.851313 110.000 179.6498
19.995163 110.010 179.2569
20.140057 110.019 178.8591
20.285999 110.025 178.4607
20.433001 110.029 178.0660
20.581066 110.031 177.6793
20.730206 110.032 177.3040
20.880424 110.032 176.9424
21.031733 110.033 176.5952
21.184137 110.034 176.2609
21.337646 110.038 175.9365
21.492268 110.044 175.6172
21.648010 110.053 175.2972
21.804880 110.065 174.9702
21.962887 110.079 174.6307
22.122040 110.094 174.2742
22.282345 110.109 173.8983
22.443811 110.123 173.5033
22.606449 110.136 173.0918
22.770266 110.145 172.6687
22.935268 110.151 172.2410
23.101467 110.153 171.8163
23.268869 110.151 171.4024
23.437485 110.148 171.0060
23.607323 110.142 170.6318
23.778391 110.137 170.2817
23.950699 110.133 169.9546
24.124256 110.131 169.6461
24.299070 110.133 169.3494
24.475151 110.138 169.0562
24.652508 110.147 168.7575
24.831150 110.159 168.4457
25.011087 110.172 168.1150
25.192327 110.187 167.7626
25.374882 110.200 167.3893
25.558758 110.211 166.9988
25.743967 110.220 166.5975
25.930519 110.225 166.1932
26.118422 110.227 165.7938
26.307686 110.227 165.4062
26.498322 110.226 165.0346
26.690340 110.225 164.6804
26.883749 110.225 164.3411
27.078560 110.228 164.0113
27.274782 110.233 163.6836
27.472427 110.242 163.3496
27.671503 110.253 163.0022
27.872023 110.265 162.6364
28.073996 110.276 162.2508
28.277431 110.286 161.8477
28.482342 110.294 161.4324
28.688736 110.299 161.0124
28.896626 110.301 160.5951
29.106022 110.301 160.1866
29.316936 110.300 159.7900
29.529379 110.299 159.4050
29.743361 110.299 159.0274
29.958893 110.300 158.6516
30.175987 110.302 158.2714
30.394655 110.304 157.8831
30.614908 110.304 157.4867
30.836756 110.301 157.0869
31.060211 110.296 156.6922
31.285286 110.287 156.3130
31.511992 110.275 155.9590
31.740341 110.264 155.6358
31.970345 110.254 155.3427
32.202015 110.248 155.0719
32.435364 110.247 154.8099
32.670403 110.252 154.5403
32.907146 110.260 154.2480
33.145607 110.271 153.9235
33.385796 110.280 153.5650
33.627724 110.286 153.1789
33.871403 110.287 152.7778
34.116848 110.284 152.3766
34.364071 110.277 151.9880
34.613087 110.268 151.6186
34.863907 110.259 151.2672
35.116547 110.253 150.9255
35.371017 110.250 150.5810
35.627331 110.248 150.2220
35.885502 110.248 149.8412
36.145542 110.246 149.4390
36.407467 110.241 149.0225
36.671291 110.233 148.6032
36.937027 110.222 148.1923
37.204689 110.209 147.7968
37.474289 110.198 147.4166
37.745842 110.189 147.0453
38.019363 110.184 146.6725
38.294868 110.180 146.2885
38.572369 110.178 145.8882
38.851879 110.174 145.4734
39.133415 110.169 145.0512
39.416992 110.162 144.6312
39.702625 110.154 144.2205
39.990326 110.147 143.8210
40.280113 110.142 143.4282
40.571999 110.138 143.0339
40.866001 110.136 142.6302
41.162132 110.134 142.2135
41.460411 110.131 141.7864
41.760849 110.125 141.3571
42.063465 110.117 140.9355
42.368275 110.107 140.5295
42.675293 110.098 140.1410
42.984535 110.090 139.7660
43.296021 110.086 139.3962
43.609760 110.083 139.0223
43.925774 110.082 138.6381
44.244080 110.082 138.2415
44.564690 110.081 137.8345
44.887623 110.079 137.4215
45.212898 110.076 137.0067
45.540531 110.073 136.5924
45.870537 110.070 136.1788
46.202934 110.067 135.7646
46.537739 110.064 135.3483
46.874969 110.061 134.9296
47.214645 110.057 134.5100
47.556782 110.053 134.0930
47.901398 110.048 133.6823
48.248512 110.043 133.2797
48.598141 110.040 132.8840
48.950302 110.038 132.4902
49.305016 110.038 132.0914
49.662300 110.039 131.6812
50.022175 110.040 131.2565
50.384655 110.040 130.8182
50.749763 110.039 130.3707
51.117516 110.036 129.9197
51.487934 110.031 129.4698
51.861038 110.026 129.0234
52.236843 110.020 128.5804
52.615372 110.014 128.1403
52.996643 110.008 127.7032
53.380680 110.001 127.2711
53.767498 109.994 126.8478
54.157120 109.988 126.4361
54.549564 109.983 126.0353
54.944855 109.980 125.6391
55.343006 109.980 125.2366
55.744045 109.980 124.8170
56.147991 109.980 124.3755
56.554863 109.975 123.9160
56.964684 109.966 123.4489
57.377472 109.951 122.9852
57.793251 109.932 122.5324
58.212044 109.910 122.0937
58.633873 109.885 121.6713
59.058758 109.858 121.2681
59.486721 109.833 120.8835
59.917786 109.813 120.5067
60.351974 109.799 120.1140
60.789310 109.792 119.6758
61.229816 109.789 119.1697
61.673512 109.786 118.5919
62.120422 109.778 117.9593
62.570572 109.765 117.3032
63.023983 109.747 116.6566
63.480682 109.729 116.0431
63.940689 109.715 115.4692
64.404030 109.708 114.9239
64.870728 109.709 114.3871
65.340805 109.716 113.8436
65.814293 109.724 113.2932
66.291214 109.732 112.7506
66.771591 109.739 112.2339
67.255447 109.745 111.7517
67.742805 109.753 111.2984
68.233696 109.763 110.8582
68.728142 109.773 110.4147
69.226173 109.782 109.9570
69.727814 109.788 109.4815
70.233093 109.789 108.9902
70.742035 109.785 108.4877
71.254662 109.778 107.9783
71.771004 109.767 107.4639
72.291084 109.755 106.9432
72.814934 109.742 106.4125
73.342583 109.730 105.8676
73.874054 109.718 105.3065
74.409378 109.706 104.7307
74.948578 109.693 104.1461
75.491684 109.679 103.5620
