* Measurement data measured by REW V5.31.3
* Source: EXCL: Microphone (USB Sound Device        ), MICROPHONE (Master Volume), R, volume: 0.390
* Format: 256k Log Swept Sine, 1 sweep at -15.0 dBFS with no timing reference
* Dated: Apr 27, 2025 11:40:00 PM
* REW Settings:
*  C-weighting compensation: Off
*  Target level: 75.0 dB
* Note: Tanchjim Zero Ultima R
* Measurement: R Tanchjim Zero Ultima
* Smoothing: 1/12 octave
* Frequency Step: 96 ppo
* Start Frequency: 0.36621094 Hz
*
* Freq(Hz) SPL(dB) Phase(degrees)
0.366211 94.785 156.3452
0.368865 94.779 156.3206
0.371538 94.770 156.2839
0.374230 94.759 156.2376
0.376942 94.747 156.1843
0.379673 94.734 156.1257
0.382424 94.720 156.0630
0.385196 94.706 155.9968
0.387987 94.691 155.9275
0.390798 94.677 155.8555
0.393630 94.662 155.7806
0.396483 94.647 155.7031
0.399356 94.632 155.6229
0.402250 94.617 155.5400
0.405165 94.602 155.4544
0.408101 94.587 155.3661
0.411058 94.572 155.2749
0.414037 94.556 155.1810
0.417037 94.540 155.0843
0.420059 94.525 154.9847
0.423103 94.509 154.8823
0.426169 94.493 154.7770
0.429257 94.477 154.6687
0.432368 94.461 154.5575
0.435501 94.444 154.4433
0.438656 94.428 154.3261
0.441835 94.411 154.2059
0.445037 94.395 154.0827
0.448262 94.378 153.9564
0.451510 94.361 153.8269
0.454782 94.344 153.6944
0.458077 94.327 153.5587
0.461397 94.310 153.4199
0.464740 94.292 153.2779
0.468108 94.275 153.1327
0.471500 94.257 152.9843
0.474917 94.239 152.8327
0.478358 94.221 152.6778
0.481825 94.203 152.5196
0.485316 94.185 152.3582
0.488833 94.167 152.1935
0.492375 94.149 152.0255
0.495943 94.130 151.8542
0.499537 94.111 151.6795
0.503157 94.092 151.5016
0.506803 94.073 151.3203
0.510475 94.054 151.1357
0.514175 94.035 150.9477
0.517900 94.016 150.7565
0.521653 93.996 150.5619
0.525434 93.977 150.3640
0.529241 93.957 150.1627
0.533076 93.937 149.9582
0.536939 93.917 149.7504
0.540830 93.896 149.5393
0.544749 93.876 149.3250
0.548696 93.856 149.1074
0.552673 93.835 148.8866
0.556677 93.814 148.6627
0.560711 93.793 148.4356
0.564774 93.772 148.2054
0.568867 93.751 147.9721
0.572989 93.729 147.7358
0.577141 93.708 147.4966
0.581324 93.686 147.2544
0.585536 93.664 147.0093
0.589779 93.642 146.7614
0.594053 93.620 146.5108
0.598358 93.597 146.2575
0.602694 93.575 146.0016
0.607061 93.552 145.7432
0.611460 93.529 145.4824
0.615891 93.506 145.2193
0.620354 93.483 144.9539
0.624849 93.459 144.6865
0.629377 93.436 144.4170
0.633938 93.412 144.1456
0.638532 93.388 143.8725
0.643159 93.364 143.5978
0.647819 93.340 143.3216
0.652514 93.316 143.0441
0.657242 93.291 142.7654
0.662005 93.266 142.4858
0.666802 93.241 142.2054
0.671634 93.216 141.9243
0.676501 93.191 141.6428
0.681403 93.165 141.3612
0.686341 93.139 141.0795
0.691314 93.114 140.7981
0.696324 93.087 140.5171
0.701370 93.061 140.2368
0.706452 93.034 139.9572
0.711571 93.007 139.6786
0.716728 92.978 139.4008
0.721921 92.949 139.1236
0.727153 92.918 138.8464
0.732422 92.886 138.5686
0.737729 92.851 138.2890
0.743075 92.814 138.0065
0.748460 92.775 137.7201
0.753883 92.735 137.4290
0.759346 92.694 137.1327
0.764849 92.652 136.8308
0.770391 92.610 136.5231
0.775974 92.567 136.2094
0.781597 92.523 135.8895
0.787261 92.479 135.5635
0.792966 92.434 135.2311
0.798712 92.389 134.8923
0.804500 92.343 134.5471
0.810329 92.297 134.1954
0.816201 92.250 133.8372
0.822116 92.202 133.4724
0.828073 92.153 133.1009
0.834074 92.104 132.7228
0.840118 92.054 132.3380
0.846206 92.003 131.9465
0.852338 91.952 131.5483
0.858514 91.899 131.1434
0.864735 91.846 130.7318
0.871001 91.792 130.3134
0.877313 91.737 129.8885
0.883670 91.680 129.4569
0.890074 91.623 129.0188
0.896524 91.565 128.5742
0.903020 91.505 128.1232
0.909564 91.444 127.6659
0.916155 91.382 127.2024
0.922794 91.319 126.7330
0.929481 91.255 126.2577
0.936216 91.189 125.7768
0.943000 91.122 125.2904
0.949834 91.053 124.7988
0.956717 90.982 124.3023
0.963649 90.911 123.8012
0.970632 90.837 123.2958
0.977666 90.762 122.7865
0.984750 90.685 122.2737
0.991886 90.606 121.7578
0.999074 90.525 121.2393
1.006314 90.443 120.7188
1.013606 90.358 120.1967
1.020951 90.271 119.6739
1.028349 90.182 119.1508
1.035801 90.091 118.6283
1.043307 89.997 118.1071
1.050867 89.901 117.5879
1.058482 89.803 117.0717
1.066152 89.702 116.5592
1.073878 89.599 116.0512
1.081660 89.494 115.5482
1.089498 89.386 115.0504
1.097393 89.277 114.5580
1.105345 89.167 114.0704
1.113355 89.056 113.5868
1.121423 88.944 113.1066
1.129549 88.832 112.6289
1.137734 88.721 112.1531
1.145979 88.609 111.6786
1.154283 88.496 111.2049
1.162647 88.384 110.7316
1.171072 88.270 110.2581
1.179558 88.156 109.7841
1.188106 88.041 109.3091
1.196715 87.924 108.8326
1.205387 87.805 108.3542
1.214122 87.684 107.8734
1.222920 87.561 107.3897
1.231782 87.435 106.9025
1.240708 87.305 106.4114
1.249699 87.172 105.9157
1.258754 87.035 105.4148
1.267876 86.894 104.9081
1.277063 86.748 104.3949
1.286318 86.597 103.8746
1.295639 86.439 103.3465
1.305027 86.276 102.8098
1.314484 86.106 102.2637
1.324009 85.929 101.7075
1.333604 85.744 101.1404
1.343268 85.551 100.5614
1.353002 85.349 99.9699
1.362806 85.138 99.3650
1.372681 84.917 98.7458
1.382628 84.686 98.1116
1.392647 84.443 97.4616
1.402739 84.188 96.7952
1.412904 83.920 96.1119
1.423142 83.638 95.4114
1.433455 83.342 94.6939
1.443843 83.028 93.9596
1.454305 82.696 93.2095
1.464844 82.341 92.4447
1.475459 81.961 91.6666
1.486150 81.552 90.8761
1.496920 81.113 90.0736
1.507767 80.640 89.2583
1.518693 80.135 88.4291
1.529698 79.598 87.5838
1.540783 79.029 86.7197
1.551948 78.431 85.8334
1.563194 77.805 84.9207
1.574521 77.155 83.9766
1.585931 76.483 82.9952
1.597423 75.791 81.9692
1.608999 75.083 80.8898
1.620658 74.362 79.7462
1.632402 73.632 78.5249
1.644232 72.897 77.2089
1.656146 72.161 75.7768
1.668147 71.427 74.2007
1.680235 70.702 72.4441
1.692411 69.989 70.4582
1.704675 69.296 68.1769
1.717028 68.626 65.5088
1.729470 67.989 62.3245
1.742003 67.389 58.4381
1.754626 66.835 53.5787
1.767341 66.336 47.3516
1.780147 65.900 39.2014
1.793047 65.536 28.4417
1.806040 65.254 14.5413
1.819128 65.062 -2.1161
1.832310 64.966 -19.5874
1.845587 64.971 -35.3834
1.858961 65.077 -48.2492
1.872432 65.284 -58.2952
1.886001 65.585 -66.1413
1.899667 65.975 -72.3887
1.913433 66.445 -77.4867
1.927299 66.987 -81.7469
1.941265 67.590 -85.3820
1.955332 68.247 -88.5388
1.969501 68.948 -91.3203
1.983773 69.684 -93.8005
1.998148 70.445 -96.0332
2.012627 71.223 -98.0589
2.027212 72.009 -99.9079
2.041902 72.794 -101.6039
2.056698 73.571 -103.1654
2.071602 74.330 -104.6069
2.086614 75.064 -105.9404
2.101734 75.766 -107.1761
2.116964 76.429 -108.3228
2.132304 77.046 -109.3892
2.147756 77.614 -110.3846
2.163320 78.128 -111.3197
2.178996 78.589 -112.2079
2.194786 78.998 -113.0650
2.210690 79.358 -113.9085
2.226710 79.676 -114.7544
2.242845 79.955 -115.6146
2.259098 80.201 -116.4960
2.275468 80.415 -117.4011
2.291957 80.601 -118.3289
2.308566 80.761 -119.2766
2.325295 80.896 -120.2400
2.342145 81.008 -121.2139
2.359117 81.100 -122.1930
2.376212 81.172 -123.1714
2.393431 81.228 -124.1432
2.410775 81.268 -125.1023
2.428244 81.295 -126.0425
2.445840 81.312 -126.9578
2.463564 81.320 -127.8422
2.481416 81.321 -128.6907
2.499397 81.318 -129.4989
2.517509 81.311 -130.2649
2.535752 81.302 -130.9893
2.554127 81.291 -131.6767
2.572635 81.275 -132.3352
2.591277 81.255 -132.9752
2.610055 81.226 -133.6066
2.628968 81.189 -134.2367
2.648019 81.141 -134.8699
2.667208 81.083 -135.5074
2.686535 81.013 -136.1485
2.706003 80.932 -136.7905
2.725612 80.839 -137.4292
2.745363 80.735 -138.0592
2.765257 80.619 -138.6736
2.785295 80.493 -139.2645
2.805478 80.355 -139.8228
2.825808 80.207 -140.3382
2.846285 80.047 -140.7995
2.866910 79.875 -141.1952
2.887685 79.690 -141.5139
2.908611 79.490 -141.7456
2.929688 79.273 -141.8824
2.950917 79.035 -141.9184
2.972301 78.774 -141.8493
2.993839 78.490 -141.6704
3.015534 78.182 -141.3754
3.037386 77.853 -140.9561
3.059396 77.506 -140.4022
3.081565 77.147 -139.7008
3.103896 76.781 -138.8373
3.126388 76.414 -137.7953
3.149043 76.055 -136.5572
3.171862 75.711 -135.1044
3.194847 75.390 -133.4184
3.217998 75.101 -131.4811
3.241317 74.851 -129.2756
3.264805 74.650 -126.7867
3.288463 74.501 -124.0010
3.312293 74.407 -120.9100
3.336295 74.368 -117.5164
3.360471 74.382 -113.8427
3.384822 74.444 -109.9381
3.409350 74.551 -105.8778
3.434056 74.696 -101.7571
3.458940 74.874 -97.6804
3.484005 75.080 -93.7492
3.509252 75.309 -90.0505
3.534681 75.554 -86.6506
3.560295 75.813 -83.5919
3.586094 76.082 -80.8948
3.612081 76.359 -78.5604
3.638255 76.643 -76.5755
3.664620 76.937 -74.9163
3.691175 77.242 -73.5526
3.717923 77.561 -72.4521
3.744864 77.892 -71.5831
3.772001 78.235 -70.9158
3.799335 78.587 -70.4231
3.826866 78.942 -70.0806
3.854597 79.297 -69.8669
3.882529 79.646 -69.7637
3.910664 79.984 -69.7562
3.939002 80.307 -69.8327
3.967546 80.612 -69.9854
3.996296 80.896 -70.2101
4.025255 81.157 -70.5058
4.054423 81.396 -70.8732
4.083804 81.614 -71.3119
4.113396 81.812 -71.8180
4.143204 81.992 -72.3840
4.173227 82.155 -72.9995
4.203468 82.303 -73.6524
4.233928 82.436 -74.3302
4.264609 82.556 -75.0214
4.295512 82.662 -75.7164
4.326639 82.757 -76.4083
4.357992 82.840 -77.0946
4.389572 82.911 -77.7768
4.421380 82.970 -78.4599
4.453419 83.015 -79.1498
4.485691 83.047 -79.8495
4.518196 83.066 -80.5576
4.550936 83.073 -81.2690
4.583914 83.067 -81.9750
4.617131 83.049 -82.6649
4.650589 83.021 -83.3272
4.684289 82.983 -83.9509
4.718233 82.934 -84.5273
4.752424 82.875 -85.0506
4.786862 82.806 -85.5192
4.821549 82.726 -85.9340
4.856488 82.635 -86.2963
4.891680 82.535 -86.6062
4.927127 82.425 -86.8619
4.962831 82.310 -87.0593
4.998794 82.189 -87.1926
5.035017 82.066 -87.2543
5.071503 81.942 -87.2361
5.108253 81.818 -87.1294
5.145270 81.694 -86.9264
5.182555 81.571 -86.6216
5.220110 81.448 -86.2137
5.257937 81.327 -85.7061
5.296038 81.211 -85.1064
5.334415 81.101 -84.4255
5.373071 81.002 -83.6768
5.412006 80.915 -82.8734
5.451224 80.844 -82.0274
5.490725 80.791 -81.1477
5.530514 80.758 -80.2409
5.570590 80.744 -79.3147
5.610957 80.747 -78.3807
5.651616 80.768 -77.4559
5.692570 80.803 -76.5613
5.733821 80.852 -75.7193
5.775370 80.912 -74.9508
5.817221 80.983 -74.2727
5.859375 81.063 -73.6961
5.901834 81.153 -73.2257
5.944602 81.252 -72.8619
5.987679 81.358 -72.6030
6.031068 81.469 -72.4469
6.074771 81.582 -72.3918
6.118792 81.694 -72.4367
6.163131 81.802 -72.5815
6.207792 81.904 -72.8261
6.252776 82.000 -73.1701
6.298086 82.088 -73.6105
6.343725 82.168 -74.1404
6.389694 82.240 -74.7496
6.435996 82.304 -75.4261
6.482634 82.358 -76.1580
6.529610 82.402 -76.9356
6.576926 82.435 -77.7532
6.624585 82.457 -78.6083
6.672590 82.467 -79.4993
6.720942 82.466 -80.4223
6.769645 82.455 -81.3695
6.818700 82.434 -82.3301
6.868111 82.403 -83.2921
6.917881 82.363 -84.2450
6.968010 82.314 -85.1818
7.018504 82.256 -86.0988
7.069362 82.191 -86.9940
7.120590 82.119 -87.8642
7.172189 82.042 -88.7045
7.224161 81.961 -89.5079
7.276511 81.879 -90.2665
7.329239 81.796 -90.9739
7.382350 81.713 -91.6258
7.435845 81.632 -92.2218
7.489729 81.554 -92.7644
7.544002 81.481 -93.2577
7.598669 81.416 -93.7065
7.653732 81.360 -94.1146
7.709194 81.316 -94.4850
7.765058 81.283 -94.8215
7.821327 81.263 -95.1306
7.878004 81.256 -95.4224
7.935091 81.262 -95.7097
7.992592 81.282 -96.0057
8.050510 81.316 -96.3209
8.108847 81.363 -96.6628
8.167607 81.423 -97.0365
8.226793 81.495 -97.4470
8.286408 81.576 -97.8996
8.346454 81.665 -98.3999
8.406936 81.761 -98.9520
8.467856 81.862 -99.5571
8.529218 81.966 -100.2136
8.591024 82.073 -100.9168
8.653278 82.181 -101.6611
8.715983 82.289 -102.4406
8.779143 82.394 -103.2502
8.842760 82.497 -104.0847
8.906839 82.597 -104.9382
8.971381 82.693 -105.8026
9.036392 82.785 -106.6686
9.101873 82.873 -107.5270
9.167829 82.957 -108.3704
9.234263 83.036 -109.1929
9.301178 83.111 -109.9894
9.368578 83.183 -110.7541
9.436467 83.252 -111.4811
9.504847 83.319 -112.1650
9.573723 83.385 -112.8025
9.643099 83.449 -113.3920
9.712976 83.514 -113.9334
9.783361 83.579 -114.4274
9.854255 83.646 -114.8750
9.925663 83.716 -115.2778
9.997588 83.788 -115.6388
10.070035 83.862 -115.9620
10.143007 83.940 -116.2527
10.216507 84.021 -116.5164
10.290540 84.105 -116.7580
10.365109 84.192 -116.9818
10.440219 84.282 -117.1921
10.515873 84.373 -117.3929
10.592076 84.465 -117.5882
10.668830 84.557 -117.7806
10.746141 84.650 -117.9717
10.824012 84.741 -118.1621
10.902447 84.831 -118.3517
10.981451 84.918 -118.5400
11.061027 85.003 -118.7261
11.141180 85.085 -118.9086
11.221913 85.164 -119.0857
11.303232 85.239 -119.2552
11.385140 85.311 -119.4154
11.467641 85.379 -119.5650
11.550741 85.444 -119.7031
11.634442 85.507 -119.8290
11.718750 85.567 -119.9426
11.803669 85.624 -120.0443
11.889203 85.679 -120.1351
11.975357 85.732 -120.2167
12.062136 85.783 -120.2910
12.149543 85.832 -120.3601
12.237583 85.880 -120.4259
12.326262 85.925 -120.4906
12.415583 85.969 -120.5562
12.505552 86.010 -120.6243
12.596172 86.048 -120.6959
12.687449 86.084 -120.7715
12.779387 86.116 -120.8513
12.871992 86.146 -120.9350
12.965268 86.172 -121.0221
13.059220 86.195 -121.1115
13.153852 86.214 -121.2023
13.249170 86.231 -121.2937
13.345179 86.245 -121.3851
13.441884 86.257 -121.4763
13.539289 86.266 -121.5679
13.637401 86.275 -121.6608
13.736223 86.282 -121.7568
13.835761 86.289 -121.8582
13.936021 86.296 -121.9679
14.037007 86.302 -122.0890
14.138725 86.309 -122.2249
14.241180 86.316 -122.3786
14.344377 86.323 -122.5531
14.448323 86.329 -122.7505
14.553021 86.335 -122.9721
14.658478 86.340 -123.2184
14.764700 86.344 -123.4889
14.871691 86.346 -123.7823
14.979457 86.347 -124.0962
15.088005 86.346 -124.4278
15.197339 86.343 -124.7741
15.307465 86.339 -125.1318
15.418389 86.335 -125.4978
15.530117 86.330 -125.8695
15.642655 86.326 -126.2452
15.756008 86.324 -126.6236
15.870182 86.323 -127.0046
15.985184 86.324 -127.3888
16.101019 86.329 -127.7775
16.217694 86.337 -128.1724
16.335214 86.348 -128.5752
16.453586 86.363 -128.9877
16.572815 86.382 -129.4108
16.692909 86.403 -129.8447
16.813872 86.427 -130.2889
16.935713 86.453 -130.7417
17.058436 86.480 -131.2005
17.182048 86.509 -131.6617
17.306556 86.538 -132.1215
17.431967 86.569 -132.5759
17.558286 86.600 -133.0207
17.685521 86.632 -133.4523
17.813677 86.666 -133.8681
17.942762 86.701 -134.2658
18.072783 86.738 -134.6443
18.203746 86.776 -135.0036
18.335658 86.816 -135.3439
18.468526 86.858 -135.6665
18.602356 86.902 -135.9724
18.737156 86.947 -136.2629
18.872934 86.992 -136.5391
19.009695 87.038 -136.8017
19.147447 87.084 -137.0510
19.286197 87.129 -137.2870
19.425953 87.173 -137.5096
19.566721 87.217 -137.7185
19.708510 87.259 -137.9136
19.851326 87.299 -138.0951
19.995177 87.338 -138.2634
20.140070 87.375 -138.4194
20.286013 87.410 -138.5643
20.433014 87.444 -138.6992
20.581080 87.475 -138.8257
20.730219 87.504 -138.9451
20.880439 87.530 -139.0584
21.031747 87.555 -139.1667
21.184152 87.576 -139.2711
21.337661 87.595 -139.3725
21.492282 87.612 -139.4722
21.648024 87.627 -139.5716
21.804895 87.640 -139.6728
21.962902 87.651 -139.7780
22.122054 87.660 -139.8896
22.282360 87.668 -140.0101
22.443827 87.674 -140.1416
22.606464 87.679 -140.2857
22.770280 87.682 -140.4433
22.935283 87.683 -140.6145
23.101481 87.682 -140.7987
23.268884 87.680 -140.9946
23.437500 87.677 -141.2010
23.607338 87.673 -141.4165
23.778406 87.669 -141.6404
23.950714 87.665 -141.8724
24.124271 87.662 -142.1130
24.299086 87.660 -142.3629
24.475167 87.660 -142.6231
24.652524 87.662 -142.8943
24.831166 87.665 -143.1766
25.011103 87.670 -143.4695
25.192344 87.677 -143.7713
25.374898 87.685 -144.0797
25.558775 87.695 -144.3919
25.743984 87.706 -144.7049
25.930536 87.719 -145.0159
26.118439 87.733 -145.3224
26.307704 87.749 -145.6225
26.498341 87.767 -145.9149
26.690359 87.786 -146.1985
26.883768 87.806 -146.4723
27.078579 87.828 -146.7356
27.274801 87.851 -146.9874
27.472446 87.874 -147.2270
27.671522 87.898 -147.4537
27.872042 87.921 -147.6672
28.074014 87.945 -147.8673
28.277450 87.968 -148.0547
28.482360 87.991 -148.2299
28.688755 88.013 -148.3941
28.896645 88.034 -148.5482
29.106042 88.053 -148.6934
29.316957 88.072 -148.8306
29.529400 88.088 -148.9609
29.743382 88.103 -149.0858
29.958915 88.116 -149.2069
30.176009 88.128 -149.3259
30.394677 88.137 -149.4449
30.614929 88.146 -149.5657
30.836778 88.152 -149.6898
31.060234 88.157 -149.8183
31.285309 88.161 -149.9518
31.512015 88.163 -150.0907
31.740364 88.164 -150.2353
31.970368 88.164 -150.3862
32.202039 88.164 -150.5445
32.435388 88.165 -150.7110
32.670428 88.165 -150.8868
32.907171 88.166 -151.0723
33.145630 88.167 -151.2675
33.385817 88.169 -151.4711
33.627745 88.172 -151.6818
33.871425 88.174 -151.8974
34.116871 88.178 -152.1161
34.364096 88.183 -152.3361
34.613113 88.188 -152.5560
34.863934 88.195 -152.7749
35.116572 88.202 -152.9915
35.371041 88.210 -153.2046
35.627354 88.219 -153.4127
35.885525 88.228 -153.6144
36.145566 88.237 -153.8082
36.407492 88.246 -153.9929
36.671316 88.256 -154.1682
36.937051 88.265 -154.3340
37.204712 88.274 -154.4911
37.474313 88.282 -154.6405
37.745867 88.291 -154.7835
38.019389 88.299 -154.9217
38.294893 88.306 -155.0564
38.572394 88.312 -155.1889
38.851905 88.317 -155.3202
39.133442 88.321 -155.4513
39.417019 88.325 -155.5827
39.702651 88.327 -155.7150
39.990353 88.328 -155.8486
40.280140 88.329 -155.9839
40.572026 88.329 -156.1208
40.866028 88.329 -156.2597
41.162160 88.329 -156.4004
41.460438 88.329 -156.5432
41.760877 88.329 -156.6884
42.063494 88.330 -156.8362
42.368303 88.331 -156.9869
42.675322 88.333 -157.1403
42.984565 88.335 -157.2957
43.296048 88.337 -157.4517
43.609789 88.339 -157.6065
43.925804 88.341 -157.7587
44.244108 88.344 -157.9075
44.564719 88.346 -158.0527
44.887654 88.348 -158.1947
45.212928 88.351 -158.3340
45.540560 88.353 -158.4708
45.870565 88.355 -158.6053
46.202962 88.357 -158.7374
46.537768 88.358 -158.8672
46.875000 88.358 -158.9948
47.214676 88.359 -159.1206
47.556813 88.359 -159.2452
47.901429 88.358 -159.3695
48.248542 88.358 -159.4940
48.598171 88.358 -159.6193
48.950334 88.357 -159.7453
49.305048 88.356 -159.8714
49.662333 88.355 -159.9964
50.022206 88.354 -160.1191
50.384688 88.353 -160.2389
50.749796 88.353 -160.3557
51.117550 88.353 -160.4701
51.487969 88.353 -160.5824
51.861072 88.353 -160.6929
52.236879 88.353 -160.8012
52.615409 88.353 -160.9070
52.996681 88.353 -161.0100
53.380717 88.353 -161.1105
53.767536 88.353 -161.2087
54.157158 88.352 -161.3055
54.549603 88.352 -161.4015
54.944892 88.351 -161.4981
55.343045 88.351 -161.5967
55.744084 88.351 -161.6989
56.148028 88.351 -161.8060
56.554900 88.351 -161.9185
56.964720 88.351 -162.0356
57.377510 88.350 -162.1553
57.793291 88.349 -162.2750
58.212085 88.347 -162.3920
58.633914 88.346 -162.5053
59.058799 88.345 -162.6156
59.486764 88.344 -162.7248
59.917829 88.344 -162.8353
60.352019 88.343 -162.9482
60.789354 88.341 -163.0628
61.229859 88.339 -163.1767
61.673556 88.335 -163.2875
62.120468 88.330 -163.3942
62.570618 88.325 -163.4973
63.024031 88.320 -163.5983
63.480729 88.314 -163.6991
63.940736 88.308 -163.8008
64.404077 88.302 -163.9035
64.870776 88.296 -164.0063
65.340856 88.290 -164.1080
65.814343 88.284 -164.2072
66.291261 88.278 -164.3036
66.771635 88.273 -164.3975
67.255489 88.268 -164.4894
67.742850 88.263 -164.5800
68.233743 88.259 -164.6693
68.728193 88.255 -164.7575
69.226226 88.250 -164.8444
69.727867 88.245 -164.9298
70.233144 88.240 -165.0132
70.742083 88.234 -165.0943
71.254709 88.227 -165.1738
71.771050 88.221 -165.2523
72.291132 88.213 -165.3302
72.814984 88.206 -165.4069
73.342631 88.199 -165.4820
73.874102 88.191 -165.5551
74.409424 88.184 -165.6264
74.948626 88.178 -165.6967
75.491734 88.172 -165.7671
76.038779 88.167 -165.8383
76.589787 88.163 -165.9110
77.144788 88.158 -165.9857
77.703811 88.154 -166.0625
78.266885 88.150 -166.1419
78.834039 88.146 -166.2245
79.405303 88.141 -166.3116
79.980706 88.137 -166.4039
80.560280 88.132 -166.5018
81.144053 88.127 -166.6047
81.732056 88.120 -166.7119
82.324320 88.113 -166.8229
82.920876 88.104 -166.9365
83.521755 88.094 -167.0511
