* Measurement data measured by REW V5.31.3
* Source: EXCL: Microphone (USB Sound Device        ), MICROPHONE (Master Volume), R, volume: 0.390
* Format: 256k Log Swept Sine, 1 sweep at -15.0 dBFS with no timing reference
* Dated: Apr 5, 2025 3:34:48 PM
* REW Settings:
*  C-weighting compensation: Off
*  Target level: 75.0 dB
* Note: 
* Measurement: L L TANGZU Wan'er S.G
* Smoothing: 1/12 octave
* Frequency Step: 96 ppo
* Start Frequency: 0.36621094 Hz
*
* Freq(Hz) SPL(dB) Phase(degrees)
0.366211 92.747 163.4422
0.368865 92.741 163.4245
0.371538 92.734 163.3980
0.374230 92.724 163.3648
0.376942 92.713 163.3265
0.379673 92.701 163.2844
0.382424 92.689 163.2395
0.385196 92.677 163.1921
0.387987 92.664 163.1426
0.390798 92.651 163.0911
0.393630 92.638 163.0377
0.396483 92.625 162.9825
0.399356 92.612 162.9254
0.402250 92.598 162.8664
0.405165 92.585 162.8056
0.408101 92.572 162.7429
0.411058 92.558 162.6783
0.414037 92.544 162.6117
0.417037 92.530 162.5432
0.420059 92.516 162.4728
0.423103 92.502 162.4004
0.426169 92.488 162.3260
0.429257 92.474 162.2496
0.432368 92.460 162.1712
0.435501 92.445 162.0908
0.438656 92.431 162.0083
0.441835 92.416 161.9237
0.445037 92.401 161.8371
0.448262 92.387 161.7483
0.451510 92.372 161.6574
0.454782 92.357 161.5644
0.458077 92.341 161.4693
0.461397 92.326 161.3720
0.464740 92.311 161.2726
0.468108 92.295 161.1709
0.471500 92.280 161.0671
0.474917 92.264 160.9611
0.478358 92.248 160.8529
0.481825 92.232 160.7425
0.485316 92.216 160.6298
0.488833 92.200 160.5149
0.492375 92.183 160.3978
0.495943 92.167 160.2784
0.499537 92.151 160.1568
0.503157 92.134 160.0329
0.506803 92.117 159.9068
0.510475 92.100 159.7784
0.514175 92.083 159.6478
0.517900 92.066 159.5149
0.521653 92.049 159.3798
0.525434 92.031 159.2424
0.529241 92.014 159.1028
0.533076 91.996 158.9609
0.536939 91.978 158.8168
0.540830 91.960 158.6705
0.544749 91.942 158.5220
0.548696 91.924 158.3714
0.552673 91.906 158.2185
0.556677 91.887 158.0635
0.560711 91.869 157.9064
0.564774 91.850 157.7471
0.568867 91.831 157.5858
0.572989 91.812 157.4224
0.577141 91.793 157.2570
0.581324 91.774 157.0896
0.585536 91.755 156.9202
0.589779 91.735 156.7489
0.594053 91.715 156.5757
0.598358 91.696 156.4008
0.602694 91.676 156.2240
0.607061 91.655 156.0455
0.611460 91.635 155.8653
0.615891 91.615 155.6835
0.620354 91.594 155.5002
0.624849 91.574 155.3154
0.629377 91.553 155.1292
0.633938 91.532 154.9416
0.638532 91.511 154.7528
0.643159 91.489 154.5628
0.647819 91.468 154.3718
0.652514 91.446 154.1798
0.657242 91.424 153.9869
0.662005 91.403 153.7933
0.666802 91.380 153.5990
0.671634 91.358 153.4042
0.676501 91.336 153.2090
0.681403 91.313 153.0136
0.686341 91.290 152.8180
0.691314 91.267 152.6225
0.696324 91.244 152.4271
0.701370 91.221 152.2320
0.706452 91.197 152.0372
0.711571 91.173 151.8429
0.716728 91.148 151.6490
0.721921 91.122 151.4554
0.727153 91.095 151.2616
0.732422 91.066 151.0672
0.737729 91.035 150.8715
0.743075 91.002 150.6737
0.748460 90.968 150.4731
0.753883 90.932 150.2693
0.759346 90.896 150.0619
0.764849 90.859 149.8507
0.770391 90.822 149.6354
0.775974 90.784 149.4161
0.781597 90.745 149.1927
0.787261 90.706 148.9650
0.792966 90.666 148.7330
0.798712 90.626 148.4968
0.804500 90.586 148.2562
0.810329 90.545 148.0113
0.816201 90.503 147.7621
0.822116 90.461 147.5084
0.828073 90.418 147.2504
0.834074 90.374 146.9879
0.840118 90.330 146.7210
0.846206 90.285 146.4497
0.852338 90.239 146.1740
0.858514 90.193 145.8938
0.864735 90.146 145.6093
0.871001 90.097 145.3203
0.877313 90.049 145.0270
0.883670 89.999 144.7294
0.890074 89.948 144.4276
0.896524 89.896 144.1215
0.903020 89.844 143.8112
0.909564 89.790 143.4968
0.916155 89.735 143.1784
0.922794 89.679 142.8560
0.929481 89.622 142.5299
0.936216 89.564 142.2000
0.943000 89.505 141.8666
0.949834 89.444 141.5297
0.956717 89.382 141.1895
0.963649 89.318 140.8462
0.970632 89.254 140.5001
0.977666 89.187 140.1512
0.984750 89.119 139.7999
0.991886 89.050 139.4464
0.999074 88.979 139.0911
1.006314 88.906 138.7341
1.013606 88.831 138.3759
1.020951 88.755 138.0168
1.028349 88.676 137.6572
1.035801 88.596 137.2975
1.043307 88.514 136.9382
1.050867 88.430 136.5798
1.058482 88.343 136.2227
1.066152 88.255 135.8674
1.073878 88.164 135.5143
1.081660 88.072 135.1637
1.089498 87.978 134.8159
1.097393 87.882 134.4708
1.105345 87.785 134.1281
1.113355 87.688 133.7873
1.121423 87.590 133.4482
1.129549 87.493 133.1101
1.137734 87.395 132.7728
1.145979 87.297 132.4360
1.154283 87.200 132.0993
1.162647 87.101 131.7625
1.171072 87.003 131.4255
1.179558 86.903 131.0879
1.188106 86.803 130.7495
1.196715 86.701 130.4100
1.205387 86.598 130.0693
1.214122 86.492 129.7270
1.222920 86.385 129.3828
1.231782 86.275 129.0365
1.240708 86.163 128.6876
1.249699 86.047 128.3359
1.258754 85.928 127.9810
1.267876 85.805 127.6225
1.277063 85.677 127.2599
1.286318 85.545 126.8928
1.295639 85.409 126.5207
1.305027 85.266 126.1432
1.314484 85.118 125.7596
1.324009 84.963 125.3695
1.333604 84.802 124.9720
1.343268 84.633 124.5667
1.353002 84.457 124.1527
1.362806 84.272 123.7294
1.372681 84.079 123.2959
1.382628 83.876 122.8514
1.392647 83.663 122.3949
1.402739 83.439 121.9256
1.412904 83.204 121.4424
1.423142 82.956 120.9446
1.433455 82.696 120.4311
1.443843 82.420 119.9012
1.454305 82.126 119.3544
1.464844 81.813 118.7902
1.475459 81.477 118.2083
1.486150 81.115 117.6080
1.496920 80.726 116.9886
1.507767 80.307 116.3486
1.518693 79.858 115.6862
1.529698 79.381 114.9990
1.540783 78.876 114.2841
1.551948 78.344 113.5379
1.563194 77.789 112.7566
1.574521 77.212 111.9352
1.585931 76.615 111.0681
1.597423 76.002 110.1487
1.608999 75.375 109.1690
1.620658 74.737 108.1195
1.632402 74.091 106.9888
1.644232 73.441 105.7630
1.656146 72.792 104.4251
1.668147 72.145 102.9540
1.680235 71.507 101.3234
1.692411 70.882 99.5004
1.704675 70.274 97.4430
1.717028 69.690 95.0975
1.729470 69.134 92.3944
1.742003 68.613 89.2439
1.754626 68.135 85.5294
1.767341 67.705 81.1012
1.780147 67.332 75.7725
1.793047 67.023 69.3244
1.806040 66.786 61.5351
1.819128 66.628 52.2565
1.832310 66.554 41.5508
1.845587 66.566 29.8342
1.858961 66.666 17.8738
1.872432 66.851 6.5298
1.886001 67.118 -3.5823
1.899667 67.462 -12.2282
1.913433 67.875 -19.4638
1.927299 68.351 -25.4806
1.941265 68.883 -30.4983
1.955332 69.464 -34.7157
1.969501 70.086 -38.2959
1.983773 70.741 -41.3670
1.998148 71.423 -44.0284
2.012627 72.122 -46.3563
2.027212 72.833 -48.4097
2.041902 73.548 -50.2346
2.056698 74.259 -51.8667
2.071602 74.960 -53.3346
2.086614 75.643 -54.6609
2.101734 76.303 -55.8641
2.116964 76.933 -56.9595
2.132304 77.528 -57.9600
2.147756 78.084 -58.8771
2.163320 78.599 -59.7216
2.178996 79.071 -60.5042
2.194786 79.503 -61.2355
2.210690 79.898 -61.9261
2.226710 80.261 -62.5854
2.242845 80.597 -63.2206
2.259098 80.909 -63.8365
2.275468 81.199 -64.4363
2.291957 81.470 -65.0213
2.308566 81.723 -65.5923
2.325295 81.960 -66.1491
2.342145 82.183 -66.6915
2.359117 82.392 -67.2187
2.376212 82.590 -67.7302
2.393431 82.777 -68.2251
2.410775 82.956 -68.7024
2.428244 83.128 -69.1614
2.445840 83.295 -69.6011
2.463564 83.459 -70.0207
2.481416 83.620 -70.4195
2.499397 83.781 -70.7972
2.517509 83.941 -71.1537
2.535752 84.103 -71.4896
2.554127 84.264 -71.8065
2.572635 84.424 -72.1064
2.591277 84.581 -72.3918
2.610055 84.734 -72.6653
2.628968 84.882 -72.9286
2.648019 85.024 -73.1831
2.667208 85.160 -73.4294
2.686535 85.291 -73.6680
2.706003 85.416 -73.8989
2.725612 85.536 -74.1220
2.745363 85.651 -74.3372
2.765257 85.764 -74.5441
2.785295 85.873 -74.7424
2.805478 85.980 -74.9316
2.825808 86.085 -75.1114
2.846285 86.189 -75.2812
2.866910 86.293 -75.4409
2.887685 86.396 -75.5899
2.908611 86.500 -75.7283
2.929688 86.603 -75.8559
2.950917 86.706 -75.9731
2.972301 86.807 -76.0802
2.993839 86.906 -76.1779
3.015534 87.004 -76.2668
3.037386 87.099 -76.3476
3.059396 87.193 -76.4209
3.081565 87.285 -76.4875
3.103896 87.375 -76.5480
3.126388 87.464 -76.6031
3.149043 87.552 -76.6534
3.171862 87.640 -76.6994
3.194847 87.727 -76.7416
3.217998 87.815 -76.7803
3.241317 87.903 -76.8156
3.264805 87.991 -76.8474
3.288463 88.079 -76.8753
3.312293 88.168 -76.8987
3.336295 88.257 -76.9171
3.360471 88.346 -76.9304
3.384822 88.435 -76.9390
3.409350 88.524 -76.9438
3.434056 88.612 -76.9460
3.458940 88.700 -76.9471
3.484005 88.788 -76.9487
3.509252 88.876 -76.9523
3.534681 88.964 -76.9596
3.560295 89.052 -76.9720
3.586094 89.139 -76.9907
3.612081 89.227 -77.0168
3.638255 89.315 -77.0506
3.664620 89.402 -77.0920
3.691175 89.490 -77.1406
3.717923 89.578 -77.1958
3.744864 89.666 -77.2571
3.772001 89.753 -77.3243
3.799335 89.841 -77.3975
3.826866 89.928 -77.4771
3.854597 90.015 -77.5635
3.882529 90.101 -77.6572
3.910664 90.187 -77.7588
3.939002 90.272 -77.8688
3.967546 90.356 -77.9879
3.996296 90.439 -78.1163
4.025255 90.521 -78.2543
4.054423 90.602 -78.4019
4.083804 90.682 -78.5591
4.113396 90.761 -78.7255
4.143204 90.839 -78.9008
4.173227 90.916 -79.0845
4.203468 90.992 -79.2761
4.233928 91.067 -79.4753
4.264609 91.140 -79.6818
4.295512 91.212 -79.8954
4.326639 91.283 -80.1158
4.357992 91.352 -80.3433
4.389572 91.419 -80.5781
4.421380 91.484 -80.8205
4.453419 91.548 -81.0708
4.485691 91.610 -81.3288
4.518196 91.670 -81.5940
4.550936 91.729 -81.8656
4.583914 91.786 -82.1425
4.617131 91.841 -82.4238
4.650589 91.894 -82.7083
4.684289 91.946 -82.9952
4.718233 91.997 -83.2839
4.752424 92.045 -83.5743
4.786862 92.092 -83.8666
4.821549 92.137 -84.1609
4.856488 92.181 -84.4577
4.891680 92.223 -84.7566
4.927127 92.263 -85.0573
4.962831 92.302 -85.3591
4.998794 92.339 -85.6612
5.035017 92.376 -85.9629
5.071503 92.411 -86.2636
5.108253 92.445 -86.5627
5.145270 92.478 -86.8602
5.182555 92.511 -87.1561
5.220110 92.542 -87.4508
5.257937 92.572 -87.7446
5.296038 92.602 -88.0377
5.334415 92.630 -88.3302
5.373071 92.659 -88.6223
5.412006 92.687 -88.9140
5.451224 92.715 -89.2052
5.490725 92.742 -89.4958
5.530514 92.770 -89.7859
5.570590 92.798 -90.0757
5.610957 92.826 -90.3654
5.651616 92.853 -90.6559
5.692570 92.881 -90.9478
5.733821 92.909 -91.2419
5.775370 92.938 -91.5391
5.817221 92.966 -91.8399
5.859375 92.996 -92.1446
5.901834 93.026 -92.4535
5.944602 93.056 -92.7667
5.987679 93.087 -93.0846
6.031068 93.118 -93.4079
6.074771 93.150 -93.7373
6.118792 93.182 -94.0737
6.163131 93.214 -94.4179
6.207792 93.247 -94.7704
6.252776 93.281 -95.1318
6.298086 93.314 -95.5020
6.343725 93.348 -95.8811
6.389694 93.382 -96.2691
6.435996 93.417 -96.6659
6.482634 93.451 -97.0716
6.529610 93.486 -97.4864
6.576926 93.520 -97.9104
6.624585 93.554 -98.3437
6.672590 93.588 -98.7861
6.720942 93.622 -99.2373
6.769645 93.655 -99.6968
6.818700 93.689 -100.1638
6.868111 93.722 -100.6377
6.917881 93.754 -101.1180
6.968010 93.786 -101.6041
7.018504 93.818 -102.0959
7.069362 93.849 -102.5930
7.120590 93.880 -103.0946
7.172189 93.910 -103.5999
7.224161 93.940 -104.1078
7.276511 93.970 -104.6173
7.329239 94.000 -105.1278
7.382350 94.029 -105.6389
7.435845 94.058 -106.1501
7.489729 94.087 -106.6610
7.544002 94.116 -107.1710
7.598669 94.145 -107.6794
7.653732 94.174 -108.1856
7.709194 94.204 -108.6891
7.765058 94.234 -109.1896
7.821327 94.264 -109.6870
7.878004 94.295 -110.1812
7.935091 94.327 -110.6722
7.992592 94.359 -111.1599
8.050510 94.392 -111.6442
8.108847 94.426 -112.1251
8.167607 94.460 -112.6026
8.226793 94.496 -113.0770
8.286408 94.532 -113.5485
8.346454 94.570 -114.0174
8.406936 94.608 -114.4841
8.467856 94.648 -114.9486
8.529218 94.688 -115.4111
8.591024 94.729 -115.8717
8.653278 94.771 -116.3307
8.715983 94.813 -116.7881
8.779143 94.856 -117.2443
8.842760 94.900 -117.6991
8.906839 94.944 -118.1526
8.971381 94.989 -118.6046
9.036392 95.033 -119.0549
9.101873 95.078 -119.5031
9.167829 95.123 -119.9492
9.234263 95.168 -120.3929
9.301178 95.213 -120.8337
9.368578 95.257 -121.2712
9.436467 95.302 -121.7048
9.504847 95.346 -122.1342
9.573723 95.389 -122.5587
9.643099 95.432 -122.9781
9.712976 95.475 -123.3919
9.783361 95.517 -123.7996
9.854255 95.558 -124.2008
9.925663 95.600 -124.5952
9.997588 95.640 -124.9824
10.070035 95.680 -125.3623
10.143007 95.720 -125.7349
10.216507 95.759 -126.1000
10.290540 95.797 -126.4575
10.365109 95.835 -126.8076
10.440219 95.873 -127.1505
10.515873 95.910 -127.4864
10.592076 95.947 -127.8157
10.668830 95.984 -128.1385
10.746141 96.019 -128.4553
10.824012 96.055 -128.7665
10.902447 96.090 -129.0725
10.981451 96.124 -129.3739
11.061027 96.158 -129.6709
11.141180 96.191 -129.9641
11.221913 96.223 -130.2537
11.303232 96.255 -130.5402
11.385140 96.286 -130.8240
11.467641 96.316 -131.1053
11.550741 96.345 -131.3845
11.634442 96.373 -131.6616
11.718750 96.399 -131.9371
11.803669 96.425 -132.2109
11.889203 96.450 -132.4834
11.975357 96.474 -132.7545
12.062136 96.496 -133.0245
12.149543 96.517 -133.2934
12.237583 96.537 -133.5614
12.326262 96.556 -133.8285
12.415583 96.573 -134.0950
12.505552 96.590 -134.3609
12.596172 96.605 -134.6264
12.687449 96.619 -134.8918
12.779387 96.632 -135.1572
12.871992 96.644 -135.4228
12.965268 96.655 -135.6889
13.059220 96.664 -135.9558
13.153852 96.673 -136.2239
13.249170 96.682 -136.4934
13.345179 96.689 -136.7647
13.441884 96.695 -137.0382
13.539289 96.701 -137.3142
13.637401 96.707 -137.5931
13.736223 96.711 -137.8753
13.835761 96.715 -138.1611
13.936021 96.719 -138.4510
14.037007 96.722 -138.7451
14.138725 96.724 -139.0438
14.241180 96.727 -139.3474
14.344377 96.729 -139.6560
14.448323 96.730 -139.9697
14.553021 96.731 -140.2887
14.658478 96.732 -140.6128
14.764700 96.733 -140.9420
14.871691 96.734 -141.2761
14.979457 96.734 -141.6150
15.088005 96.735 -141.9581
15.197339 96.735 -142.3054
15.307465 96.735 -142.6562
15.418389 96.736 -143.0102
15.530117 96.737 -143.3669
15.642655 96.737 -143.7259
15.756008 96.739 -144.0867
15.870182 96.740 -144.4489
15.985184 96.742 -144.8122
16.101019 96.745 -145.1762
16.217694 96.748 -145.5405
16.335214 96.752 -145.9049
16.453586 96.757 -146.2691
16.572815 96.762 -146.6328
16.692909 96.768 -146.9958
16.813872 96.775 -147.3578
16.935713 96.783 -147.7184
17.058436 96.791 -148.0774
17.182048 96.800 -148.4341
17.306556 96.809 -148.7883
17.431967 96.819 -149.1394
17.558286 96.829 -149.4869
17.685521 96.840 -149.8302
17.813677 96.851 -150.1689
17.942762 96.862 -150.5024
18.072783 96.873 -150.8303
18.203746 96.885 -151.1523
18.335658 96.897 -151.4680
18.468526 96.908 -151.7772
18.602356 96.920 -152.0798
18.737156 96.931 -152.3758
18.872934 96.942 -152.6653
19.009695 96.954 -152.9484
19.147447 96.964 -153.2252
19.286197 96.975 -153.4960
19.425953 96.985 -153.7610
19.566721 96.994 -154.0206
19.708510 97.003 -154.2749
19.851326 97.011 -154.5244
19.995177 97.018 -154.7694
20.140070 97.024 -155.0103
20.286013 97.030 -155.2474
20.433014 97.034 -155.4811
20.581080 97.038 -155.7120
20.730219 97.041 -155.9405
20.880439 97.042 -156.1670
21.031747 97.043 -156.3923
21.184152 97.043 -156.6166
21.337661 97.042 -156.8407
21.492282 97.040 -157.0652
21.648024 97.037 -157.2904
21.804895 97.033 -157.5171
21.962902 97.028 -157.7458
22.122054 97.023 -157.9769
22.282360 97.017 -158.2111
22.443827 97.011 -158.4487
22.606464 97.004 -158.6902
22.770280 96.997 -158.9358
22.935283 96.989 -159.1858
23.101481 96.981 -159.4403
23.268884 96.973 -159.6993
23.437500 96.964 -159.9628
23.607338 96.956 -160.2305
23.778406 96.948 -160.5021
23.950714 96.940 -160.7775
24.124271 96.932 -161.0562
24.299086 96.925 -161.3378
24.475167 96.918 -161.6221
24.652524 96.911 -161.9085
24.831166 96.906 -162.1966
25.011103 96.900 -162.4860
25.192344 96.896 -162.7759
25.374898 96.892 -163.0658
25.558775 96.888 -163.3548
25.743984 96.885 -163.6420
25.930536 96.883 -163.9267
26.118439 96.881 -164.2080
26.307704 96.879 -164.4851
26.498341 96.878 -164.7574
26.690359 96.877 -165.0246
26.883768 96.877 -165.2865
27.078579 96.877 -165.5431
27.274801 96.877 -165.7946
27.472446 96.878 -166.0413
27.671522 96.878 -166.2835
27.872042 96.879 -166.5215
28.074014 96.879 -166.7553
28.277450 96.878 -166.9849
28.482360 96.877 -167.2102
28.688755 96.875 -167.4311
28.896645 96.872 -167.6475
29.106042 96.868 -167.8594
29.316957 96.864 -168.0672
29.529400 96.859 -168.2716
29.743382 96.853 -168.4735
29.958915 96.847 -168.6743
30.176009 96.841 -168.8754
30.394677 96.834 -169.0780
30.614929 96.827 -169.2833
30.836778 96.819 -169.4922
31.060234 96.810 -169.7048
31.285309 96.801 -169.9212
31.512015 96.791 -170.1408
31.740364 96.780 -170.3630
31.970368 96.770 -170.5872
32.202039 96.759 -170.8130
32.435388 96.748 -171.0403
32.670428 96.737 -171.2694
32.907171 96.727 -171.5011
33.145630 96.718 -171.7359
33.385817 96.709 -171.9745
33.627745 96.700 -172.2168
33.871425 96.691 -172.4623
34.116871 96.683 -172.7098
34.364096 96.674 -172.9576
34.613113 96.665 -173.2035
34.863934 96.656 -173.4456
35.116572 96.647 -173.6824
35.371041 96.638 -173.9129
35.627354 96.629 -174.1371
35.885525 96.621 -174.3555
36.145566 96.613 -174.5692
36.407492 96.605 -174.7793
36.671316 96.598 -174.9869
36.937051 96.590 -175.1930
37.204712 96.583 -175.3981
37.474313 96.575 -175.6026
37.745867 96.566 -175.8068
38.019389 96.557 -176.0111
38.294893 96.547 -176.2157
38.572394 96.536 -176.4204
38.851905 96.525 -176.6248
39.133442 96.512 -176.8279
39.417019 96.499 -177.0285
39.702651 96.485 -177.2252
39.990353 96.470 -177.4174
40.280140 96.456 -177.6057
40.572026 96.443 -177.7916
40.866028 96.430 -177.9779
41.162160 96.418 -178.1679
41.460438 96.408 -178.3641
41.760877 96.397 -178.5678
42.063494 96.386 -178.7783
42.368303 96.374 -178.9933
42.675322 96.362 -179.2092
42.984565 96.348 -179.4225
43.296048 96.334 -179.6303
43.609789 96.319 -179.8308
43.925804 96.305 179.9761
44.244108 96.291 179.7899
44.564719 96.277 179.6095
44.887654 96.263 179.4337
45.212928 96.250 179.2612
45.540560 96.237 179.0910
45.870565 96.225 178.9218
46.202962 96.212 178.7522
46.537768 96.200 178.5814
46.875000 96.188 178.4089
47.214676 96.175 178.2350
47.556813 96.162 178.0603
47.901429 96.148 177.8853
48.248542 96.135 177.7100
48.598171 96.121 177.5344
48.950334 96.107 177.3582
49.305048 96.093 177.1813
49.662333 96.078 177.0044
50.022206 96.064 176.8283
50.384688 96.049 176.6542
50.749796 96.033 176.4827
51.117550 96.018 176.3141
51.487969 96.003 176.1483
51.861072 95.987 175.9853
52.236879 95.972 175.8250
52.615409 95.957 175.6673
52.996681 95.943 175.5114
53.380717 95.928 175.3566
53.767536 95.914 175.2016
54.157158 95.899 175.0460
54.549603 95.885 174.8897
54.944892 95.871 174.7333
55.343045 95.857 174.5768
55.744084 95.844 174.4196
56.148028 95.831 174.2604
56.554900 95.818 174.0977
56.964720 95.805 173.9308
57.377510 95.793 173.7596
57.793291 95.780 173.5849
58.212085 95.767 173.4076
58.633914 95.753 173.2286
59.058799 95.738 173.0493
59.486764 95.722 172.8712
59.917829 95.706 172.6965
60.352019 95.688 172.5269
60.789354 95.670 172.3629
61.229859 95.652 172.2038
61.673556 95.633 172.0478
62.120468 95.614 171.8936
62.570618 95.595 171.7403
63.024031 95.576 171.5875
63.480729 95.557 171.4349
63.940736 95.537 171.2823
64.404077 95.518 171.1296
64.870776 95.498 170.9771
65.340856 95.478 170.8257
65.814343 95.458 170.6764
66.291261 95.438 170.5300
66.771635 95.418 170.3872
67.255489 95.399 170.2482
67.742850 95.380 170.1128
68.233743 95.361 169.9803
68.728193 95.342 169.8496
69.226226 95.324 169.7196
69.727867 95.305 169.5898
70.233144 95.286 169.4608
70.742083 95.267 169.3331
71.254709 95.247 169.2073
71.771050 95.228 169.0825
72.291132 95.208 168.9574
72.814984 95.189 168.8311
73.342631 95.169 168.7036
73.874102 95.149 168.5756
74.409424 95.129 168.4478
74.948626 95.109 168.3206
75.491734 95.089 168.1943
76.038779 95.069 168.0686
76.589787 95.050 167.9435
77.144788 95.031 167.8184
77.703811 95.012 167.6921
78.266885 94.995 167.5631
78.834039 94.977 167.4300
79.405303 94.959 167.2922
79.980706 94.942 167.1494
80.560280 94.923 167.0018
81.144053 94.904 166.8498
81.732056 94.884 166.6941
82.324320 94.863 166.5357
82.920876 94.841 166.3758
83.521755 94.816 166.2164
84.126988 94.790 166.0601
84.736607 94.762 165.9098
85.350643 94.733 165.7683
85.969129 94.702 165.6371
86.592097 94.672 165.5162
