* Measurement data measured by REW V5.31.3
* Source: EXCL: Microphone (USB Sound Device        ), MICROPHONE (Master Volume), R, volume: 0.390
* Format: 256k Log Swept Sine, 1 sweep at -16.0 dBFS with no timing reference
* Dated: Jun 15, 2025 12:47:00 AM
* REW Settings:
*  C-weighting compensation: Off
*  Target level: 75.0 dB
* Note: Tigerism Dragonfly
* Measurement: L Tigerism Dragonfly
* Smoothing: 1/12 octave
* Frequency Step: 96 ppo
* Start Frequency: 0.36621094 Hz
*
* Freq(Hz) SPL(dB) Phase(degrees)
0.366211 91.542 169.9417
0.368865 91.539 169.9304
0.371538 91.535 169.9134
0.374230 91.531 169.8920
0.376942 91.525 169.8675
0.379673 91.519 169.8406
0.382424 91.513 169.8119
0.385196 91.506 169.7818
0.387987 91.500 169.7504
0.390798 91.493 169.7177
0.393630 91.487 169.6840
0.396483 91.480 169.6491
0.399356 91.473 169.6132
0.402250 91.467 169.5761
0.405165 91.460 169.5380
0.408101 91.453 169.4987
0.411058 91.446 169.4584
0.414037 91.439 169.4168
0.417037 91.432 169.3742
0.420059 91.425 169.3304
0.423103 91.418 169.2855
0.426169 91.411 169.2394
0.429257 91.403 169.1921
0.432368 91.396 169.1437
0.435501 91.389 169.0940
0.438656 91.381 169.0432
0.441835 91.374 168.9912
0.445037 91.366 168.9380
0.448262 91.359 168.8835
0.451510 91.351 168.8279
0.454782 91.343 168.7710
0.458077 91.336 168.7129
0.461397 91.328 168.6536
0.464740 91.320 168.5930
0.468108 91.312 168.5312
0.471500 91.304 168.4682
0.474917 91.296 168.4038
0.478358 91.288 168.3383
0.481825 91.280 168.2715
0.485316 91.272 168.2034
0.488833 91.264 168.1341
0.492375 91.255 168.0635
0.495943 91.247 167.9917
0.499537 91.239 167.9186
0.503157 91.230 167.8442
0.506803 91.221 167.7686
0.510475 91.213 167.6918
0.514175 91.204 167.6137
0.517900 91.195 167.5343
0.521653 91.187 167.4538
0.525434 91.178 167.3719
0.529241 91.169 167.2889
0.533076 91.160 167.2046
0.536939 91.151 167.1192
0.540830 91.142 167.0325
0.544749 91.132 166.9446
0.548696 91.123 166.8556
0.552673 91.114 166.7654
0.556677 91.105 166.6740
0.560711 91.095 166.5815
0.564774 91.086 166.4879
0.568867 91.076 166.3932
0.572989 91.066 166.2974
0.577141 91.057 166.2005
0.581324 91.047 166.1026
0.585536 91.037 166.0037
0.589779 91.027 165.9038
0.594053 91.017 165.8029
0.598358 91.007 165.7010
0.602694 90.997 165.5983
0.607061 90.986 165.4947
0.611460 90.976 165.3902
0.615891 90.966 165.2850
0.620354 90.955 165.1790
0.624849 90.945 165.0722
0.629377 90.934 164.9647
0.633938 90.923 164.8567
0.638532 90.913 164.7480
0.643159 90.902 164.6387
0.647819 90.891 164.5290
0.652514 90.880 164.4189
0.657242 90.869 164.3083
0.662005 90.858 164.1974
0.666802 90.846 164.0863
0.671634 90.835 163.9750
0.676501 90.824 163.8636
0.681403 90.812 163.7521
0.686341 90.800 163.6406
0.691314 90.789 163.5292
0.696324 90.777 163.4180
0.701370 90.765 163.3071
0.706452 90.753 163.1964
0.711571 90.741 163.0860
0.716728 90.728 162.9759
0.721921 90.715 162.8660
0.727153 90.701 162.7562
0.732422 90.687 162.6460
0.737729 90.671 162.5353
0.743075 90.655 162.4235
0.748460 90.638 162.3103
0.753883 90.620 162.1956
0.759346 90.602 162.0791
0.764849 90.584 161.9607
0.770391 90.565 161.8404
0.775974 90.545 161.7182
0.781597 90.526 161.5940
0.787261 90.506 161.4678
0.792966 90.486 161.3397
0.798712 90.466 161.2097
0.804500 90.445 161.0777
0.810329 90.424 160.9439
0.816201 90.403 160.8082
0.822116 90.381 160.6706
0.828073 90.359 160.5313
0.834074 90.337 160.3901
0.840118 90.314 160.2472
0.846206 90.291 160.1026
0.852338 90.268 159.9563
0.858514 90.244 159.8084
0.864735 90.220 159.6590
0.871001 90.195 159.5079
0.877313 90.170 159.3555
0.883670 90.145 159.2017
0.890074 90.120 159.0465
0.896524 90.094 158.8900
0.903020 90.067 158.7324
0.909564 90.040 158.5737
0.916155 90.013 158.4140
0.922794 89.985 158.2533
0.929481 89.957 158.0918
0.936216 89.929 157.9297
0.943000 89.899 157.7669
0.949834 89.870 157.6036
0.956717 89.840 157.4400
0.963649 89.810 157.2762
0.970632 89.779 157.1124
0.977666 89.747 156.9486
0.984750 89.715 156.7850
0.991886 89.683 156.6219
0.999074 89.650 156.4594
1.006314 89.616 156.2977
1.013606 89.582 156.1370
1.020951 89.547 155.9776
1.028349 89.512 155.8195
1.035801 89.476 155.6632
1.043307 89.440 155.5088
1.050867 89.403 155.3565
1.058482 89.365 155.2067
1.066152 89.327 155.0596
1.073878 89.288 154.9153
1.081660 89.249 154.7740
1.089498 89.208 154.6359
1.097393 89.167 154.5009
1.105345 89.126 154.3688
1.113355 89.083 154.2395
1.121423 89.040 154.1128
1.129549 88.996 153.9887
1.137734 88.951 153.8669
1.145979 88.906 153.7475
1.154283 88.860 153.6305
1.162647 88.812 153.5158
1.171072 88.764 153.4035
1.179558 88.716 153.2937
1.188106 88.666 153.1863
1.196715 88.616 153.0814
1.205387 88.564 152.9790
1.214122 88.512 152.8792
1.222920 88.460 152.7821
1.231782 88.406 152.6877
1.240708 88.351 152.5960
1.249699 88.296 152.5071
1.258754 88.240 152.4210
1.267876 88.183 152.3379
1.277063 88.125 152.2578
1.286318 88.067 152.1807
1.295639 88.007 152.1068
1.305027 87.947 152.0360
1.314484 87.886 151.9685
1.324009 87.824 151.9043
1.333604 87.762 151.8436
1.343268 87.698 151.7863
1.353002 87.634 151.7326
1.362806 87.569 151.6826
1.372681 87.504 151.6363
1.382628 87.437 151.5938
1.392647 87.370 151.5553
1.402739 87.302 151.5208
1.412904 87.233 151.4904
1.423142 87.164 151.4644
1.433455 87.094 151.4429
1.443843 87.022 151.4261
1.454305 86.950 151.4145
1.464844 86.876 151.4084
1.475459 86.802 151.4084
1.486150 86.725 151.4150
1.496920 86.647 151.4288
1.507767 86.566 151.4503
1.518693 86.484 151.4798
1.529698 86.400 151.5178
1.540783 86.315 151.5646
1.551948 86.228 151.6205
1.563194 86.139 151.6860
1.574521 86.049 151.7614
1.585931 85.957 151.8469
1.597423 85.864 151.9431
1.608999 85.771 152.0502
1.620658 85.677 152.1687
1.632402 85.581 152.2989
1.644232 85.486 152.4413
1.656146 85.390 152.5962
1.668147 85.294 152.7641
1.680235 85.199 152.9453
1.692411 85.103 153.1404
1.704675 85.009 153.3496
1.717028 84.915 153.5735
1.729470 84.822 153.8124
1.742003 84.730 154.0668
1.754626 84.640 154.3370
1.767341 84.551 154.6237
1.780147 84.465 154.9273
1.793047 84.380 155.2486
1.806040 84.298 155.5888
1.819128 84.217 155.9491
1.832310 84.139 156.3314
1.845587 84.062 156.7376
1.858961 83.986 157.1698
1.872432 83.910 157.6296
1.886001 83.836 158.1178
1.899667 83.762 158.6349
1.913433 83.689 159.1811
1.927299 83.617 159.7558
1.941265 83.546 160.3586
1.955332 83.477 160.9883
1.969501 83.409 161.6439
1.983773 83.343 162.3239
1.998148 83.279 163.0265
2.012627 83.218 163.7500
2.027212 83.160 164.4920
2.041902 83.104 165.2503
2.056698 83.053 166.0220
2.071602 83.005 166.8043
2.086614 82.961 167.5942
2.101734 82.922 168.3885
2.116964 82.888 169.1838
2.132304 82.859 169.9771
2.147756 82.836 170.7657
2.163320 82.820 171.5475
2.178996 82.810 172.3214
2.194786 82.807 173.0873
2.210690 82.812 173.8463
2.226710 82.825 174.5994
2.242845 82.846 175.3472
2.259098 82.874 176.0890
2.275468 82.910 176.8234
2.291957 82.953 177.5481
2.308566 83.002 178.2601
2.325295 83.058 178.9565
2.342145 83.120 179.6341
2.359117 83.187 -179.7103
2.376212 83.259 -179.0798
2.393431 83.336 -178.4772
2.410775 83.415 -177.9054
2.428244 83.498 -177.3669
2.445840 83.583 -176.8643
2.463564 83.670 -176.3995
2.481416 83.758 -175.9746
2.499397 83.846 -175.5911
2.517509 83.935 -175.2500
2.535752 84.025 -174.9519
2.554127 84.115 -174.6966
2.572635 84.206 -174.4833
2.591277 84.299 -174.3105
2.610055 84.394 -174.1769
2.628968 84.491 -174.0809
2.648019 84.591 -174.0214
2.667208 84.694 -173.9973
2.686535 84.799 -174.0076
2.706003 84.907 -174.0516
2.725612 85.016 -174.1285
2.745363 85.126 -174.2376
2.765257 85.237 -174.3781
2.785295 85.348 -174.5496
2.805478 85.459 -174.7514
2.825808 85.569 -174.9833
2.846285 85.677 -175.2450
2.866910 85.784 -175.5366
2.887685 85.889 -175.8583
2.908611 85.992 -176.2108
2.929688 86.093 -176.5949
2.950917 86.191 -177.0112
2.972301 86.288 -177.4601
2.993839 86.383 -177.9413
3.015534 86.477 -178.4538
3.037386 86.569 -178.9960
3.059396 86.660 -179.5661
3.081565 86.750 179.8379
3.103896 86.838 179.2180
3.126388 86.925 178.5763
3.149043 87.011 177.9144
3.171862 87.096 177.2341
3.194847 87.179 176.5364
3.217998 87.261 175.8222
3.241317 87.341 175.0913
3.264805 87.420 174.3432
3.288463 87.497 173.5761
3.312293 87.572 172.7880
3.336295 87.646 171.9768
3.360471 87.717 171.1414
3.384822 87.787 170.2819
3.409350 87.855 169.3994
3.434056 87.922 168.4962
3.458940 87.986 167.5748
3.484005 88.050 166.6380
3.509252 88.112 165.6890
3.534681 88.172 164.7305
3.560295 88.232 163.7651
3.586094 88.291 162.7945
3.612081 88.349 161.8198
3.638255 88.405 160.8407
3.664620 88.461 159.8558
3.691175 88.516 158.8628
3.717923 88.569 157.8596
3.744864 88.621 156.8449
3.772001 88.672 155.8189
3.799335 88.722 154.7826
3.826866 88.771 153.7381
3.854597 88.818 152.6878
3.882529 88.866 151.6347
3.910664 88.912 150.5816
3.939002 88.959 149.5309
3.967546 89.005 148.4848
3.996296 89.051 147.4442
4.025255 89.096 146.4089
4.054423 89.142 145.3779
4.083804 89.187 144.3495
4.113396 89.232 143.3228
4.143204 89.276 142.2974
4.173227 89.320 141.2738
4.203468 89.365 140.2535
4.233928 89.409 139.2384
4.264609 89.454 138.2306
4.295512 89.499 137.2325
4.326639 89.545 136.2462
4.357992 89.592 135.2733
4.389572 89.640 134.3147
4.421380 89.689 133.3707
4.453419 89.739 132.4406
4.485691 89.789 131.5237
4.518196 89.841 130.6194
4.550936 89.893 129.7273
4.583914 89.947 128.8472
4.617131 90.002 127.9793
4.650589 90.059 127.1240
4.684289 90.117 126.2820
4.718233 90.178 125.4540
4.752424 90.240 124.6409
4.786862 90.304 123.8432
4.821549 90.371 123.0611
4.856488 90.439 122.2944
4.891680 90.510 121.5420
4.927127 90.582 120.8029
4.962831 90.657 120.0755
4.998794 90.733 119.3586
5.035017 90.812 118.6509
5.071503 90.893 117.9518
5.108253 90.976 117.2609
5.145270 91.061 116.5785
5.182555 91.148 115.9048
5.220110 91.238 115.2398
5.257937 91.329 114.5831
5.296038 91.423 113.9335
5.334415 91.518 113.2896
5.373071 91.615 112.6499
5.412006 91.713 112.0129
5.451224 91.812 111.3775
5.490725 91.912 110.7430
5.530514 92.014 110.1092
5.570590 92.116 109.4764
5.610957 92.219 108.8448
5.651616 92.323 108.2146
5.692570 92.427 107.5855
5.733821 92.531 106.9572
5.775370 92.635 106.3293
5.817221 92.739 105.7012
5.859375 92.842 105.0725
5.901834 92.944 104.4428
5.944602 93.046 103.8125
5.987679 93.146 103.1822
6.031068 93.246 102.5528
6.074771 93.345 101.9254
6.118792 93.442 101.3011
6.163131 93.537 100.6805
6.207792 93.631 100.0639
6.252776 93.723 99.4512
6.298086 93.813 98.8426
6.343725 93.901 98.2385
6.389694 93.987 97.6397
6.435996 94.072 97.0475
6.482634 94.154 96.4635
6.529610 94.235 95.8887
6.576926 94.313 95.3239
6.624585 94.390 94.7696
6.672590 94.464 94.2256
6.720942 94.537 93.6922
6.769645 94.608 93.1696
6.818700 94.678 92.6585
6.868111 94.746 92.1596
6.917881 94.812 91.6737
6.968010 94.878 91.2010
7.018504 94.942 90.7415
7.069362 95.005 90.2949
7.120590 95.067 89.8606
7.172189 95.129 89.4380
7.224161 95.189 89.0266
7.276511 95.249 88.6258
7.329239 95.309 88.2353
7.382350 95.369 87.8546
7.435845 95.428 87.4829
7.489729 95.487 87.1193
7.544002 95.546 86.7624
7.598669 95.604 86.4108
7.653732 95.662 86.0633
7.709194 95.721 85.7189
7.765058 95.779 85.3769
7.821327 95.837 85.0366
7.878004 95.894 84.6970
7.935091 95.951 84.3570
7.992592 96.008 84.0157
8.050510 96.063 83.6721
8.108847 96.118 83.3257
8.167607 96.172 82.9762
8.226793 96.225 82.6234
8.286408 96.277 82.2673
8.346454 96.327 81.9079
8.406936 96.376 81.5451
8.467856 96.423 81.1790
8.529218 96.469 80.8098
8.591024 96.513 80.4378
8.653278 96.555 80.0639
8.715983 96.595 79.6887
8.779143 96.633 79.3128
8.842760 96.669 78.9367
8.906839 96.704 78.5607
8.971381 96.737 78.1855
9.036392 96.768 77.8116
9.101873 96.797 77.4396
9.167829 96.825 77.0698
9.234263 96.851 76.7026
9.301178 96.877 76.3380
9.368578 96.901 75.9757
9.436467 96.924 75.6158
9.504847 96.946 75.2579
9.573723 96.968 74.9017
9.643099 96.989 74.5469
9.712976 97.009 74.1927
9.783361 97.030 73.8383
9.854255 97.050 73.4829
9.925663 97.069 73.1258
9.997588 97.089 72.7662
10.070035 97.108 72.4034
10.143007 97.127 72.0367
10.216507 97.146 71.6654
10.290540 97.165 71.2888
10.365109 97.183 70.9065
10.440219 97.201 70.5184
10.515873 97.219 70.1244
10.592076 97.236 69.7244
10.668830 97.252 69.3184
10.746141 97.268 68.9068
10.824012 97.284 68.4900
10.902447 97.299 68.0684
10.981451 97.313 67.6426
11.061027 97.327 67.2133
11.141180 97.340 66.7808
11.221913 97.353 66.3459
11.303232 97.365 65.9092
11.385140 97.377 65.4710
11.467641 97.389 65.0319
11.550741 97.402 64.5920
11.634442 97.414 64.1515
11.718750 97.426 63.7106
11.803669 97.439 63.2693
11.889203 97.453 62.8275
11.975357 97.466 62.3851
12.062136 97.481 61.9418
12.149543 97.496 61.4976
12.237583 97.511 61.0522
12.326262 97.527 60.6058
12.415583 97.544 60.1582
12.505552 97.561 59.7096
12.596172 97.578 59.2602
12.687449 97.596 58.8104
12.779387 97.614 58.3609
12.871992 97.632 57.9122
12.965268 97.651 57.4650
13.059220 97.669 57.0200
13.153852 97.688 56.5783
13.249170 97.707 56.1406
13.345179 97.726 55.7076
13.441884 97.745 55.2801
13.539289 97.764 54.8587
13.637401 97.783 54.4438
13.736223 97.803 54.0358
13.835761 97.824 53.6347
13.936021 97.844 53.2405
14.037007 97.866 52.8530
14.138725 97.888 52.4720
14.241180 97.910 52.0971
14.344377 97.932 51.7278
14.448323 97.955 51.3636
14.553021 97.979 51.0041
14.658478 98.002 50.6490
14.764700 98.026 50.2978
14.871691 98.049 49.9504
14.979457 98.072 49.6067
15.088005 98.095 49.2666
15.197339 98.118 48.9301
15.307465 98.140 48.5973
15.418389 98.161 48.2684
15.530117 98.181 47.9434
15.642655 98.201 47.6225
15.756008 98.220 47.3056
15.870182 98.238 46.9928
15.985184 98.255 46.6838
16.101019 98.271 46.3785
16.217694 98.286 46.0766
16.335214 98.300 45.7778
16.453586 98.314 45.4818
16.572815 98.326 45.1882
16.692909 98.337 44.8967
16.813872 98.347 44.6069
16.935713 98.357 44.3186
17.058436 98.365 44.0314
17.182048 98.372 43.7451
17.306556 98.378 43.4595
17.431967 98.383 43.1742
17.558286 98.387 42.8889
17.685521 98.391 42.6033
17.813677 98.393 42.3169
17.942762 98.395 42.0294
18.072783 98.396 41.7400
18.203746 98.397 41.4485
18.335658 98.397 41.1541
18.468526 98.396 40.8566
18.602356 98.395 40.5555
18.737156 98.394 40.2506
18.872934 98.392 39.9417
19.009695 98.390 39.6287
19.147447 98.388 39.3117
19.286197 98.385 38.9908
19.425953 98.383 38.6662
19.566721 98.380 38.3380
19.708510 98.377 38.0066
19.851326 98.375 37.6721
19.995177 98.372 37.3346
20.140070 98.370 36.9945
20.286013 98.368 36.6520
20.433014 98.367 36.3072
20.581080 98.366 35.9606
20.730219 98.366 35.6126
20.880439 98.366 35.2636
21.031747 98.367 34.9143
21.184152 98.368 34.5654
21.337661 98.370 34.2173
21.492282 98.373 33.8708
21.648024 98.376 33.5264
21.804895 98.380 33.1843
21.962902 98.384 32.8451
22.122054 98.389 32.5087
22.282360 98.395 32.1755
22.443827 98.401 31.8453
22.606464 98.407 31.5185
22.770280 98.414 31.1952
22.935283 98.421 30.8758
23.101481 98.428 30.5606
23.268884 98.435 30.2502
23.437500 98.441 29.9452
23.607338 98.448 29.6459
23.778406 98.454 29.3526
23.950714 98.459 29.0656
24.124271 98.465 28.7845
24.299086 98.469 28.5091
24.475167 98.474 28.2387
24.652524 98.478 27.9724
24.831166 98.482 27.7094
25.011103 98.485 27.4487
25.192344 98.488 27.1897
25.374898 98.489 26.9316
25.558775 98.490 26.6741
25.743984 98.490 26.4169
25.930536 98.490 26.1599
26.118439 98.488 25.9029
26.307704 98.485 25.6461
26.498341 98.482 25.3892
26.690359 98.478 25.1318
26.883768 98.474 24.8737
27.078579 98.469 24.6140
27.274801 98.464 24.3520
27.472446 98.459 24.0869
27.671522 98.454 23.8177
27.872042 98.450 23.5439
28.074014 98.445 23.2649
28.277450 98.440 22.9808
28.482360 98.435 22.6919
28.688755 98.430 22.3989
28.896645 98.426 22.1027
29.106042 98.421 21.8045
29.316957 98.417 21.5051
29.529400 98.412 21.2056
29.743382 98.409 20.9065
29.958915 98.406 20.6080
30.176009 98.404 20.3102
30.394677 98.402 20.0128
30.614929 98.401 19.7158
30.836778 98.401 19.4191
31.060234 98.401 19.1230
31.285309 98.401 18.8279
31.512015 98.401 18.5344
31.740364 98.402 18.2431
31.970368 98.402 17.9546
32.202039 98.402 17.6693
32.435388 98.402 17.3874
32.670428 98.402 17.1088
32.907171 98.401 16.8335
33.145630 98.400 16.5612
33.385817 98.399 16.2914
33.627745 98.397 16.0238
33.871425 98.395 15.7580
34.116871 98.392 15.4933
34.364096 98.388 15.2291
34.613113 98.385 14.9648
34.863934 98.380 14.6997
35.116572 98.375 14.4337
35.371041 98.369 14.1663
35.627354 98.363 13.8978
35.885525 98.356 13.6282
36.145566 98.348 13.3578
36.407492 98.341 13.0869
36.671316 98.333 12.8156
36.937051 98.325 12.5440
37.204712 98.316 12.2721
37.474313 98.308 11.9997
37.745867 98.301 11.7269
38.019389 98.293 11.4534
38.294893 98.286 11.1795
38.572394 98.279 10.9052
38.851905 98.272 10.6309
39.133442 98.266 10.3570
39.417019 98.260 10.0838
39.702651 98.254 9.8117
39.990353 98.248 9.5407
40.280140 98.242 9.2708
40.572026 98.237 9.0017
40.866028 98.231 8.7331
41.162160 98.226 8.4649
41.460438 98.221 8.1968
41.760877 98.215 7.9289
42.063494 98.209 7.6610
42.368303 98.203 7.3929
42.675322 98.196 7.1243
42.984565 98.189 6.8550
43.296048 98.182 6.5850
43.609789 98.174 6.3147
43.925804 98.165 6.0448
44.244108 98.156 5.7761
44.564719 98.147 5.5093
44.887654 98.137 5.2445
45.212928 98.128 4.9812
45.540560 98.118 4.7186
45.870565 98.109 4.4558
46.202962 98.100 4.1921
46.537768 98.091 3.9275
46.875000 98.081 3.6624
47.214676 98.072 3.3973
47.556813 98.062 3.1329
47.901429 98.052 2.8695
48.248542 98.042 2.6072
48.598171 98.031 2.3460
48.950334 98.021 2.0860
49.305048 98.010 1.8274
49.662333 97.999 1.5701
50.022206 97.988 1.3139
50.384688 97.977 1.0584
50.749796 97.966 0.8029
51.117550 97.955 0.5469
51.487969 97.943 0.2904
51.861072 97.932 0.0337
52.236879 97.921 -0.2226
52.615409 97.909 -0.4778
52.996681 97.898 -0.7313
53.380717 97.886 -0.9829
53.767536 97.875 -1.2328
54.157158 97.865 -1.4815
54.549603 97.854 -1.7295
54.944892 97.844 -1.9777
55.343045 97.835 -2.2269
55.744084 97.825 -2.4776
56.148028 97.816 -2.7305
56.554900 97.806 -2.9857
56.964720 97.796 -3.2436
57.377510 97.785 -3.5042
57.793291 97.774 -3.7671
58.212085 97.763 -4.0322
58.633914 97.750 -4.2989
59.058799 97.737 -4.5669
59.486764 97.724 -4.8358
59.917829 97.710 -5.1053
60.352019 97.696 -5.3750
60.789354 97.681 -5.6445
61.229859 97.666 -5.9132
61.673556 97.651 -6.1806
62.120468 97.636 -6.4462
62.570618 97.620 -6.7097
63.024031 97.605 -6.9709
63.480729 97.589 -7.2297
63.940736 97.573 -7.4862
64.404077 97.558 -7.7405
64.870776 97.542 -7.9929
65.340856 97.525 -8.2438
65.814343 97.509 -8.4936
66.291261 97.492 -8.7428
66.771635 97.475 -8.9917
67.255489 97.458 -9.2406
67.742850 97.441 -9.4894
68.233743 97.423 -9.7383
68.728193 97.405 -9.9872
69.226226 97.388 -10.2359
69.727867 97.370 -10.4843
70.233144 97.352 -10.7322
70.742083 97.334 -10.9793
71.254709 97.317 -11.2255
71.771050 97.299 -11.4708
72.291132 97.282 -11.7154
72.814984 97.264 -11.9595
73.342631 97.247 -12.2031
73.874102 97.229 -12.4461
74.409424 97.211 -12.6880
74.948626 97.193 -12.9287
75.491734 97.175 -13.1685
76.038779 97.157 -13.4079
76.589787 97.140 -13.6479
77.144788 97.122 -13.8895
77.703811 97.105 -14.1335
78.266885 97.087 -14.3806
78.834039 97.070 -14.6314
79.405303 97.052 -14.8863
79.980706 97.035 -15.1457
80.560280 97.017 -15.4102
81.144053 96.998 -15.6800
81.732056 96.978 -15.9553
82.324320 96.957 -16.2351
82.920876 96.935 -16.5179
83.521755 96.911 -16.8011
84.126988 96.885 -17.0816
84.736607 96.858 -17.3566
85.350643 96.829 -17.6237
85.969129 96.800 -17.8815
86.592097 96.770 -18.1295
87.219579 96.740 -18.3685
87.851608 96.711 -18.5994
88.488217 96.682 -18.8237
89.129439 96.653 -19.0426
89.775308 96.624 -19.2574
90.425856 96.597 -19.4698
91.081119 96.569 -19.6810
91.741131 96.542 -19.8919
92.405925 96.515 -20.1028
93.075536 96.488 -20.3135
93.750000 96.461 -20.5240
94.429351 96.435 -20.7341
95.113625 96.408 -20.9435
95.802858 96.382 -21.1520
96.497085 96.355 -21.3589
97.196342 96.327 -21.5635
97.900667 96.300 -21.7653
98.610096 96.271 -21.9639
99.324665 96.243 -22.1586
100.044413 96.214 -22.3490
100.769376 96.184 -22.5346
