* Measurement data measured by REW V5.31
* Source: EXCL: Microphone (USB Sound Device        ), MICROPHONE (Master Volume), L, volume: 0.560
* Format: 256k Log Swept Sine, 1 sweep at -5.0 dBFS with no timing reference
* Dated: May 29, 2024 1:32:22 PM
* REW Settings:
*  C-weighting compensation: Off
*  Target level: 75.0 dB
* Note: Tigerism Sun Wukong L
* Measurement: L Tigerism Sun Wukong
* Smoothing: 1/12 octave
* Frequency Step: 96 ppo
* Start Frequency: 0.36621094 Hz
*
* Freq(Hz) SPL(dB) Phase(degrees)
0.366211 87.641 -54.2392
0.368865 87.648 -54.2934
0.371538 87.657 -54.3744
0.374230 87.670 -54.4757
0.376942 87.683 -54.5919
0.379673 87.698 -54.7190
0.382424 87.713 -54.8542
0.385196 87.729 -54.9960
0.387987 87.745 -55.1433
0.390798 87.761 -55.2957
0.393630 87.778 -55.4529
0.396483 87.794 -55.6147
0.399356 87.811 -55.7812
0.402250 87.828 -55.9521
0.405165 87.845 -56.1277
0.408101 87.862 -56.3078
0.411058 87.879 -56.4924
0.414037 87.896 -56.6816
0.417037 87.914 -56.8754
0.420059 87.931 -57.0737
0.423103 87.949 -57.2766
0.426169 87.966 -57.4840
0.429257 87.984 -57.6960
0.432368 88.002 -57.9125
0.435501 88.021 -58.1336
0.438656 88.039 -58.3591
0.441835 88.057 -58.5892
0.445037 88.076 -58.8238
0.448262 88.095 -59.0628
0.451510 88.113 -59.3062
0.454782 88.132 -59.5541
0.458077 88.152 -59.8063
0.461397 88.171 -60.0629
0.464740 88.190 -60.3238
0.468108 88.210 -60.5889
0.471500 88.229 -60.8582
0.474917 88.249 -61.1318
0.478358 88.269 -61.4094
0.481825 88.289 -61.6911
0.485316 88.310 -61.9769
0.488833 88.330 -62.2665
0.492375 88.350 -62.5601
0.495943 88.371 -62.8575
0.499537 88.392 -63.1586
0.503157 88.413 -63.4634
0.506803 88.434 -63.7719
0.510475 88.455 -64.0838
0.514175 88.477 -64.3992
0.517900 88.499 -64.7179
0.521653 88.520 -65.0399
0.525434 88.542 -65.3651
0.529241 88.564 -65.6934
0.533076 88.587 -66.0246
0.536939 88.609 -66.3587
0.540830 88.632 -66.6956
0.544749 88.654 -67.0351
0.548696 88.677 -67.3772
0.552673 88.700 -67.7217
0.556677 88.723 -68.0686
0.560711 88.747 -68.4177
0.564774 88.770 -68.7688
0.568867 88.794 -69.1220
0.572989 88.818 -69.4769
0.577141 88.842 -69.8336
0.581324 88.866 -70.1919
0.585536 88.891 -70.5516
0.589779 88.915 -70.9126
0.594053 88.940 -71.2749
0.598358 88.965 -71.6382
0.602694 88.990 -72.0024
0.607061 89.016 -72.3674
0.611460 89.041 -72.7331
0.615891 89.067 -73.0992
0.620354 89.093 -73.4658
0.624849 89.119 -73.8325
0.629377 89.145 -74.1994
0.633938 89.172 -74.5662
0.638532 89.198 -74.9328
0.643159 89.225 -75.2990
0.647819 89.252 -75.6648
0.652514 89.279 -76.0300
0.657242 89.307 -76.3944
0.662005 89.334 -76.7579
0.666802 89.362 -77.1204
0.671634 89.390 -77.4817
0.676501 89.418 -77.8417
0.681403 89.447 -78.2002
0.686341 89.476 -78.5572
0.691314 89.504 -78.9124
0.696324 89.533 -79.2659
0.701370 89.562 -79.6174
0.706452 89.592 -79.9670
0.711571 89.621 -80.3148
0.716728 89.650 -80.6608
0.721921 89.678 -81.0053
0.727153 89.706 -81.3490
0.732422 89.734 -81.6926
0.737729 89.760 -82.0370
0.743075 89.785 -82.3832
0.748460 89.809 -82.7320
0.753883 89.833 -83.0838
0.759346 89.856 -83.4391
0.764849 89.879 -83.7978
0.770391 89.902 -84.1602
0.775974 89.925 -84.5260
0.781597 89.948 -84.8954
0.787261 89.970 -85.2680
0.792966 89.993 -85.6439
0.798712 90.015 -86.0229
0.804500 90.037 -86.4048
0.810329 90.060 -86.7895
0.816201 90.082 -87.1768
0.822116 90.104 -87.5665
0.828073 90.125 -87.9585
0.834074 90.147 -88.3527
0.840118 90.169 -88.7488
0.846206 90.190 -89.1466
0.852338 90.211 -89.5461
0.858514 90.233 -89.9468
0.864735 90.254 -90.3488
0.871001 90.275 -90.7518
0.877313 90.295 -91.1555
0.883670 90.316 -91.5598
0.890074 90.336 -91.9644
0.896524 90.357 -92.3692
0.903020 90.377 -92.7740
0.909564 90.397 -93.1784
0.916155 90.417 -93.5822
0.922794 90.436 -93.9854
0.929481 90.456 -94.3875
0.936216 90.475 -94.7884
0.943000 90.494 -95.1878
0.949834 90.513 -95.5855
0.956717 90.531 -95.9812
0.963649 90.550 -96.3747
0.970632 90.568 -96.7657
0.977666 90.586 -97.1539
0.984750 90.604 -97.5392
0.991886 90.621 -97.9212
0.999074 90.639 -98.2997
1.006314 90.656 -98.6743
1.013606 90.672 -99.0448
1.020951 90.689 -99.4110
1.028349 90.705 -99.7725
1.035801 90.721 -100.1291
1.043307 90.737 -100.4804
1.050867 90.753 -100.8263
1.058482 90.768 -101.1664
1.066152 90.783 -101.5007
1.073878 90.798 -101.8290
1.081660 90.812 -102.1515
1.089498 90.826 -102.4683
1.097393 90.839 -102.7801
1.105345 90.852 -103.0876
1.113355 90.865 -103.3915
1.121423 90.877 -103.6927
1.129549 90.888 -103.9917
1.137734 90.899 -104.2889
1.145979 90.909 -104.5846
1.154283 90.918 -104.8790
1.162647 90.927 -105.1721
1.171072 90.935 -105.4641
1.179558 90.943 -105.7549
1.188106 90.950 -106.0445
1.196715 90.956 -106.3328
1.205387 90.962 -106.6200
1.214122 90.968 -106.9059
1.222920 90.972 -107.1904
1.231782 90.977 -107.4734
1.240708 90.981 -107.7549
1.249699 90.984 -108.0348
1.258754 90.987 -108.3129
1.267876 90.989 -108.5890
1.277063 90.992 -108.8630
1.286318 90.993 -109.1348
1.295639 90.995 -109.4040
1.305027 90.996 -109.6706
1.314484 90.997 -109.9341
1.324009 90.997 -110.1945
1.333604 90.998 -110.4513
1.343268 90.998 -110.7042
1.353002 90.998 -110.9530
1.362806 90.998 -111.1973
1.372681 90.997 -111.4366
1.382628 90.997 -111.6706
1.392647 90.997 -111.8988
1.402739 90.997 -112.1208
1.412904 90.997 -112.3361
1.423142 90.997 -112.5442
1.433455 90.997 -112.7448
1.443843 90.997 -112.9372
1.454305 90.997 -113.1213
1.464844 90.997 -113.2967
1.475459 90.996 -113.4633
1.486150 90.995 -113.6210
1.496920 90.994 -113.7698
1.507767 90.991 -113.9098
1.518693 90.989 -114.0410
1.529698 90.985 -114.1636
1.540783 90.981 -114.2775
1.551948 90.976 -114.3830
1.563194 90.971 -114.4800
1.574521 90.965 -114.5687
1.585931 90.959 -114.6492
1.597423 90.953 -114.7215
1.608999 90.947 -114.7859
1.620658 90.940 -114.8423
1.632402 90.934 -114.8909
1.644232 90.928 -114.9318
1.656146 90.922 -114.9652
1.668147 90.916 -114.9913
1.680235 90.911 -115.0101
1.692411 90.906 -115.0219
1.704675 90.902 -115.0268
1.717028 90.899 -115.0250
1.729470 90.897 -115.0167
1.742003 90.896 -115.0022
1.754626 90.896 -114.9814
1.767341 90.898 -114.9547
1.780147 90.902 -114.9219
1.793047 90.907 -114.8829
1.806040 90.913 -114.8371
1.819128 90.922 -114.7838
1.832310 90.932 -114.7218
1.845587 90.944 -114.6496
1.858961 90.957 -114.5660
1.872432 90.972 -114.4701
1.886001 90.988 -114.3615
1.899667 91.005 -114.2404
1.913433 91.024 -114.1073
1.927299 91.044 -113.9629
1.941265 91.065 -113.8080
1.955332 91.088 -113.6437
1.969501 91.112 -113.4713
1.983773 91.138 -113.2918
1.998148 91.164 -113.1065
2.012627 91.193 -112.9169
2.027212 91.223 -112.7242
2.041902 91.254 -112.5300
2.056698 91.287 -112.3357
2.071602 91.322 -112.1428
2.086614 91.359 -111.9528
2.101734 91.397 -111.7673
2.116964 91.437 -111.5876
2.132304 91.478 -111.4150
2.147756 91.522 -111.2503
2.163320 91.568 -111.0942
2.178996 91.616 -110.9463
2.194786 91.666 -110.8057
2.210690 91.719 -110.6710
2.226710 91.775 -110.5404
2.242845 91.834 -110.4127
2.259098 91.895 -110.2873
2.275468 91.959 -110.1641
2.291957 92.026 -110.0437
2.308566 92.095 -109.9270
2.325295 92.167 -109.8149
2.342145 92.241 -109.7086
2.359117 92.316 -109.6095
2.376212 92.394 -109.5188
2.393431 92.472 -109.4378
2.410775 92.552 -109.3678
2.428244 92.633 -109.3100
2.445840 92.715 -109.2658
2.463564 92.797 -109.2364
2.481416 92.879 -109.2229
2.499397 92.961 -109.2263
2.517509 93.043 -109.2473
2.535752 93.125 -109.2865
2.554127 93.207 -109.3440
2.572635 93.289 -109.4193
2.591277 93.371 -109.5118
2.610055 93.453 -109.6205
2.628968 93.537 -109.7445
2.648019 93.621 -109.8831
2.667208 93.706 -110.0356
2.686535 93.791 -110.2014
2.706003 93.877 -110.3800
2.725612 93.963 -110.5708
2.745363 94.048 -110.7735
2.765257 94.134 -110.9877
2.785295 94.219 -111.2132
2.805478 94.303 -111.4496
2.825808 94.386 -111.6970
2.846285 94.468 -111.9552
2.866910 94.549 -112.2245
2.887685 94.628 -112.5054
2.908611 94.705 -112.7986
2.929688 94.780 -113.1050
2.950917 94.854 -113.4256
2.972301 94.926 -113.7611
2.993839 94.997 -114.1115
3.015534 95.066 -114.4765
3.037386 95.134 -114.8550
3.059396 95.200 -115.2457
3.081565 95.265 -115.6472
3.103896 95.328 -116.0577
3.126388 95.389 -116.4756
3.149043 95.449 -116.8993
3.171862 95.507 -117.3271
3.194847 95.563 -117.7578
3.217998 95.617 -118.1904
3.241317 95.669 -118.6242
3.264805 95.719 -119.0596
3.288463 95.767 -119.4972
3.312293 95.812 -119.9387
3.336295 95.855 -120.3857
3.360471 95.896 -120.8393
3.384822 95.933 -121.2997
3.409350 95.969 -121.7664
3.434056 96.002 -122.2383
3.458940 96.033 -122.7135
3.484005 96.062 -123.1903
3.509252 96.088 -123.6662
3.534681 96.113 -124.1393
3.560295 96.135 -124.6074
3.586094 96.156 -125.0687
3.612081 96.175 -125.5219
3.638255 96.192 -125.9667
3.664620 96.206 -126.4031
3.691175 96.219 -126.8324
3.717923 96.229 -127.2556
3.744864 96.236 -127.6736
3.772001 96.242 -128.0868
3.799335 96.245 -128.4949
3.826866 96.246 -128.8969
3.854597 96.245 -129.2918
3.882529 96.244 -129.6780
3.910664 96.240 -130.0539
3.939002 96.236 -130.4179
3.967546 96.232 -130.7683
3.996296 96.226 -131.1037
4.025255 96.220 -131.4232
4.054423 96.213 -131.7263
4.083804 96.205 -132.0131
4.113396 96.196 -132.2840
4.143204 96.187 -132.5398
4.173227 96.176 -132.7811
4.203468 96.166 -133.0089
4.233928 96.155 -133.2238
4.264609 96.145 -133.4266
4.295512 96.136 -133.6175
4.326639 96.128 -133.7967
4.357992 96.121 -133.9640
4.389572 96.115 -134.1188
4.421380 96.112 -134.2601
4.453419 96.110 -134.3875
4.485691 96.109 -134.5012
4.518196 96.110 -134.6023
4.550936 96.112 -134.6927
4.583914 96.117 -134.7749
4.617131 96.123 -134.8516
4.650589 96.130 -134.9256
4.684289 96.141 -134.9991
4.718233 96.153 -135.0740
4.752424 96.168 -135.1510
4.786862 96.185 -135.2301
4.821549 96.205 -135.3111
4.856488 96.228 -135.3940
4.891680 96.253 -135.4797
4.927127 96.280 -135.5695
4.962831 96.309 -135.6658
4.998794 96.339 -135.7706
5.035017 96.371 -135.8865
5.071503 96.404 -136.0155
5.108253 96.438 -136.1589
5.145270 96.472 -136.3176
5.182555 96.508 -136.4917
5.220110 96.544 -136.6806
5.257937 96.581 -136.8838
5.296038 96.619 -137.1008
5.334415 96.656 -137.3310
5.373071 96.694 -137.5743
5.412006 96.730 -137.8307
5.451224 96.765 -138.1003
5.490725 96.799 -138.3835
5.530514 96.832 -138.6805
5.570590 96.863 -138.9913
5.610957 96.893 -139.3147
5.651616 96.921 -139.6491
5.692570 96.948 -139.9924
5.733821 96.972 -140.3421
5.775370 96.995 -140.6963
5.817221 97.015 -141.0532
5.859375 97.033 -141.4122
5.901834 97.049 -141.7729
5.944602 97.063 -142.1349
5.987679 97.074 -142.4976
6.031068 97.083 -142.8593
6.074771 97.089 -143.2179
6.118792 97.095 -143.5711
6.163131 97.098 -143.9166
6.207792 97.100 -144.2528
6.252776 97.100 -144.5786
6.298086 97.099 -144.8936
6.343725 97.097 -145.1978
6.389694 97.093 -145.4910
6.435996 97.089 -145.7728
6.482634 97.084 -146.0426
6.529610 97.080 -146.2998
6.576926 97.075 -146.5436
6.624585 97.072 -146.7738
6.672590 97.069 -146.9904
6.720942 97.066 -147.1942
6.769645 97.065 -147.3866
6.818700 97.065 -147.5695
6.868111 97.067 -147.7445
6.917881 97.070 -147.9131
6.968010 97.075 -148.0764
7.018504 97.082 -148.2353
7.069362 97.092 -148.3907
7.120590 97.103 -148.5442
7.172189 97.116 -148.6981
7.224161 97.131 -148.8545
7.276511 97.148 -149.0159
7.329239 97.166 -149.1836
7.382350 97.186 -149.3589
7.435845 97.207 -149.5422
7.489729 97.229 -149.7340
7.544002 97.252 -149.9350
7.598669 97.276 -150.1458
7.653732 97.299 -150.3670
7.709194 97.323 -150.5990
7.765058 97.346 -150.8418
7.821327 97.369 -151.0946
7.878004 97.391 -151.3564
7.935091 97.412 -151.6259
7.992592 97.431 -151.9016
8.050510 97.450 -152.1823
8.108847 97.467 -152.4671
8.167607 97.482 -152.7550
8.226793 97.496 -153.0444
8.286408 97.509 -153.3335
8.346454 97.520 -153.6203
8.406936 97.529 -153.9031
8.467856 97.537 -154.1806
8.529218 97.544 -154.4521
8.591024 97.550 -154.7166
8.653278 97.555 -154.9734
8.715983 97.560 -155.2216
8.779143 97.564 -155.4608
8.842760 97.568 -155.6905
8.906839 97.572 -155.9109
8.971381 97.576 -156.1224
9.036392 97.581 -156.3260
9.101873 97.587 -156.5226
9.167829 97.593 -156.7129
9.234263 97.601 -156.8980
9.301178 97.609 -157.0788
9.368578 97.618 -157.2568
9.436467 97.628 -157.4335
9.504847 97.639 -157.6102
9.573723 97.651 -157.7881
9.643099 97.663 -157.9680
9.712976 97.674 -158.1506
9.783361 97.685 -158.3367
9.854255 97.693 -158.5266
9.925663 97.700 -158.7207
9.997588 97.704 -158.9190
10.070035 97.706 -159.1211
10.143007 97.705 -159.3266
10.216507 97.702 -159.5346
10.290540 97.697 -159.7445
10.365109 97.690 -159.9556
10.440219 97.681 -160.1670
10.515873 97.670 -160.3778
10.592076 97.659 -160.5869
10.668830 97.646 -160.7937
10.746141 97.633 -160.9975
10.824012 97.619 -161.1979
10.902447 97.605 -161.3947
10.981451 97.590 -161.5877
11.061027 97.575 -161.7769
11.141180 97.560 -161.9626
11.221913 97.545 -162.1452
11.303232 97.530 -162.3254
11.385140 97.516 -162.5038
11.467641 97.501 -162.6809
11.550741 97.487 -162.8575
11.634442 97.473 -163.0341
11.718750 97.460 -163.2115
11.803669 97.447 -163.3900
11.889203 97.434 -163.5699
11.975357 97.421 -163.7512
12.062136 97.409 -163.9341
12.149543 97.396 -164.1183
12.237583 97.384 -164.3035
12.326262 97.371 -164.4895
12.415583 97.358 -164.6756
12.505552 97.345 -164.8616
12.596172 97.331 -165.0470
12.687449 97.317 -165.2315
12.779387 97.303 -165.4149
12.871992 97.288 -165.5972
12.965268 97.274 -165.7785
13.059220 97.260 -165.9590
13.153852 97.246 -166.1392
13.249170 97.232 -166.3195
13.345179 97.219 -166.5005
13.441884 97.207 -166.6828
13.539289 97.195 -166.8668
13.637401 97.183 -167.0531
13.736223 97.172 -167.2420
13.835761 97.160 -167.4335
13.936021 97.149 -167.6275
14.037007 97.137 -167.8239
14.138725 97.125 -168.0221
14.241180 97.113 -168.2216
14.344377 97.100 -168.4216
14.448323 97.086 -168.6215
14.553021 97.073 -168.8206
14.658478 97.059 -169.0182
14.764700 97.045 -169.2140
14.871691 97.031 -169.4078
14.979457 97.017 -169.5996
15.088005 97.004 -169.7896
15.197339 96.992 -169.9784
15.307465 96.980 -170.1666
15.418389 96.969 -170.3549
15.530117 96.958 -170.5441
15.642655 96.948 -170.7348
15.756008 96.938 -170.9277
15.870182 96.929 -171.1232
15.985184 96.919 -171.3212
16.101019 96.910 -171.5216
16.217694 96.900 -171.7239
16.335214 96.890 -171.9274
16.453586 96.880 -172.1313
16.572815 96.870 -172.3347
16.692909 96.859 -172.5366
16.813872 96.849 -172.7363
16.935713 96.839 -172.9330
17.058436 96.829 -173.1265
17.182048 96.819 -173.3167
17.306556 96.810 -173.5037
17.431967 96.801 -173.6878
17.558286 96.793 -173.8698
17.685521 96.785 -174.0501
17.813677 96.777 -174.2295
17.942762 96.770 -174.4084
18.072783 96.762 -174.5873
18.203746 96.755 -174.7664
18.335658 96.748 -174.9458
18.468526 96.741 -175.1251
18.602356 96.733 -175.3042
18.737156 96.726 -175.4827
18.872934 96.718 -175.6602
19.009695 96.710 -175.8364
19.147447 96.703 -176.0111
19.286197 96.695 -176.1843
19.425953 96.688 -176.3560
19.566721 96.680 -176.5264
19.708510 96.672 -176.6957
19.851326 96.664 -176.8642
19.995177 96.655 -177.0319
20.140070 96.647 -177.1991
20.286013 96.638 -177.3656
20.433014 96.629 -177.5316
20.581080 96.619 -177.6968
20.730219 96.609 -177.8614
20.880439 96.600 -178.0252
21.031747 96.590 -178.1885
21.184152 96.580 -178.3516
21.337661 96.570 -178.5147
21.492282 96.561 -178.6784
21.648024 96.552 -178.8430
21.804895 96.543 -179.0088
21.962902 96.533 -179.1762
22.122054 96.524 -179.3450
22.282360 96.514 -179.5151
22.443827 96.504 -179.6863
22.606464 96.493 -179.8581
22.770280 96.483 179.9698
22.935283 96.472 179.7978
23.101481 96.461 179.6259
23.268884 96.450 179.4540
23.437500 96.439 179.2819
23.607338 96.428 179.1093
23.778406 96.418 178.9358
23.950714 96.407 178.7611
24.124271 96.395 178.5851
24.299086 96.384 178.4077
24.475167 96.373 178.2292
24.652524 96.361 178.0499
24.831166 96.350 177.8704
25.011103 96.338 177.6910
25.192344 96.326 177.5123
25.374898 96.314 177.3345
25.558775 96.302 177.1578
25.743984 96.290 176.9823
25.930536 96.278 176.8081
26.118439 96.266 176.6353
26.307704 96.254 176.4637
26.498341 96.242 176.2935
26.690359 96.230 176.1248
26.883768 96.218 175.9576
27.078579 96.205 175.7921
27.274801 96.193 175.6281
27.472446 96.180 175.4657
27.671522 96.167 175.3051
27.872042 96.154 175.1465
28.074014 96.140 174.9902
28.277450 96.127 174.8364
28.482360 96.112 174.6855
28.688755 96.098 174.5377
28.896645 96.083 174.3931
29.106042 96.069 174.2513
29.316957 96.054 174.1121
29.529400 96.040 173.9747
29.743382 96.025 173.8385
29.958915 96.012 173.7029
30.176009 95.998 173.5677
30.394677 95.985 173.4324
30.614929 95.972 173.2970
30.836778 95.959 173.1612
31.060234 95.946 173.0246
31.285309 95.934 172.8866
31.512015 95.923 172.7464
31.740364 95.911 172.6030
31.970368 95.900 172.4557
32.202039 95.889 172.3040
32.435388 95.878 172.1479
32.670428 95.867 171.9877
32.907171 95.856 171.8244
33.145630 95.844 171.6588
33.385817 95.832 171.4915
33.627745 95.820 171.3231
33.871425 95.808 171.1537
34.116871 95.796 170.9832
34.364096 95.784 170.8115
34.613113 95.771 170.6384
34.863934 95.758 170.4644
35.116572 95.744 170.2899
35.371041 95.730 170.1160
35.627354 95.716 169.9433
35.885525 95.701 169.7729
36.145566 95.685 169.6051
36.407492 95.670 169.4400
36.671316 95.654 169.2774
36.937051 95.637 169.1167
37.204712 95.621 168.9573
37.474313 95.605 168.7990
37.745867 95.588 168.6414
38.019389 95.571 168.4848
38.294893 95.554 168.3294
38.572394 95.537 168.1754
38.851905 95.519 168.0228
39.133442 95.501 167.8714
39.417019 95.484 167.7207
39.702651 95.466 167.5703
39.990353 95.448 167.4198
40.280140 95.430 167.2691
40.572026 95.412 167.1182
40.866028 95.394 166.9671
41.162160 95.375 166.8158
41.460438 95.357 166.6642
41.760877 95.338 166.5123
42.063494 95.318 166.3604
42.368303 95.298 166.2094
42.675322 95.278 166.0606
42.984565 95.256 165.9153
43.296048 95.235 165.7747
43.609789 95.213 165.6388
43.925804 95.192 165.5071
44.244108 95.171 165.3779
44.564719 95.150 165.2492
44.887654 95.130 165.1187
45.212928 95.110 164.9849
45.540560 95.089 164.8470
45.870565 95.069 164.7054
46.202962 95.047 164.5613
46.537768 95.025 164.4167
46.875000 95.001 164.2739
47.214676 94.978 164.1342
47.556813 94.954 163.9980
47.901429 94.931 163.8643
48.248542 94.908 163.7308
48.598171 94.885 163.5960
48.950334 94.863 163.4587
49.305048 94.840 163.3194
49.662333 94.817 163.1795
50.022206 94.793 163.0406
50.384688 94.769 162.9041
50.749796 94.745 162.7701
51.117550 94.721 162.6386
51.487969 94.696 162.5093
51.861072 94.672 162.3824
52.236879 94.648 162.2585
52.615409 94.623 162.1385
52.996681 94.598 162.0233
53.380717 94.574 161.9134
53.767536 94.549 161.8092
54.157158 94.525 161.7112
54.549603 94.501 161.6193
54.944892 94.478 161.5329
55.343045 94.456 161.4500
55.744084 94.434 161.3684
56.148028 94.413 161.2854
56.554900 94.391 161.1990
56.964720 94.370 161.1081
57.377510 94.347 161.0134
57.793291 94.322 160.9177
58.212085 94.295 160.8264
58.633914 94.266 160.7462
59.058799 94.236 160.6829
59.486764 94.206 160.6376
59.917829 94.177 160.6061
60.352019 94.150 160.5804
60.789354 94.125 160.5523
61.229859 94.101 160.5170
61.673556 94.078 160.4737
62.120468 94.056 160.4231
62.570618 94.035 160.3650
63.024031 94.016 160.2972
63.480729 93.997 160.2171
63.940736 93.979 160.1242
64.404077 93.960 160.0209
64.870776 93.941 159.9118
65.340856 93.922 159.8016
65.814343 93.902 159.6939
66.291261 93.883 159.5900
66.771635 93.864 159.4891
67.255489 93.845 159.3889
67.742850 93.826 159.2867
68.233743 93.807 159.1816
68.728193 93.787 159.0743
69.226226 93.764 158.9676
69.727867 93.741 158.8634
70.233144 93.715 158.7615
70.742083 93.689 158.6593
71.254709 93.661 158.5542
71.771050 93.632 158.4458
72.291132 93.601 158.3360
72.814984 93.570 158.2253
73.342631 93.538 158.1110
73.874102 93.506 157.9905
74.409424 93.472 157.8684
74.948626 93.437 157.7561
75.491734 93.402 157.6638
76.038779 93.369 157.5905
76.589787 93.341 157.5247
77.144788 93.315 157.4546
77.703811 93.292 157.3760
78.266885 93.269 157.2911
78.834039 93.246 157.2032
79.405303 93.223 157.1140
79.980706 93.199 157.0247
80.560280 93.175 156.9366
81.144053 93.150 156.8493
81.732056 93.125 156.7598
