* Measurement data measured by REW V5.31
* Source: EXCL: Microphone (USB Sound Device        ), MICROPHONE (Master Volume), L, volume: 0.560
* Format: 256k Log Swept Sine, 1 sweep at -5.0 dBFS with no timing reference
* Dated: May 29, 2024 1:35:29 PM
* REW Settings:
*  C-weighting compensation: Off
*  Target level: 75.0 dB
* Note: Tigerism Sun Wukong R
* Measurement: R Tigerism Sun Wukong
* Smoothing: 1/12 octave
* Frequency Step: 96 ppo
* Start Frequency: 0.36621094 Hz
*
* Freq(Hz) SPL(dB) Phase(degrees)
0.366211 85.446 -57.1787
0.368865 85.454 -57.2330
0.371538 85.466 -57.3141
0.374230 85.481 -57.4155
0.376942 85.498 -57.5318
0.379673 85.516 -57.6587
0.382424 85.535 -57.7937
0.385196 85.554 -57.9351
0.387987 85.574 -58.0819
0.390798 85.593 -58.2336
0.393630 85.614 -58.3899
0.396483 85.634 -58.5507
0.399356 85.654 -58.7159
0.402250 85.675 -58.8855
0.405165 85.696 -59.0594
0.408101 85.716 -59.2377
0.411058 85.738 -59.4203
0.414037 85.759 -59.6072
0.417037 85.780 -59.7984
0.420059 85.802 -59.9940
0.423103 85.823 -60.1939
0.426169 85.845 -60.3981
0.429257 85.867 -60.6065
0.432368 85.889 -60.8192
0.435501 85.912 -61.0362
0.438656 85.934 -61.2574
0.441835 85.957 -61.4828
0.445037 85.979 -61.7124
0.448262 86.002 -61.9461
0.451510 86.026 -62.1839
0.454782 86.049 -62.4257
0.458077 86.072 -62.6717
0.461397 86.096 -62.9215
0.464740 86.120 -63.1754
0.468108 86.144 -63.4331
0.471500 86.168 -63.6947
0.474917 86.192 -63.9601
0.478358 86.217 -64.2291
0.481825 86.241 -64.5019
0.485316 86.266 -64.7783
0.488833 86.291 -65.0582
0.492375 86.316 -65.3416
0.495943 86.342 -65.6284
0.499537 86.367 -65.9185
0.503157 86.393 -66.2119
0.506803 86.419 -66.5084
0.510475 86.445 -66.8080
0.514175 86.472 -67.1106
0.517900 86.498 -67.4161
0.521653 86.525 -67.7245
0.525434 86.552 -68.0355
0.529241 86.579 -68.3492
0.533076 86.606 -68.6654
0.536939 86.634 -68.9841
0.540830 86.661 -69.3050
0.544749 86.689 -69.6282
0.548696 86.717 -69.9535
0.552673 86.746 -70.2808
0.556677 86.774 -70.6099
0.560711 86.803 -70.9409
0.564774 86.832 -71.2735
0.568867 86.861 -71.6076
0.572989 86.890 -71.9432
0.577141 86.920 -72.2800
0.581324 86.950 -72.6181
0.585536 86.980 -72.9572
0.589779 87.010 -73.2972
0.594053 87.040 -73.6381
0.598358 87.071 -73.9797
0.602694 87.102 -74.3218
0.607061 87.133 -74.6643
0.611460 87.164 -75.0072
0.615891 87.196 -75.3503
0.620354 87.228 -75.6934
0.624849 87.260 -76.0365
0.629377 87.292 -76.3793
0.633938 87.324 -76.7219
0.638532 87.357 -77.0640
0.643159 87.390 -77.4056
0.647819 87.423 -77.7465
0.652514 87.457 -78.0865
0.657242 87.490 -78.4257
0.662005 87.524 -78.7637
0.666802 87.558 -79.1006
0.671634 87.593 -79.4362
0.676501 87.627 -79.7704
0.681403 87.662 -80.1031
0.686341 87.697 -80.4341
0.691314 87.733 -80.7634
0.696324 87.768 -81.0908
0.701370 87.804 -81.4163
0.706452 87.840 -81.7399
0.711571 87.876 -82.0617
0.716728 87.911 -82.3816
0.721921 87.947 -82.7001
0.727153 87.981 -83.0177
0.732422 88.014 -83.3349
0.737729 88.047 -83.6528
0.743075 88.078 -83.9720
0.748460 88.108 -84.2933
0.753883 88.137 -84.6171
0.759346 88.166 -84.9437
0.764849 88.195 -85.2732
0.770391 88.223 -85.6057
0.775974 88.252 -85.9411
0.781597 88.280 -86.2793
0.787261 88.308 -86.6201
0.792966 88.335 -86.9636
0.798712 88.363 -87.3095
0.804500 88.391 -87.6577
0.810329 88.418 -88.0081
0.816201 88.445 -88.3605
0.822116 88.473 -88.7147
0.828073 88.500 -89.0707
0.834074 88.526 -89.4282
0.840118 88.553 -89.7871
0.846206 88.580 -90.1473
0.852338 88.606 -90.5085
0.858514 88.633 -90.8705
0.864735 88.659 -91.2333
0.871001 88.685 -91.5966
0.877313 88.711 -91.9603
0.883670 88.736 -92.3241
0.890074 88.762 -92.6879
0.896524 88.787 -93.0515
0.903020 88.812 -93.4146
0.909564 88.837 -93.7772
0.916155 88.862 -94.1390
0.922794 88.887 -94.4998
0.929481 88.911 -94.8594
0.936216 88.936 -95.2176
0.943000 88.960 -95.5741
0.949834 88.984 -95.9289
0.956717 89.008 -96.2816
0.963649 89.032 -96.6320
0.970632 89.055 -96.9800
0.977666 89.079 -97.3253
0.984750 89.102 -97.6677
0.991886 89.125 -98.0070
0.999074 89.147 -98.3428
1.006314 89.170 -98.6751
1.013606 89.193 -99.0036
1.020951 89.215 -99.3279
1.028349 89.237 -99.6480
1.035801 89.259 -99.9635
1.043307 89.281 -100.2742
1.050867 89.302 -100.5799
1.058482 89.324 -100.8804
1.066152 89.345 -101.1757
1.073878 89.366 -101.4655
1.081660 89.387 -101.7499
1.089498 89.407 -102.0293
1.097393 89.427 -102.3041
1.105345 89.447 -102.5749
1.113355 89.467 -102.8423
1.121423 89.486 -103.1071
1.129549 89.504 -103.3697
1.137734 89.522 -103.6304
1.145979 89.539 -103.8895
1.154283 89.556 -104.1470
1.162647 89.572 -104.4032
1.171072 89.587 -104.6580
1.179558 89.602 -104.9114
1.188106 89.617 -105.1634
1.196715 89.631 -105.4141
1.205387 89.644 -105.6633
1.214122 89.657 -105.9110
1.222920 89.670 -106.1572
1.231782 89.682 -106.4017
1.240708 89.693 -106.6446
1.249699 89.705 -106.8857
1.258754 89.716 -107.1249
1.267876 89.726 -107.3620
1.277063 89.737 -107.5971
1.286318 89.747 -107.8298
1.295639 89.756 -108.0601
1.305027 89.766 -108.2877
1.314484 89.775 -108.5126
1.324009 89.784 -108.7343
1.333604 89.793 -108.9528
1.343268 89.802 -109.1679
1.353002 89.811 -109.3791
1.362806 89.820 -109.5863
1.372681 89.829 -109.7892
1.382628 89.838 -109.9875
1.392647 89.847 -110.1808
1.402739 89.856 -110.3688
1.412904 89.866 -110.5511
1.423142 89.875 -110.7274
1.433455 89.885 -110.8973
1.443843 89.895 -111.0606
1.454305 89.905 -111.2168
1.464844 89.916 -111.3658
1.475459 89.926 -111.5073
1.486150 89.936 -111.6414
1.496920 89.945 -111.7679
1.507767 89.954 -111.8869
1.518693 89.963 -111.9985
1.529698 89.971 -112.1028
1.540783 89.979 -112.1999
1.551948 89.987 -112.2899
1.563194 89.994 -112.3730
1.574521 90.001 -112.4492
1.585931 90.008 -112.5187
1.597423 90.014 -112.5816
1.608999 90.021 -112.6382
1.620658 90.028 -112.6886
1.632402 90.034 -112.7328
1.644232 90.041 -112.7712
1.656146 90.049 -112.8039
1.668147 90.056 -112.8311
1.680235 90.064 -112.8530
1.692411 90.073 -112.8697
1.704675 90.082 -112.8817
1.717028 90.092 -112.8890
1.729470 90.103 -112.8919
1.742003 90.115 -112.8906
1.754626 90.128 -112.8854
1.767341 90.142 -112.8764
1.780147 90.157 -112.8635
1.793047 90.174 -112.8469
1.806040 90.192 -112.8260
1.819128 90.212 -112.8002
1.832310 90.233 -112.7687
1.845587 90.256 -112.7302
1.858961 90.279 -112.6836
1.872432 90.304 -112.6284
1.886001 90.330 -112.5642
1.899667 90.358 -112.4911
1.913433 90.386 -112.4095
1.927299 90.416 -112.3202
1.941265 90.446 -112.2237
1.955332 90.478 -112.1209
1.969501 90.511 -112.0129
1.983773 90.546 -111.9005
1.998148 90.581 -111.7848
2.012627 90.618 -111.6668
2.027212 90.655 -111.5477
2.041902 90.694 -111.4285
2.056698 90.735 -111.3104
2.071602 90.776 -111.1946
2.086614 90.819 -111.0822
2.101734 90.863 -110.9743
2.116964 90.908 -110.8721
2.132304 90.955 -110.7764
2.147756 91.003 -110.6879
2.163320 91.052 -110.6070
2.178996 91.103 -110.5335
2.194786 91.156 -110.4667
2.210690 91.210 -110.4053
2.226710 91.266 -110.3479
2.242845 91.325 -110.2936
2.259098 91.385 -110.2419
2.275468 91.448 -110.1926
2.291957 91.512 -110.1461
2.308566 91.579 -110.1029
2.325295 91.647 -110.0639
2.342145 91.716 -110.0298
2.359117 91.787 -110.0017
2.376212 91.859 -109.9804
2.393431 91.932 -109.9669
2.410775 92.006 -109.9622
2.428244 92.081 -109.9672
2.445840 92.156 -109.9830
2.463564 92.231 -110.0104
2.481416 92.307 -110.0504
2.499397 92.382 -110.1037
2.517509 92.457 -110.1711
2.535752 92.532 -110.2529
2.554127 92.607 -110.3492
2.572635 92.681 -110.4598
2.591277 92.756 -110.5843
2.610055 92.832 -110.7220
2.628968 92.907 -110.8722
2.648019 92.984 -111.0343
2.667208 93.060 -111.2077
2.686535 93.137 -111.3921
2.706003 93.214 -111.5869
2.725612 93.291 -111.7918
2.745363 93.368 -112.0063
2.765257 93.445 -112.2303
2.785295 93.521 -112.4634
2.805478 93.596 -112.7054
2.825808 93.671 -112.9563
2.846285 93.744 -113.2160
2.866910 93.816 -113.4847
2.887685 93.887 -113.7629
2.908611 93.956 -114.0511
2.929688 94.024 -114.3502
2.950917 94.090 -114.6610
2.972301 94.155 -114.9842
2.993839 94.219 -115.3200
3.015534 94.282 -115.6680
3.037386 94.343 -116.0274
3.059396 94.403 -116.3971
3.081565 94.461 -116.7759
3.103896 94.518 -117.1624
3.126388 94.574 -117.5550
3.149043 94.628 -117.9525
3.171862 94.680 -118.3534
3.194847 94.731 -118.7565
3.217998 94.780 -119.1611
3.241317 94.828 -119.5666
3.264805 94.873 -119.9730
3.288463 94.917 -120.3812
3.312293 94.958 -120.7923
3.336295 94.997 -121.2078
3.360471 95.034 -121.6285
3.384822 95.069 -122.0548
3.409350 95.102 -122.4862
3.434056 95.133 -122.9217
3.458940 95.161 -123.3599
3.484005 95.188 -123.7990
3.509252 95.213 -124.2373
3.534681 95.236 -124.6729
3.560295 95.257 -125.1039
3.586094 95.277 -125.5289
3.612081 95.295 -125.9467
3.638255 95.312 -126.3569
3.664620 95.326 -126.7597
3.691175 95.339 -127.1559
3.717923 95.349 -127.5465
3.744864 95.358 -127.9323
3.772001 95.364 -128.3134
3.799335 95.368 -128.6896
3.826866 95.371 -129.0603
3.854597 95.373 -129.4244
3.882529 95.373 -129.7809
3.910664 95.372 -130.1282
3.939002 95.370 -130.4650
3.967546 95.368 -130.7900
3.996296 95.365 -131.1020
4.025255 95.362 -131.4002
4.054423 95.358 -131.6842
4.083804 95.353 -131.9541
4.113396 95.348 -132.2101
4.143204 95.342 -132.4529
4.173227 95.335 -132.6833
4.203468 95.328 -132.9019
4.233928 95.321 -133.1095
4.264609 95.315 -133.3068
4.295512 95.309 -133.4942
4.326639 95.304 -133.6719
4.357992 95.301 -133.8397
4.389572 95.299 -133.9971
4.421380 95.298 -134.1435
4.453419 95.298 -134.2783
4.485691 95.300 -134.4018
4.518196 95.303 -134.5149
4.550936 95.308 -134.6192
4.583914 95.314 -134.7169
4.617131 95.321 -134.8103
4.650589 95.331 -134.9017
4.684289 95.342 -134.9931
4.718233 95.355 -135.0861
4.752424 95.370 -135.1812
4.786862 95.387 -135.2785
4.821549 95.406 -135.3778
4.856488 95.427 -135.4790
4.891680 95.451 -135.5829
4.927127 95.476 -135.6907
4.962831 95.503 -135.8040
4.998794 95.531 -135.9249
5.035017 95.559 -136.0553
5.071503 95.589 -136.1968
5.108253 95.620 -136.3508
5.145270 95.651 -136.5179
5.182555 95.683 -136.6981
5.220110 95.716 -136.8911
5.257937 95.749 -137.0963
5.296038 95.782 -137.3133
5.334415 95.816 -137.5417
5.373071 95.849 -137.7811
5.412006 95.882 -138.0317
5.451224 95.913 -138.2934
5.490725 95.943 -138.5666
5.530514 95.973 -138.8516
5.570590 96.000 -139.1481
5.610957 96.027 -139.4553
5.651616 96.052 -139.7718
5.692570 96.076 -140.0958
5.733821 96.098 -140.4251
5.775370 96.119 -140.7580
5.817221 96.137 -141.0931
5.859375 96.154 -141.4296
5.901834 96.169 -141.7673
5.944602 96.181 -142.1058
5.987679 96.192 -142.4446
6.031068 96.200 -142.7822
6.074771 96.208 -143.1170
6.118792 96.213 -143.4469
6.163131 96.217 -143.7700
6.207792 96.220 -144.0849
6.252776 96.222 -144.3907
6.298086 96.222 -144.6870
6.343725 96.222 -144.9739
6.389694 96.220 -145.2513
6.435996 96.218 -145.5188
6.482634 96.216 -145.7760
6.529610 96.214 -146.0226
6.576926 96.213 -146.2579
6.624585 96.212 -146.4818
6.672590 96.211 -146.6942
6.720942 96.211 -146.8960
6.769645 96.213 -147.0884
6.818700 96.215 -147.2729
6.868111 96.219 -147.4512
6.917881 96.224 -147.6245
6.968010 96.231 -147.7938
7.018504 96.240 -147.9598
7.069362 96.250 -148.1234
7.120590 96.263 -148.2859
7.172189 96.276 -148.4491
7.224161 96.292 -148.6150
7.276511 96.309 -148.7854
7.329239 96.327 -148.9618
7.382350 96.346 -149.1448
7.435845 96.367 -149.3350
7.489729 96.388 -149.5327
7.544002 96.410 -149.7384
7.598669 96.433 -149.9526
7.653732 96.455 -150.1757
7.709194 96.477 -150.4079
7.765058 96.499 -150.6492
7.821327 96.521 -150.8989
7.878004 96.542 -151.1561
7.935091 96.562 -151.4194
7.992592 96.581 -151.6877
8.050510 96.599 -151.9599
8.108847 96.615 -152.2351
8.167607 96.630 -152.5124
8.226793 96.644 -152.7904
8.286408 96.656 -153.0675
8.346454 96.668 -153.3421
8.406936 96.678 -153.6128
8.467856 96.687 -153.8782
8.529218 96.695 -154.1378
8.591024 96.702 -154.3909
8.653278 96.708 -154.6369
8.715983 96.714 -154.8752
8.779143 96.720 -155.1052
8.842760 96.726 -155.3267
8.906839 96.732 -155.5399
8.971381 96.738 -155.7454
9.036392 96.745 -155.9439
9.101873 96.753 -156.1362
9.167829 96.761 -156.3233
9.234263 96.770 -156.5058
9.301178 96.780 -156.6849
9.368578 96.791 -156.8616
9.436467 96.802 -157.0373
9.504847 96.815 -157.2133
9.573723 96.827 -157.3904
9.643099 96.840 -157.5696
9.712976 96.853 -157.7512
9.783361 96.864 -157.9359
9.854255 96.874 -158.1240
9.925663 96.881 -158.3158
9.997588 96.886 -158.5113
10.070035 96.888 -158.7100
10.143007 96.888 -158.9115
10.216507 96.886 -159.1151
10.290540 96.881 -159.3201
10.365109 96.875 -159.5258
10.440219 96.867 -159.7316
10.515873 96.857 -159.9364
10.592076 96.846 -160.1394
10.668830 96.835 -160.3400
10.746141 96.823 -160.5376
10.824012 96.810 -160.7318
10.902447 96.796 -160.9224
10.981451 96.783 -161.1092
11.061027 96.769 -161.2923
11.141180 96.755 -161.4719
11.221913 96.741 -161.6484
11.303232 96.727 -161.8224
11.385140 96.713 -161.9945
11.467641 96.699 -162.1651
11.550741 96.686 -162.3349
11.634442 96.673 -162.5045
11.718750 96.660 -162.6746
11.803669 96.648 -162.8454
11.889203 96.636 -163.0172
11.975357 96.624 -163.1902
12.062136 96.612 -163.3645
12.149543 96.601 -163.5399
12.237583 96.589 -163.7162
12.326262 96.577 -163.8932
12.415583 96.565 -164.0706
12.505552 96.553 -164.2478
12.596172 96.541 -164.4248
12.687449 96.528 -164.6012
12.779387 96.514 -164.7769
12.871992 96.501 -164.9519
12.965268 96.488 -165.1263
13.059220 96.475 -165.3003
13.153852 96.462 -165.4743
13.249170 96.449 -165.6486
13.345179 96.437 -165.8238
13.441884 96.425 -166.0003
13.539289 96.414 -166.1785
13.637401 96.403 -166.3588
13.736223 96.392 -166.5414
13.835761 96.381 -166.7262
13.936021 96.370 -166.9133
14.037007 96.359 -167.1024
14.138725 96.348 -167.2930
14.241180 96.336 -167.4845
14.344377 96.323 -167.6764
14.448323 96.311 -167.8681
14.553021 96.298 -168.0591
14.658478 96.285 -168.2487
14.764700 96.272 -168.4368
14.871691 96.259 -168.6233
14.979457 96.247 -168.8082
15.088005 96.235 -168.9919
15.197339 96.224 -169.1748
15.307465 96.213 -169.3577
15.418389 96.203 -169.5412
15.530117 96.193 -169.7259
15.642655 96.184 -169.9126
15.756008 96.175 -170.1017
15.870182 96.167 -170.2934
15.985184 96.158 -170.4876
16.101019 96.149 -170.6841
16.217694 96.140 -170.8823
16.335214 96.131 -171.0815
16.453586 96.121 -171.2806
16.572815 96.112 -171.4788
16.692909 96.102 -171.6752
16.813872 96.092 -171.8688
16.935713 96.083 -172.0591
17.058436 96.074 -172.2459
17.182048 96.065 -172.4290
17.306556 96.057 -172.6087
17.431967 96.049 -172.7856
17.558286 96.042 -172.9602
17.685521 96.035 -173.1332
17.813677 96.028 -173.3054
17.942762 96.022 -173.4773
18.072783 96.016 -173.6492
18.203746 96.009 -173.8211
18.335658 96.003 -173.9928
18.468526 95.996 -174.1639
18.602356 95.989 -174.3336
18.737156 95.982 -174.5013
18.872934 95.975 -174.6661
19.009695 95.968 -174.8275
19.147447 95.960 -174.9850
19.286197 95.953 -175.1386
19.425953 95.946 -175.2886
19.566721 95.940 -175.4355
19.708510 95.933 -175.5802
19.851326 95.927 -175.7237
19.995177 95.921 -175.8671
20.140070 95.916 -176.0114
20.286013 95.910 -176.1572
20.433014 95.904 -176.3050
20.581080 95.898 -176.4549
20.730219 95.891 -176.6065
20.880439 95.884 -176.7590
21.031747 95.876 -176.9114
21.184152 95.868 -177.0627
21.337661 95.859 -177.2117
21.492282 95.850 -177.3576
21.648024 95.841 -177.4999
21.804895 95.833 -177.6386
21.962902 95.825 -177.7744
22.122054 95.817 -177.9084
22.282360 95.810 -178.0425
22.443827 95.805 -178.1788
22.606464 95.800 -178.3195
22.770280 95.795 -178.4670
22.935283 95.791 -178.6229
23.101481 95.788 -178.7885
23.268884 95.783 -178.9640
23.437500 95.778 -179.1488
23.607338 95.772 -179.3413
23.778406 95.764 -179.5390
23.950714 95.755 -179.7392
24.124271 95.744 -179.9389
24.299086 95.731 179.8647
24.475167 95.718 179.6739
24.652524 95.703 179.4897
24.831166 95.689 179.3127
25.011103 95.675 179.1419
25.192344 95.662 178.9760
25.374898 95.650 178.8132
25.558775 95.638 178.6516
25.743984 95.627 178.4897
25.930536 95.616 178.3266
26.118439 95.606 178.1623
26.307704 95.595 177.9973
26.498341 95.584 177.8327
26.690359 95.574 177.6696
26.883768 95.563 177.5088
27.078579 95.552 177.3508
27.274801 95.542 177.1955
27.472446 95.531 177.0421
27.671522 95.522 176.8895
27.872042 95.512 176.7368
28.074014 95.503 176.5830
28.277450 95.494 176.4278
28.482360 95.484 176.2712
28.688755 95.474 176.1139
28.896645 95.464 175.9564
29.106042 95.453 175.7996
29.316957 95.442 175.6439
29.529400 95.430 175.4894
29.743382 95.419 175.3358
29.958915 95.407 175.1830
30.176009 95.396 175.0305
30.394677 95.384 174.8780
30.614929 95.372 174.7258
30.836778 95.360 174.5739
31.060234 95.348 174.4225
31.285309 95.336 174.2720
31.512015 95.324 174.1221
31.740364 95.311 173.9724
31.970368 95.299 173.8224
32.202039 95.287 173.6714
32.435388 95.274 173.5188
32.670428 95.262 173.3643
32.907171 95.250 173.2080
33.145630 95.237 173.0500
33.385817 95.225 172.8908
33.627745 95.212 172.7308
33.871425 95.198 172.5704
34.116871 95.185 172.4099
34.364096 95.172 172.2496
34.613113 95.158 172.0894
34.863934 95.144 171.9296
35.116572 95.130 171.7700
35.371041 95.116 171.6107
35.627354 95.102 171.4519
35.885525 95.088 171.2939
36.145566 95.073 171.1368
36.407492 95.059 170.9813
36.671316 95.044 170.8273
36.937051 95.029 170.6751
37.204712 95.014 170.5245
37.474313 94.999 170.3752
37.745867 94.985 170.2268
38.019389 94.970 170.0790
38.294893 94.955 169.9315
38.572394 94.941 169.7847
38.851905 94.926 169.6389
39.133442 94.910 169.4945
39.417019 94.895 169.3517
39.702651 94.880 169.2108
39.990353 94.864 169.0713
40.280140 94.849 168.9330
40.572026 94.833 168.7957
40.866028 94.818 168.6591
41.162160 94.802 168.5230
41.460438 94.786 168.3872
41.760877 94.770 168.2512
42.063494 94.753 168.1146
42.368303 94.736 167.9775
42.675322 94.718 167.8401
42.984565 94.700 167.7035
43.296048 94.681 167.5685
43.609789 94.661 167.4357
43.925804 94.641 167.3043
44.244108 94.621 167.1727
44.564719 94.601 167.0392
44.887654 94.581 166.9032
45.212928 94.560 166.7657
45.540560 94.538 166.6299
45.870565 94.515 166.4992
46.202962 94.492 166.3759
46.537768 94.471 166.2590
46.875000 94.450 166.1444
47.214676 94.432 166.0266
47.556813 94.415 165.9008
47.901429 94.397 165.7661
48.248542 94.380 165.6258
48.598171 94.361 165.4855
48.950334 94.342 165.3509
49.305048 94.322 165.2246
49.662333 94.304 165.1057
50.022206 94.286 164.9905
50.384688 94.269 164.8752
50.749796 94.253 164.7571
51.117550 94.236 164.6361
51.487969 94.219 164.5138
51.861072 94.201 164.3923
52.236879 94.182 164.2738
52.615409 94.162 164.1595
52.996681 94.142 164.0503
53.380717 94.122 163.9457
53.767536 94.101 163.8447
54.157158 94.081 163.7457
54.549603 94.061 163.6466
54.944892 94.042 163.5461
55.343045 94.022 163.4429
55.744084 94.004 163.3359
56.148028 93.985 163.2244
56.554900 93.967 163.1075
56.964720 93.948 162.9857
57.377510 93.929 162.8601
57.793291 93.910 162.7327
58.212085 93.891 162.6049
58.633914 93.871 162.4773
59.058799 93.852 162.3497
59.486764 93.832 162.2224
59.917829 93.811 162.0960
60.352019 93.790 161.9723
60.789354 93.768 161.8524
61.229859 93.745 161.7363
61.673556 93.722 161.6235
62.120468 93.698 161.5129
62.570618 93.673 161.4042
63.024031 93.648 161.2977
63.480729 93.622 161.1937
63.940736 93.595 161.0920
64.404077 93.569 160.9918
64.870776 93.542 160.8918
65.340856 93.515 160.7913
65.814343 93.489 160.6903
66.291261 93.463 160.5892
66.771635 93.437 160.4886
67.255489 93.411 160.3892
67.742850 93.387 160.2915
68.233743 93.363 160.1959
68.728193 93.339 160.1026
69.226226 93.316 160.0119
69.727867 93.294 159.9245
70.233144 93.271 159.8407
70.742083 93.249 159.7602
71.254709 93.226 159.6812
71.771050 93.202 159.6025
72.291132 93.177 159.5252
72.814984 93.150 159.4540
73.342631 93.120 159.3951
73.874102 93.090 159.3521
74.409424 93.061 159.3229
74.948626 93.033 159.2980
75.491734 93.008 159.2640
76.038779 92.985 159.2095
76.589787 92.962 159.1306
77.144788 92.938 159.0315
77.703811 92.913 158.9207
78.266885 92.887 158.8056
78.834039 92.860 158.6900
79.405303 92.834 158.5742
79.980706 92.809 158.4573
80.560280 92.784 158.3382
81.144053 92.758 158.2169
81.732056 92.733 158.0941
