* Measurement data measured by REW V5.30.5
* Source: EXCL: Microphone (Realtek(R) Audio), MICROPHONE (Master Volume), L, volume: 1.000
* Format: 256k Log Swept Sine, 1 sweep at -12.0 dBFS with no timing reference
* Dated: Feb 12, 2024 1:18:28 AM
* REW Settings:
*  C-weighting compensation: Off
*  Target level: 75.0 dB
* Note: TIMSOK TS-316 R
* Measurement: R TIMSOK TS-316
* Smoothing: 1/12 octave
* Frequency Step: 96 ppo
* Start Frequency: 1.0986328 Hz
*
* Freq(Hz) SPL(dB) Phase(degrees)
1.098633 89.015 -2.9205
1.106594 89.048 -2.9439
1.114613 89.098 -2.9782
1.122690 89.160 -3.0203
1.130825 89.229 -3.0672
1.139020 89.302 -3.1172
1.147273 89.379 -3.1690
1.155587 89.458 -3.2220
1.163961 89.538 -3.2760
1.172395 89.619 -3.3309
1.180891 89.701 -3.3867
1.189448 89.783 -3.4437
1.198068 89.866 -3.5021
1.206749 89.950 -3.5620
1.215494 90.034 -3.6237
1.224302 90.119 -3.6874
1.233174 90.205 -3.7533
1.242110 90.291 -3.8217
1.251111 90.378 -3.8928
1.260177 90.465 -3.9668
1.269308 90.553 -4.0441
1.278506 90.642 -4.1247
1.287771 90.732 -4.2090
1.297103 90.822 -4.2972
1.306502 90.912 -4.3895
1.315969 91.004 -4.4861
1.325505 91.096 -4.5874
1.335111 91.188 -4.6935
1.344785 91.282 -4.8048
1.354530 91.376 -4.9213
1.364346 91.470 -5.0434
1.374232 91.566 -5.1713
1.384191 91.662 -5.3052
1.394221 91.759 -5.4454
1.404324 91.856 -5.5920
1.414500 91.954 -5.7451
1.424751 92.053 -5.9049
1.435075 92.152 -6.0712
1.445474 92.251 -6.2439
1.455948 92.351 -6.4224
1.466499 92.452 -6.6061
1.477126 92.552 -6.7942
1.487830 92.653 -6.9858
1.498611 92.754 -7.1803
1.509471 92.856 -7.3774
1.520409 92.959 -7.5768
1.531427 93.062 -7.7786
1.542524 93.165 -7.9828
1.553702 93.269 -8.1897
1.564960 93.374 -8.3993
1.576301 93.479 -8.6118
1.587723 93.585 -8.8276
1.599229 93.692 -9.0469
1.610817 93.799 -9.2698
1.622490 93.906 -9.4966
1.634247 94.014 -9.7276
1.646089 94.123 -9.9631
1.658018 94.231 -10.2032
1.670032 94.340 -10.4483
1.682134 94.450 -10.6985
1.694323 94.559 -10.9543
1.706601 94.669 -11.2158
1.718968 94.779 -11.4833
1.731424 94.889 -11.7570
1.743971 94.999 -12.0373
1.756608 95.110 -12.3244
1.769338 95.220 -12.6186
1.782159 95.330 -12.9199
1.795073 95.440 -13.2285
1.808081 95.551 -13.5444
1.821183 95.661 -13.8674
1.834380 95.771 -14.1971
1.847673 95.881 -14.5332
1.861062 95.991 -14.8750
1.874548 96.101 -15.2221
1.888132 96.211 -15.5740
1.901814 96.321 -15.9306
1.915595 96.431 -16.2915
1.929476 96.541 -16.6566
1.943458 96.651 -17.0257
1.957541 96.761 -17.3987
1.971726 96.872 -17.7756
1.986014 96.982 -18.1562
2.000406 97.092 -18.5406
2.014902 97.202 -18.9288
2.029502 97.312 -19.3207
2.044209 97.422 -19.7163
2.059022 97.532 -20.1158
2.073943 97.641 -20.5190
2.088971 97.751 -20.9263
2.104109 97.860 -21.3375
2.119356 97.970 -21.7530
2.134714 98.079 -22.1727
2.150183 98.187 -22.5970
2.165764 98.296 -23.0259
2.181458 98.404 -23.4598
2.197266 98.512 -23.8988
2.213188 98.620 -24.3431
2.229226 98.727 -24.7927
2.245379 98.834 -25.2475
2.261650 98.940 -25.7073
2.278039 99.047 -26.1719
2.294547 99.152 -26.6410
2.311174 99.258 -27.1141
2.327922 99.363 -27.5909
2.344791 99.467 -28.0711
2.361782 99.571 -28.5544
2.378897 99.675 -29.0405
2.396135 99.778 -29.5291
2.413498 99.881 -30.0200
2.430988 99.984 -30.5128
2.448604 100.086 -31.0076
2.466347 100.188 -31.5042
2.484219 100.289 -32.0024
2.502221 100.390 -32.5024
2.520353 100.491 -33.0043
2.538617 100.591 -33.5084
2.557013 100.691 -34.0152
2.575542 100.790 -34.5252
2.594205 100.889 -35.0390
2.613004 100.987 -35.5569
2.631939 101.085 -36.0789
2.651011 101.181 -36.6049
2.670221 101.277 -37.1345
2.689571 101.373 -37.6673
2.709061 101.468 -38.2028
2.728692 101.562 -38.7405
2.748465 101.655 -39.2798
2.768381 101.748 -39.8202
2.788442 101.841 -40.3612
2.808648 101.933 -40.9024
2.829001 102.024 -41.4434
2.849501 102.115 -41.9839
2.870150 102.206 -42.5239
2.890948 102.296 -43.0633
2.911897 102.385 -43.6026
2.932998 102.474 -44.1422
2.954252 102.562 -44.6829
2.975659 102.650 -45.2254
2.997222 102.737 -45.7699
3.018941 102.823 -46.3165
3.040818 102.908 -46.8651
3.062853 102.993 -47.4152
3.085048 103.076 -47.9664
3.107403 103.160 -48.5181
3.129921 103.242 -49.0697
3.152601 103.324 -49.6206
3.175447 103.406 -50.1703
3.198457 103.487 -50.7183
3.221634 103.567 -51.2642
3.244980 103.647 -51.8078
3.268494 103.727 -52.3493
3.292179 103.806 -52.8888
3.316035 103.885 -53.4270
3.340065 103.962 -53.9644
3.364268 104.040 -54.5016
3.388647 104.116 -55.0386
3.413202 104.192 -55.5755
3.437936 104.267 -56.1120
3.462848 104.342 -56.6478
3.487942 104.416 -57.1825
3.513217 104.490 -57.7157
3.538675 104.563 -58.2468
3.564318 104.636 -58.7755
3.590146 104.709 -59.3014
3.616162 104.781 -59.8244
3.642366 104.853 -60.3445
3.668760 104.924 -60.8618
3.695346 104.995 -61.3767
3.722124 105.066 -61.8896
3.749096 105.136 -62.4007
3.776263 105.206 -62.9103
3.803627 105.276 -63.4182
3.831190 105.345 -63.9245
3.858953 105.413 -64.4289
3.886916 105.482 -64.9313
3.915082 105.550 -65.4313
3.943453 105.618 -65.9290
3.972029 105.685 -66.4240
4.000812 105.753 -66.9164
4.029803 105.820 -67.4062
4.059005 105.888 -67.8935
4.088418 105.955 -68.3785
4.118044 106.022 -68.8615
4.147885 106.088 -69.3425
4.177943 106.155 -69.8217
4.208218 106.221 -70.2991
4.238712 106.287 -70.7748
4.269428 106.353 -71.2488
4.300366 106.419 -71.7210
4.331528 106.484 -72.1916
4.362916 106.550 -72.6604
4.394531 106.616 -73.1276
4.426376 106.681 -73.5933
4.458451 106.746 -74.0575
4.490759 106.812 -74.5203
4.523301 106.877 -74.9819
4.556078 106.942 -75.4423
4.589094 107.007 -75.9014
4.622348 107.071 -76.3595
4.655844 107.136 -76.8166
4.689582 107.201 -77.2727
4.723565 107.265 -77.7278
4.757793 107.330 -78.1822
4.792270 107.394 -78.6358
4.826997 107.458 -79.0887
4.861975 107.522 -79.5410
4.897207 107.586 -79.9926
4.932694 107.649 -80.4436
4.968439 107.713 -80.8940
5.004442 107.776 -81.3438
5.040707 107.839 -81.7928
5.077234 107.902 -82.2412
5.114026 107.965 -82.6891
5.151084 108.028 -83.1364
5.188411 108.090 -83.5833
5.226008 108.153 -84.0298
5.263878 108.215 -84.4759
5.302022 108.277 -84.9216
5.340443 108.338 -85.3668
5.379142 108.400 -85.8115
5.418121 108.461 -86.2556
5.457383 108.522 -86.6991
5.496930 108.583 -87.1420
5.536763 108.643 -87.5844
5.576884 108.704 -88.0263
5.617297 108.764 -88.4679
5.658002 108.824 -88.9091
5.699002 108.884 -89.3501
5.740300 108.943 -89.7906
5.781896 109.003 -90.2309
5.823794 109.062 -90.6708
5.865995 109.121 -91.1104
5.908503 109.180 -91.5499
5.951319 109.238 -91.9892
5.994444 109.297 -92.4285
6.037883 109.355 -92.8678
6.081636 109.413 -93.3073
6.125706 109.471 -93.7470
6.170095 109.529 -94.1870
6.214807 109.586 -94.6275
6.259841 109.643 -95.0685
6.305203 109.700 -95.5100
6.350893 109.757 -95.9522
6.396914 109.813 -96.3950
6.443269 109.869 -96.8386
6.489959 109.925 -97.2830
6.536988 109.980 -97.7282
6.584358 110.035 -98.1744
6.632071 110.090 -98.6216
6.680129 110.144 -99.0699
6.728536 110.197 -99.5192
6.777294 110.251 -99.9693
6.826405 110.303 -100.4203
6.875872 110.356 -100.8719
6.925697 110.407 -101.3240
6.975883 110.458 -101.7767
7.026433 110.509 -102.2300
7.077350 110.559 -102.6836
7.128635 110.608 -103.1375
7.180293 110.656 -103.5913
7.232324 110.704 -104.0446
7.284732 110.751 -104.4972
7.337521 110.797 -104.9489
7.390691 110.843 -105.3996
7.444247 110.888 -105.8492
7.498191 110.932 -106.2975
7.552526 110.976 -106.7441
7.607255 111.019 -107.1887
7.662380 111.061 -107.6310
7.717905 111.103 -108.0709
7.773832 111.144 -108.5082
7.830165 111.185 -108.9430
7.886906 111.225 -109.3751
7.944057 111.265 -109.8046
8.001623 111.305 -110.2313
8.059607 111.344 -110.6551
8.118010 111.383 -111.0762
8.176836 111.421 -111.4946
8.236089 111.460 -111.9105
8.295771 111.498 -112.3243
8.355886 111.536 -112.7361
8.416435 111.575 -113.1461
8.477425 111.613 -113.5547
8.538856 111.651 -113.9621
8.600732 111.689 -114.3685
8.663056 111.727 -114.7745
8.725832 111.765 -115.1802
8.789062 111.803 -115.5862
8.852752 111.841 -115.9927
8.916903 111.878 -116.3998
8.981518 111.916 -116.8078
9.046601 111.953 -117.2169
9.112157 111.990 -117.6273
9.178187 112.027 -118.0391
9.244697 112.064 -118.4524
9.311687 112.100 -118.8672
9.379164 112.136 -119.2833
9.447129 112.171 -119.7006
9.515587 112.206 -120.1190
9.584540 112.241 -120.5385
9.653994 112.274 -120.9587
9.723950 112.308 -121.3794
9.794415 112.340 -121.8005
9.865389 112.372 -122.2216
9.936877 112.404 -122.6426
10.008884 112.435 -123.0632
10.081413 112.465 -123.4834
10.154468 112.495 -123.9031
10.228051 112.525 -124.3221
10.302168 112.554 -124.7404
10.376822 112.582 -125.1580
10.452016 112.610 -125.5750
10.527756 112.638 -125.9915
10.604044 112.665 -126.4076
10.680885 112.692 -126.8234
10.758284 112.719 -127.2389
10.836243 112.745 -127.6543
10.914766 112.771 -128.0694
10.993859 112.796 -128.4843
11.073525 112.820 -128.8988
11.153769 112.844 -129.3127
11.234593 112.867 -129.7256
11.316004 112.889 -130.1369
11.398005 112.911 -130.5461
11.480599 112.932 -130.9526
11.563792 112.952 -131.3556
11.647588 112.971 -131.7542
11.731991 112.990 -132.1475
11.817006 113.008 -132.5349
11.902637 113.025 -132.9155
11.988889 113.042 -133.2888
12.075766 113.060 -133.6542
12.163272 113.077 -134.0117
12.251412 113.095 -134.3613
12.340191 113.114 -134.7034
12.429613 113.133 -135.0390
12.519683 113.154 -135.3691
12.610406 113.176 -135.6951
12.701786 113.199 -136.0189
12.793828 113.225 -136.3427
12.886538 113.251 -136.6688
12.979918 113.280 -136.9995
13.073977 113.310 -137.3370
13.168715 113.341 -137.6839
13.264141 113.374 -138.0419
13.360258 113.406 -138.4128
13.457072 113.440 -138.7973
13.554587 113.472 -139.1962
13.652809 113.504 -139.6092
13.751743 113.535 -140.0356
13.851394 113.564 -140.4736
13.951767 113.591 -140.9211
14.052867 113.615 -141.3756
14.154700 113.636 -141.8336
14.257271 113.655 -142.2917
14.360585 113.671 -142.7462
14.464648 113.684 -143.1934
14.569465 113.695 -143.6300
14.675041 113.704 -144.0530
14.781383 113.711 -144.4600
14.888494 113.718 -144.8496
14.996383 113.724 -145.2213
15.105053 113.731 -145.5753
15.214510 113.740 -145.9134
15.324760 113.750 -146.2380
15.435810 113.762 -146.5526
15.547665 113.777 -146.8611
15.660330 113.795 -147.1680
15.773811 113.815 -147.4781
15.888115 113.837 -147.7957
16.003246 113.862 -148.1245
16.119213 113.887 -148.4677
16.236019 113.913 -148.8274
16.353672 113.940 -149.2042
16.472178 113.965 -149.5978
16.591541 113.988 -150.0067
16.711771 114.010 -150.4281
16.832870 114.029 -150.8585
16.954849 114.044 -151.2938
17.077711 114.057 -151.7294
17.201464 114.067 -152.1608
17.326113 114.074 -152.5840
17.451664 114.078 -152.9952
17.578125 114.081 -153.3918
17.705503 114.083 -153.7722
17.833805 114.084 -154.1358
17.963036 114.086 -154.4832
18.093203 114.088 -154.8161
18.224314 114.092 -155.1371
18.356375 114.097 -155.4494
18.489393 114.104 -155.7566
18.623375 114.112 -156.0622
18.758327 114.123 -156.3696
18.894258 114.134 -156.6817
19.031174 114.146 -157.0007
19.169081 114.159 -157.3278
19.307987 114.172 -157.6637
19.447901 114.184 -158.0082
19.588829 114.196 -158.3605
19.730778 114.207 -158.7193
19.873755 114.216 -159.0830
20.017769 114.224 -159.4497
20.162827 114.230 -159.8177
20.308935 114.235 -160.1854
20.456102 114.239 -160.5511
20.604336 114.241 -160.9135
20.753643 114.242 -161.2717
20.904032 114.243 -161.6249
21.055511 114.242 -161.9724
21.208088 114.241 -162.3141
21.361771 114.240 -162.6500
21.516567 114.238 -162.9802
21.672485 114.237 -163.3054
21.829533 114.236 -163.6264
21.987719 114.235 -163.9442
22.147051 114.234 -164.2600
22.307537 114.234 -164.5751
22.469187 114.234 -164.8906
22.632008 114.234 -165.2076
22.796009 114.235 -165.5267
22.961199 114.236 -165.8483
23.127584 114.236 -166.1723
23.295176 114.236 -166.4983
23.463982 114.236 -166.8257
23.634012 114.236 -167.1539
23.805275 114.235 -167.4823
23.977777 114.234 -167.8105
24.151531 114.233 -168.1387
24.326544 114.232 -168.4673
24.502825 114.232 -168.7966
24.680382 114.231 -169.1272
24.859226 114.230 -169.4593
25.039366 114.228 -169.7928
25.220812 114.226 -170.1267
25.403572 114.224 -170.4599
25.587656 114.221 -170.7907
25.773075 114.217 -171.1176
25.959837 114.214 -171.4395
26.147953 114.210 -171.7563
26.337431 114.208 -172.0695
26.528282 114.206 -172.3814
26.720516 114.205 -172.6956
26.914145 114.206 -173.0161
27.109175 114.206 -173.3464
27.305618 114.206 -173.6884
27.503487 114.205 -174.0421
27.702787 114.201 -174.4046
27.903534 114.194 -174.7705
28.105734 114.183 -175.1325
28.309401 114.169 -175.4824
28.514542 114.152 -175.8128
28.721170 114.133 -176.1183
28.929296 114.113 -176.3968
29.138929 114.095 -176.6500
29.350082 114.079 -176.8833
29.562765 114.067 -177.1050
29.776989 114.057 -177.3242
29.992765 114.051 -177.5494
30.210106 114.047 -177.7869
30.429020 114.043 -178.0399
30.649521 114.039 -178.3081
30.871620 114.034 -178.5888
31.095329 114.028 -178.8781
31.320660 114.021 -179.1717
31.547623 114.012 -179.4669
31.776230 114.003 -179.7620
32.006493 113.993 179.9427
32.238426 113.983 179.6465
32.472038 113.973 179.3484
32.707344 113.963 179.0480
32.944355 113.952 178.7459
33.183083 113.941 178.4432
33.423542 113.930 178.1408
33.665741 113.919 177.8392
33.909698 113.908 177.5377
34.155422 113.897 177.2349
34.402927 113.886 176.9295
34.652225 113.875 176.6211
34.903328 113.864 176.3112
35.156250 113.850 176.0034
35.411007 113.835 175.7028
35.667610 113.819 175.4148
35.926071 113.802 175.1435
36.186405 113.785 174.8906
36.448627 113.769 174.6547
36.712749 113.755 174.4317
36.978786 113.742 174.2166
37.246750 113.731 174.0045
37.516655 113.720 173.7925
37.788517 113.710 173.5803
38.062347 113.699 173.3691
38.338161 113.688 173.1608
38.615974 113.678 172.9556
38.895802 113.668 172.7510
39.177658 113.660 172.5411
39.461555 113.652 172.3179
39.747509 113.645 172.0729
40.035538 113.638 171.8001
40.325653 113.627 171.4981
40.617870 113.613 171.1709
40.912205 113.592 170.8278
41.208672 113.566 170.4816
41.507286 113.534 170.1454
41.808064 113.498 169.8300
42.111023 113.460 169.5410
42.416176 113.422 169.2777
42.723541 113.387 169.0342
43.033134 113.354 168.8010
43.344971 113.324 168.5684
43.659065 113.297 168.3291
43.975437 113.272 168.0800
44.294102 113.248 167.8221
44.615074 113.224 167.5591
44.938374 113.200 167.2953
45.264015 113.177 167.0341
45.592018 113.154 166.7766
45.922398 113.132 166.5221
46.255169 113.111 166.2695
46.590351 113.090 166.0175
46.927963 113.069 165.7660
47.268024 113.048 165.5156
47.610550 113.027 165.2670
47.955555 113.005 165.0204
48.303062 112.983 164.7750
48.653088 112.960 164.5295
49.005650 112.935 164.2834
49.360764 112.910 164.0374
49.718452 112.882 163.7939
50.078732 112.853 163.5562
50.441624 112.822 163.3273
50.807144 112.791 163.1085
51.175312 112.761 162.8981
51.546150 112.731 162.6924
51.919674 112.702 162.4871
52.295906 112.674 162.2797
52.674862 112.645 162.0699
53.056564 112.617 161.8600
53.441032 112.589 161.6530
53.828289 112.560 161.4511
54.218349 112.532 161.2550
54.611237 112.504 161.0639
55.006973 112.477 160.8765
55.405575 112.450 160.6910
55.807068 112.423 160.5057
56.211468 112.397 160.3182
56.618801 112.371 160.1259
57.029083 112.345 159.9274
57.442341 112.317 159.7226
57.858593 112.289 159.5127
58.277859 112.260 159.2993
58.700165 112.230 159.0827
59.125530 112.199 158.8622
59.553978 112.169 158.6360
59.985531 112.138 158.4037
60.420212 112.107 158.1663
60.858040 112.075 157.9270
61.299042 112.042 157.6906
61.743240 112.008 157.4629
62.190659 111.974 157.2487
62.641319 111.939 157.0504
63.095245 111.906 156.8671
63.552460 111.872 156.6959
64.012985 111.838 156.5346
64.476852 111.804 156.3838
64.944077 111.768 156.2458
65.414688 111.731 156.1217
65.888710 111.694 156.0084
66.366165 111.657 155.8984
66.847084 111.620 155.7828
67.331482 111.582 155.6552
67.819397 111.542 155.5134
68.310844 111.499 155.3592
68.805855 111.455 155.1969
69.304451 111.407 155.0324
69.806656 111.359 154.8724
70.312500 111.309 154.7225
70.822014 111.260 154.5860
71.335220 111.212 154.4632
71.852142 111.165 154.3544
72.372810 111.118 154.2634
72.897255 111.070 154.1996
73.425499 111.022 154.1756
73.957573 110.975 154.2007
74.493500 110.931 154.2762
75.033310 110.892 154.3949
75.577034 110.859 154.5427
76.124695 110.832 154.7017
76.676323 110.813 154.8517
77.231949 110.801 154.9723
77.791603 110.795 155.0465
78.355316 110.795 155.0635
78.923111 110.799 155.0156
79.495018 110.808 154.8930
80.071075 110.820 154.6857
80.651306 110.832 154.3904
81.235741 110.842 154.0172
81.824409 110.846 153.5867
82.417343 110.843 153.1238
83.014572 110.831 152.6549
83.616127 110.808 152.2098
84.222046 110.773 151.8235
84.832352 110.728 151.5318
85.447083 110.679 151.3579
86.066269 110.630 151.2942
86.689941 110.588 151.2951
87.318130 110.551 151.2990
87.950874 110.517 151.2648
88.588203 110.480 151.1851
89.230148 110.439 151.0681
89.876747 110.396 150.9179
90.528030 110.351 150.7366
91.184036 110.305 150.5325
91.844795 110.259 150.3178
92.510338 110.213 150.1042
93.180702 110.167 149.9056
93.855927 110.119 149.7390
94.536049 110.070 149.6189
95.221100 110.018 149.5505
95.911110 109.963 149.5286
96.606125 109.906 149.5397
97.306175 109.846 149.5668
98.011299 109.782 149.5954
98.721527 109.717 149.6172
99.436905 109.651 149.6305
100.157463 109.588 149.6379
100.883247 109.530 149.6447
101.614288 109.479 149.6593
102.350624 109.435 149.6948
103.092300 109.397 149.7646
103.839348 109.365 149.8732
104.591812 109.339 150.0101
105.349724 109.316 150.1525
106.113129 109.297 150.2707
106.882065 109.282 150.3326
107.656578 109.272 150.3130
108.436699 109.270 150.2028
109.222473 109.278 150.0108
110.013947 109.293 149.7703
110.811150 109.312 149.5502
111.614136 109.328 149.4410
112.422935 109.336 149.5167
113.237602 109.328 149.8182
114.058167 109.292 150.3648
114.884682 109.222 151.1576
115.717186 109.115 152.1854
116.555717 108.974 153.4467
117.400330 108.816 154.9493
118.251060 108.671 156.6367
119.107956 108.574 158.2180
119.971062 108.539 159.1378
120.840424 108.535 158.9890
121.716080 108.525 157.9009
122.598083 108.501 156.3380
123.486481 108.481 154.7068
124.381317 108.475 153.2231
125.282639 108.479 151.9564
126.190491 108.476 150.8969
127.104919 108.447 150.0117
128.025970 108.383 149.2840
128.953705 108.289 148.7126
129.888153 108.188 148.2669
130.829376 108.104 147.8708
131.777420 108.051 147.4503
132.732330 108.030 146.9926
133.694168 108.035 146.5597
134.662964 108.056 146.2305
135.638794 108.083 146.0493
136.621689 108.108 146.0215
137.611710 108.121 146.1186
138.608902 108.119 146.3000
139.613312 108.100 146.5366
140.625000 108.066 146.8109
141.644028 108.024 147.1012
142.670441 107.981 147.3704
143.704285 107.939 147.5798
144.745621 107.897 147.7098
145.794510 107.854 147.7612
146.850998 107.809 147.7509
147.915146 107.761 147.7032
148.987000 107.714 147.6366
150.066620 107.670 147.5588
151.154068 107.627 147.4694
152.249390 107.584 147.3738
153.352646 107.537 147.2926
154.463898 107.487 147.2469
155.583206 107.435 147.2416
156.710632 107.384 147.2672
157.846222 107.334 147.3091
158.990036 107.288 147.3548
160.142151 107.244 147.3978
161.302612 107.201 147.4377
162.471481 107.159 147.4765
163.648819 107.115 147.5137
164.834686 107.071 147.5478
166.029144 107.025 147.5782
167.232254 106.976 147.6060
168.444092 106.927 147.6321
169.664703 106.877 147.6562
170.894165 106.829 147.6792
172.132538 106.782 147.7039
173.379883 106.739 147.7344
174.636261 106.700 147.7765
175.901749 106.665 147.8350
177.176407 106.633 147.9104
178.460297 106.602 147.9963
179.753494 106.572 148.0841
181.056061 106.538 148.1685
182.368073 106.503 148.2479
183.689590 106.464 148.3213
185.020676 106.424 148.3892
186.361404 106.383 148.4534
187.711853 106.342 148.5159
189.072098 106.300 148.5782
190.442200 106.257 148.6414
191.822220 106.215 148.7067
193.212250 106.173 148.7755
194.612350 106.131 148.8493
196.022598 106.089 148.9298
197.443054 106.047 149.0176
198.873810 106.004 149.1124
200.314926 105.961 149.2139
201.766495 105.919 149.3235
203.228577 105.878 149.4427
204.701248 105.838 149.5710
206.184601 105.799 149.7039
207.678696 105.761 149.8353
209.183624 105.723 149.9584
