* Measurement data measured by REW V5.31
* Source: EXCL: Microphone (USB Sound Device        ), MICROPHONE (Master Volume), L, volume: 0.560
* Format: 256k Log Swept Sine, 1 sweep at 0.0 dBFS with no timing reference
* Dated: Apr 20, 2024 12:56:21 AM
* REW Settings:
*  C-weighting compensation: Off
*  Target level: 75.0 dB
* Note: TinHifi P1Max II
* Measurement: L TinHifi P1Max II
* Smoothing: 1/12 octave
* Frequency Step: 96 ppo
* Start Frequency: 0.36621094 Hz
*
* Freq(Hz) SPL(dB) Phase(degrees)
0.366211 78.254 -169.1405
0.368865 78.263 -169.1546
0.371538 78.276 -169.1754
0.374230 78.292 -169.2012
0.376942 78.310 -169.2303
0.379673 78.330 -169.2615
0.382424 78.350 -169.2941
0.385196 78.371 -169.3277
0.387987 78.392 -169.3618
0.390798 78.414 -169.3965
0.393630 78.435 -169.4316
0.396483 78.457 -169.4670
0.399356 78.479 -169.5028
0.402250 78.501 -169.5390
0.405165 78.524 -169.5756
0.408101 78.546 -169.6125
0.411058 78.569 -169.6499
0.414037 78.592 -169.6876
0.417037 78.615 -169.7258
0.420059 78.638 -169.7643
0.423103 78.661 -169.8034
0.426169 78.685 -169.8428
0.429257 78.708 -169.8828
0.432368 78.732 -169.9232
0.435501 78.756 -169.9641
0.438656 78.780 -170.0055
0.441835 78.805 -170.0474
0.445037 78.829 -170.0899
0.448262 78.854 -170.1329
0.451510 78.879 -170.1765
0.454782 78.904 -170.2207
0.458077 78.929 -170.2654
0.461397 78.955 -170.3108
0.464740 78.981 -170.3569
0.468108 79.006 -170.4036
0.471500 79.032 -170.4510
0.474917 79.059 -170.4991
0.478358 79.085 -170.5479
0.481825 79.112 -170.5975
0.485316 79.138 -170.6478
0.488833 79.165 -170.6989
0.492375 79.192 -170.7508
0.495943 79.220 -170.8036
0.499537 79.247 -170.8572
0.503157 79.275 -170.9117
0.506803 79.303 -170.9671
0.510475 79.331 -171.0234
0.514175 79.360 -171.0808
0.517900 79.388 -171.1391
0.521653 79.417 -171.1984
0.525434 79.446 -171.2588
0.529241 79.475 -171.3202
0.533076 79.505 -171.3828
0.536939 79.534 -171.4465
0.540830 79.564 -171.5114
0.544749 79.594 -171.5775
0.548696 79.624 -171.6449
0.552673 79.655 -171.7136
0.556677 79.686 -171.7835
0.560711 79.716 -171.8549
0.564774 79.748 -171.9276
0.568867 79.779 -172.0018
0.572989 79.811 -172.0774
0.577141 79.843 -172.1546
0.581324 79.875 -172.2333
0.585536 79.907 -172.3137
0.589779 79.939 -172.3957
0.594053 79.972 -172.4794
0.598358 80.005 -172.5649
0.602694 80.038 -172.6522
0.607061 80.072 -172.7414
0.611460 80.106 -172.8325
0.615891 80.140 -172.9255
0.620354 80.174 -173.0206
0.624849 80.208 -173.1178
0.629377 80.243 -173.2171
0.633938 80.278 -173.3186
0.638532 80.313 -173.4224
0.643159 80.349 -173.5286
0.647819 80.385 -173.6371
0.652514 80.421 -173.7482
0.657242 80.457 -173.8618
0.662005 80.493 -173.9781
0.666802 80.530 -174.0971
0.671634 80.567 -174.2188
0.676501 80.605 -174.3435
0.681403 80.642 -174.4712
0.686341 80.680 -174.6019
0.691314 80.718 -174.7357
0.696324 80.756 -174.8729
0.701370 80.795 -175.0134
0.706452 80.834 -175.1573
0.711571 80.873 -175.3048
0.716728 80.911 -175.4559
0.721921 80.950 -175.6108
0.727153 80.988 -175.7694
0.732422 81.026 -175.9319
0.737729 81.063 -176.0983
0.743075 81.099 -176.2685
0.748460 81.135 -176.4426
0.753883 81.170 -176.6204
0.759346 81.205 -176.8020
0.764849 81.241 -176.9872
0.770391 81.276 -177.1761
0.775974 81.311 -177.3686
0.781597 81.346 -177.5647
0.787261 81.381 -177.7642
0.792966 81.417 -177.9672
0.798712 81.452 -178.1736
0.804500 81.488 -178.3832
0.810329 81.523 -178.5962
0.816201 81.559 -178.8124
0.822116 81.594 -179.0318
0.828073 81.630 -179.2542
0.834074 81.666 -179.4798
0.840118 81.701 -179.7083
0.846206 81.737 -179.9398
0.852338 81.773 179.8258
0.858514 81.809 179.5886
0.864735 81.844 179.3486
0.871001 81.880 179.1059
0.877313 81.916 178.8605
0.883670 81.952 178.6125
0.890074 81.988 178.3619
0.896524 82.023 178.1088
0.903020 82.059 177.8531
0.909564 82.095 177.5951
0.916155 82.131 177.3347
0.922794 82.167 177.0719
0.929481 82.202 176.8069
0.936216 82.238 176.5395
0.943000 82.274 176.2699
0.949834 82.309 175.9982
0.956717 82.345 175.7242
0.963649 82.381 175.4481
0.970632 82.416 175.1699
0.977666 82.451 174.8896
0.984750 82.487 174.6072
0.991886 82.522 174.3228
0.999074 82.557 174.0362
1.006314 82.592 173.7476
1.013606 82.627 173.4570
1.020951 82.662 173.1643
1.028349 82.696 172.8695
1.035801 82.731 172.5726
1.043307 82.765 172.2736
1.050867 82.800 171.9723
1.058482 82.834 171.6688
1.066152 82.868 171.3627
1.073878 82.902 171.0540
1.081660 82.935 170.7423
1.089498 82.969 170.4271
1.097393 83.002 170.1076
1.105345 83.035 169.7831
1.113355 83.068 169.4529
1.121423 83.100 169.1165
1.129549 83.132 168.7732
1.137734 83.164 168.4231
1.145979 83.196 168.0660
1.154283 83.227 167.7020
1.162647 83.258 167.3312
1.171072 83.289 166.9539
1.179558 83.320 166.5703
1.188106 83.350 166.1805
1.196715 83.380 165.7848
1.205387 83.410 165.3834
1.214122 83.439 164.9767
1.222920 83.468 164.5650
1.231782 83.497 164.1484
1.240708 83.525 163.7274
1.249699 83.554 163.3022
1.258754 83.581 162.8731
1.267876 83.609 162.4406
1.277063 83.636 162.0048
1.286318 83.663 161.5663
1.295639 83.689 161.1253
1.305027 83.716 160.6822
1.314484 83.742 160.2375
1.324009 83.767 159.7914
1.333604 83.792 159.3445
1.343268 83.817 158.8972
1.353002 83.842 158.4499
1.362806 83.866 158.0029
1.372681 83.890 157.5569
1.382628 83.914 157.1121
1.392647 83.937 156.6691
1.402739 83.960 156.2283
1.412904 83.982 155.7900
1.423142 84.005 155.3544
1.433455 84.027 154.9217
1.443843 84.048 154.4916
1.454305 84.069 154.0637
1.464844 84.090 153.6370
1.475459 84.110 153.2103
1.486150 84.130 152.7823
1.496920 84.149 152.3521
1.507767 84.167 151.9188
1.518693 84.185 151.4821
1.529698 84.202 151.0417
1.540783 84.218 150.5977
1.551948 84.234 150.1503
1.563194 84.249 149.6995
1.574521 84.264 149.2456
1.585931 84.278 148.7889
1.597423 84.291 148.3298
1.608999 84.304 147.8685
1.620658 84.316 147.4055
1.632402 84.328 146.9410
1.644232 84.339 146.4756
1.656146 84.349 146.0096
1.668147 84.359 145.5435
1.680235 84.369 145.0777
1.692411 84.378 144.6129
1.704675 84.386 144.1495
1.717028 84.394 143.6880
1.729470 84.402 143.2291
1.742003 84.409 142.7733
1.754626 84.416 142.3212
1.767341 84.422 141.8732
1.780147 84.428 141.4301
1.793047 84.434 140.9918
1.806040 84.439 140.5586
1.819128 84.443 140.1302
1.832310 84.447 139.7061
1.845587 84.451 139.2851
1.858961 84.453 138.8664
1.872432 84.455 138.4492
1.886001 84.455 138.0328
1.899667 84.455 137.6171
1.913433 84.454 137.2018
1.927299 84.452 136.7870
1.941265 84.449 136.3731
1.955332 84.446 135.9603
1.969501 84.441 135.5488
1.983773 84.436 135.1393
1.998148 84.431 134.7321
2.012627 84.425 134.3278
2.027212 84.419 133.9270
2.041902 84.413 133.5303
2.056698 84.407 133.1384
2.071602 84.400 132.7521
2.086614 84.394 132.3722
2.101734 84.387 131.9996
2.116964 84.381 131.6351
2.132304 84.376 131.2798
2.147756 84.371 130.9344
2.163320 84.366 130.5999
2.178996 84.361 130.2770
2.194786 84.357 129.9662
2.210690 84.353 129.6681
2.226710 84.349 129.3824
2.242845 84.345 129.1093
2.259098 84.340 128.8483
2.275468 84.335 128.5991
2.291957 84.330 128.3614
2.308566 84.325 128.1348
2.325295 84.320 127.9188
2.342145 84.315 127.7130
2.359117 84.310 127.5169
2.376212 84.307 127.3302
2.393431 84.304 127.1525
2.410775 84.302 126.9832
2.428244 84.302 126.8219
2.445840 84.303 126.6684
2.463564 84.305 126.5222
2.481416 84.310 126.3831
2.499397 84.317 126.2511
2.517509 84.327 126.1266
2.535752 84.338 126.0103
2.554127 84.353 125.9034
2.572635 84.370 125.8075
2.591277 84.390 125.7244
2.610055 84.412 125.6551
2.628968 84.436 125.6001
2.648019 84.463 125.5590
2.667208 84.491 125.5305
2.686535 84.523 125.5130
2.706003 84.556 125.5046
2.725612 84.592 125.5031
2.745363 84.630 125.5061
2.765257 84.671 125.5111
2.785295 84.714 125.5157
2.805478 84.760 125.5172
2.825808 84.808 125.5135
2.846285 84.859 125.5023
2.866910 84.912 125.4820
2.887685 84.969 125.4517
2.908611 85.028 125.4112
2.929688 85.091 125.3616
2.950917 85.157 125.3046
2.972301 85.227 125.2420
2.993839 85.300 125.1750
3.015534 85.377 125.1040
3.037386 85.458 125.0284
3.059396 85.541 124.9472
3.081565 85.628 124.8587
3.103896 85.717 124.7613
3.126388 85.808 124.6528
3.149043 85.901 124.5314
3.171862 85.996 124.3951
3.194847 86.091 124.2420
3.217998 86.188 124.0704
3.241317 86.285 123.8792
3.264805 86.383 123.6676
3.288463 86.482 123.4355
3.312293 86.582 123.1836
3.336295 86.682 122.9129
3.360471 86.784 122.6248
3.384822 86.888 122.3204
3.409350 86.992 122.0006
3.434056 87.098 121.6662
3.458940 87.204 121.3176
3.484005 87.310 120.9552
3.509252 87.417 120.5791
3.534681 87.524 120.1894
3.560295 87.629 119.7857
3.586094 87.734 119.3679
3.612081 87.838 118.9353
3.638255 87.940 118.4872
3.664620 88.041 118.0229
3.691175 88.141 117.5417
3.717923 88.239 117.0439
3.744864 88.337 116.5298
3.772001 88.433 116.0010
3.799335 88.528 115.4592
3.826866 88.622 114.9064
3.854597 88.714 114.3448
3.882529 88.806 113.7763
3.910664 88.895 113.2029
3.939002 88.983 112.6257
3.967546 89.069 112.0457
3.996296 89.153 111.4630
4.025255 89.234 110.8766
4.054423 89.314 110.2856
4.083804 89.392 109.6888
4.113396 89.467 109.0858
4.143204 89.540 108.4771
4.173227 89.611 107.8644
4.203468 89.681 107.2495
4.233928 89.748 106.6349
4.264609 89.814 106.0230
4.295512 89.878 105.4161
4.326639 89.940 104.8160
4.357992 90.000 104.2237
4.389572 90.059 103.6393
4.421380 90.116 103.0623
4.453419 90.171 102.4915
4.485691 90.225 101.9264
4.518196 90.276 101.3669
4.550936 90.326 100.8135
4.583914 90.375 100.2674
4.617131 90.422 99.7301
4.650589 90.469 99.2033
4.684289 90.515 98.6884
4.718233 90.561 98.1870
4.752424 90.606 97.6997
4.786862 90.651 97.2268
4.821549 90.696 96.7681
4.856488 90.740 96.3228
4.891680 90.784 95.8901
4.927127 90.828 95.4693
4.962831 90.872 95.0596
4.998794 90.916 94.6606
5.035017 90.962 94.2721
5.071503 91.008 93.8940
5.108253 91.056 93.5265
5.145270 91.105 93.1700
5.182555 91.156 92.8245
5.220110 91.208 92.4896
5.257937 91.261 92.1641
5.296038 91.316 91.8463
5.334415 91.372 91.5339
5.373071 91.429 91.2250
5.412006 91.489 90.9176
5.451224 91.550 90.6104
5.490725 91.613 90.3026
5.530514 91.678 89.9941
5.570590 91.744 89.6848
5.610957 91.813 89.3741
5.651616 91.883 89.0612
5.692570 91.954 88.7444
5.733821 92.027 88.4222
5.775370 92.100 88.0927
5.817221 92.174 87.7546
5.859375 92.249 87.4069
5.901834 92.325 87.0494
5.944602 92.401 86.6823
5.987679 92.477 86.3059
6.031068 92.554 85.9205
6.074771 92.630 85.5264
6.118792 92.707 85.1236
6.163131 92.782 84.7119
6.207792 92.857 84.2913
6.252776 92.930 83.8616
6.298086 93.003 83.4230
6.343725 93.074 82.9763
6.389694 93.144 82.5228
6.435996 93.212 82.0639
6.482634 93.279 81.6012
6.529610 93.345 81.1361
6.576926 93.409 80.6695
6.624585 93.470 80.2017
6.672590 93.530 79.7332
6.720942 93.589 79.2648
6.769645 93.645 78.7975
6.818700 93.700 78.3329
6.868111 93.753 77.8727
6.917881 93.805 77.4182
6.968010 93.856 76.9703
7.018504 93.905 76.5295
7.069362 93.953 76.0959
7.120590 94.000 75.6697
7.172189 94.046 75.2513
7.224161 94.092 74.8410
7.276511 94.137 74.4393
7.329239 94.182 74.0467
7.382350 94.227 73.6629
7.435845 94.272 73.2878
7.489729 94.317 72.9203
7.544002 94.362 72.5598
7.598669 94.407 72.2051
7.653732 94.454 71.8553
7.709194 94.501 71.5099
7.765058 94.548 71.1680
7.821327 94.597 70.8290
7.878004 94.646 70.4915
7.935091 94.696 70.1543
7.992592 94.746 69.8160
8.050510 94.797 69.4753
8.108847 94.849 69.1317
8.167607 94.901 68.7844
8.226793 94.953 68.4331
8.286408 95.006 68.0773
8.346454 95.058 67.7163
8.406936 95.110 67.3499
8.467856 95.161 66.9778
8.529218 95.212 66.6000
8.591024 95.263 66.2171
8.653278 95.312 65.8295
8.715983 95.361 65.4380
8.779143 95.409 65.0432
8.842760 95.455 64.6455
8.906839 95.500 64.2456
8.971381 95.544 63.8445
9.036392 95.587 63.4431
9.101873 95.628 63.0424
9.167829 95.669 62.6434
9.234263 95.708 62.2467
9.301178 95.746 61.8528
9.368578 95.783 61.4621
9.436467 95.820 61.0752
9.504847 95.855 60.6925
9.573723 95.890 60.3143
9.643099 95.924 59.9404
9.712976 95.957 59.5707
9.783361 95.988 59.2047
9.854255 96.017 58.8421
9.925663 96.044 58.4824
9.997588 96.069 58.1251
10.070035 96.092 57.7694
10.143007 96.113 57.4148
10.216507 96.133 57.0604
10.290540 96.151 56.7055
10.365109 96.169 56.3497
10.440219 96.185 55.9925
10.515873 96.201 55.6336
10.592076 96.216 55.2726
10.668830 96.230 54.9094
10.746141 96.244 54.5439
10.824012 96.258 54.1765
10.902447 96.271 53.8073
10.981451 96.284 53.4367
11.061027 96.296 53.0652
11.141180 96.307 52.6932
11.221913 96.318 52.3213
11.303232 96.328 51.9499
11.385140 96.337 51.5796
11.467641 96.346 51.2108
11.550741 96.355 50.8439
11.634442 96.363 50.4789
11.718750 96.371 50.1162
11.803669 96.380 49.7557
11.889203 96.388 49.3974
11.975357 96.397 49.0411
12.062136 96.406 48.6864
12.149543 96.416 48.3332
12.237583 96.426 47.9810
12.326262 96.436 47.6295
12.415583 96.446 47.2784
12.505552 96.456 46.9273
12.596172 96.466 46.5762
12.687449 96.476 46.2250
12.779387 96.486 45.8735
12.871992 96.495 45.5220
12.965268 96.504 45.1705
13.059220 96.513 44.8193
13.153852 96.522 44.4687
13.249170 96.530 44.1191
13.345179 96.539 43.7708
13.441884 96.547 43.4240
13.539289 96.556 43.0791
13.637401 96.564 42.7361
13.736223 96.573 42.3953
13.835761 96.581 42.0564
13.936021 96.589 41.7195
14.037007 96.597 41.3845
14.138725 96.606 41.0510
14.241180 96.613 40.7188
14.344377 96.621 40.3876
14.448323 96.629 40.0573
14.553021 96.636 39.7278
14.658478 96.644 39.3988
14.764700 96.651 39.0705
14.871691 96.657 38.7430
14.979457 96.664 38.4164
15.088005 96.670 38.0910
15.197339 96.676 37.7672
15.307465 96.682 37.4451
15.418389 96.688 37.1251
15.530117 96.693 36.8073
15.642655 96.699 36.4917
15.756008 96.704 36.1784
15.870182 96.709 35.8672
15.985184 96.713 35.5576
16.101019 96.718 35.2494
16.217694 96.723 34.9419
16.335214 96.728 34.6348
16.453586 96.733 34.3274
16.572815 96.738 34.0195
16.692909 96.743 33.7107
16.813872 96.748 33.4009
16.935713 96.754 33.0901
17.058436 96.759 32.7784
17.182048 96.764 32.4663
17.306556 96.768 32.1542
17.431967 96.773 31.8425
17.558286 96.776 31.5317
17.685521 96.780 31.2224
17.813677 96.783 30.9150
17.942762 96.785 30.6095
18.072783 96.787 30.3063
18.203746 96.790 30.0051
18.335658 96.792 29.7060
18.468526 96.794 29.4085
18.602356 96.796 29.1124
18.737156 96.799 28.8174
18.872934 96.802 28.5230
19.009695 96.805 28.2291
19.147447 96.808 27.9354
19.286197 96.812 27.6417
19.425953 96.815 27.3480
19.566721 96.819 27.0542
19.708510 96.822 26.7604
19.851326 96.826 26.4667
19.995177 96.829 26.1729
20.140070 96.832 25.8792
20.286013 96.835 25.5858
20.433014 96.838 25.2925
20.581080 96.841 24.9998
20.730219 96.843 24.7076
20.880439 96.845 24.4165
21.031747 96.848 24.1265
21.184152 96.850 23.8380
21.337661 96.852 23.5515
21.492282 96.854 23.2671
21.648024 96.856 22.9850
21.804895 96.858 22.7052
21.962902 96.860 22.4279
22.122054 96.862 22.1526
22.282360 96.864 21.8792
22.443827 96.866 21.6073
22.606464 96.868 21.3367
22.770280 96.870 21.0671
22.935283 96.871 20.7984
23.101481 96.873 20.5304
23.268884 96.874 20.2633
23.437500 96.874 19.9971
23.607338 96.875 19.7319
23.778406 96.874 19.4680
23.950714 96.874 19.2054
24.124271 96.872 18.9440
24.299086 96.871 18.6838
24.475167 96.869 18.4248
24.652524 96.867 18.1666
24.831166 96.864 17.9093
25.011103 96.861 17.6528
25.192344 96.858 17.3971
25.374898 96.855 17.1422
25.558775 96.851 16.8884
25.743984 96.847 16.6355
25.930536 96.843 16.3838
26.118439 96.839 16.1331
26.307704 96.834 15.8833
26.498341 96.829 15.6343
26.690359 96.825 15.3860
26.883768 96.820 15.1381
27.078579 96.815 14.8905
27.274801 96.810 14.6433
27.472446 96.805 14.3965
27.671522 96.800 14.1503
27.872042 96.794 13.9045
28.074014 96.789 13.6595
28.277450 96.784 13.4150
28.482360 96.778 13.1711
28.688755 96.773 12.9277
28.896645 96.767 12.6849
29.106042 96.762 12.4424
29.316957 96.756 12.2004
29.529400 96.751 11.9591
29.743382 96.745 11.7184
29.958915 96.740 11.4784
30.176009 96.734 11.2391
30.394677 96.729 11.0006
30.614929 96.724 10.7628
30.836778 96.719 10.5258
31.060234 96.713 10.2896
31.285309 96.708 10.0543
31.512015 96.702 9.8200
31.740364 96.696 9.5869
31.970368 96.690 9.3550
32.202039 96.684 9.1244
32.435388 96.678 8.8948
32.670428 96.671 8.6661
32.907171 96.664 8.4381
33.145630 96.657 8.2104
33.385817 96.650 7.9832
33.627745 96.643 7.7561
33.871425 96.635 7.5292
34.116871 96.627 7.3026
34.364096 96.619 7.0764
34.613113 96.611 6.8506
34.863934 96.602 6.6254
35.116572 96.592 6.4011
35.371041 96.582 6.1777
35.627354 96.572 5.9558
35.885525 96.562 5.7356
36.145566 96.551 5.5174
36.407492 96.539 5.3015
36.671316 96.528 5.0880
36.937051 96.516 4.8772
37.204712 96.504 4.6690
37.474313 96.492 4.4635
37.745867 96.480 4.2605
38.019389 96.468 4.0602
38.294893 96.457 3.8623
38.572394 96.445 3.6670
38.851905 96.433 3.4738
39.133442 96.422 3.2823
39.417019 96.411 3.0920
39.702651 96.400 2.9016
39.990353 96.390 2.7105
40.280140 96.380 2.5181
40.572026 96.369 2.3242
40.866028 96.359 2.1299
41.162160 96.348 1.9364
41.460438 96.337 1.7448
41.760877 96.327 1.5558
42.063494 96.316 1.3690
42.368303 96.307 1.1825
42.675322 96.298 0.9941
42.984565 96.289 0.8014
43.296048 96.281 0.6030
43.609789 96.272 0.3992
43.925804 96.262 0.1915
44.244108 96.252 -0.0176
44.564719 96.241 -0.2261
44.887654 96.230 -0.4325
45.212928 96.218 -0.6366
45.540560 96.206 -0.8385
45.870565 96.194 -1.0389
46.202962 96.181 -1.2377
46.537768 96.168 -1.4347
46.875000 96.155 -1.6294
47.214676 96.142 -1.8218
47.556813 96.129 -2.0121
47.901429 96.115 -2.2012
48.248542 96.102 -2.3891
48.598171 96.088 -2.5759
48.950334 96.073 -2.7611
49.305048 96.059 -2.9441
49.662333 96.044 -3.1250
50.022206 96.029 -3.3046
50.384688 96.015 -3.4840
50.749796 96.000 -3.6646
51.117550 95.984 -3.8463
51.487969 95.969 -4.0284
51.861072 95.953 -4.2096
52.236879 95.937 -4.3882
52.615409 95.920 -4.5634
52.996681 95.904 -4.7351
53.380717 95.888 -4.9039
53.767536 95.873 -5.0708
54.157158 95.858 -5.2366
54.549603 95.844 -5.4017
54.944892 95.830 -5.5667
55.343045 95.816 -5.7320
55.744084 95.803 -5.8984
56.148028 95.790 -6.0668
56.554900 95.777 -6.2377
56.964720 95.763 -6.4116
57.377510 95.750 -6.5880
57.793291 95.735 -6.7662
58.212085 95.720 -6.9452
58.633914 95.704 -7.1240
59.058799 95.688 -7.3022
59.486764 95.670 -7.4797
59.917829 95.653 -7.6566
60.352019 95.634 -7.8327
60.789354 95.615 -8.0077
61.229859 95.595 -8.1810
61.673556 95.574 -8.3517
62.120468 95.553 -8.5193
62.570618 95.531 -8.6829
63.024031 95.509 -8.8418
63.480729 95.487 -8.9958
63.940736 95.464 -9.1447
64.404077 95.442 -9.2886
64.870776 95.421 -9.4286
65.340856 95.399 -9.5653
65.814343 95.378 -9.6996
66.291261 95.357 -9.8318
66.771635 95.337 -9.9621
67.255489 95.317 -10.0905
67.742850 95.297 -10.2174
68.233743 95.277 -10.3436
68.728193 95.258 -10.4699
69.226226 95.239 -10.5972
69.727867 95.221 -10.7260
70.233144 95.202 -10.8568
70.742083 95.184 -10.9897
71.254709 95.166 -11.1250
71.771050 95.148 -11.2626
72.291132 95.129 -11.4025
72.814984 95.111 -11.5443
73.342631 95.092 -11.6876
73.874102 95.073 -11.8318
74.409424 95.053 -11.9756
74.948626 95.033 -12.1181
75.491734 95.013 -12.2587
76.038779 94.993 -12.3973
76.589787 94.972 -12.5347
77.144788 94.953 -12.6715
77.703811 94.933 -12.8090
78.266885 94.914 -12.9482
78.834039 94.894 -13.0905
79.405303 94.875 -13.2369
79.980706 94.855 -13.3888
80.560280 94.835 -13.5471
81.144053 94.814 -13.7126
81.732056 94.793 -13.8854
82.324320 94.769 -14.0641
82.920876 94.744 -14.2462
83.521755 94.717 -14.4280
84.126988 94.689 -14.6056
84.736607 94.659 -14.7754
85.350643 94.628 -14.9349
85.969129 94.597 -15.0834
86.592097 94.565 -15.2214
87.219579 94.534 -15.3508
87.851608 94.504 -15.4729
88.488217 94.473 -15.5879
89.129439 94.443 -15.6960
89.775308 94.413 -15.7979
90.425856 94.384 -15.8943
91.081119 94.355 -15.9866
91.741131 94.326 -16.0761
92.405925 94.298 -16.1641
93.075536 94.270 -16.2513
93.750000 94.243 -16.3384
94.429351 94.215 -16.4257
95.113625 94.188 -16.5132
95.802858 94.160 -16.6010
96.497085 94.132 -16.6888
97.196342 94.103 -16.7765
97.900667 94.074 -16.8632
98.610096 94.045 -16.9481
99.324665 94.015 -17.0305
100.044413 93.985 -17.1096
100.769376 93.954 -17.1849
