* Measurement data measured by REW V5.30.4
* Source: EXCL: Microphone (Realtek(R) Audio), MICROPHONE (Master Volume), L, volume: 1.000
* Format: 256k Log Swept Sine, 1 sweep at -12.0 dBFS with no timing reference
* Dated: Jan 21, 2024 12:16:00 AM
* REW Settings:
*  C-weighting compensation: Off
*  Target level: 75.0 dB
* Note: Tinhifi T5S L
* Measurement: L Jan 21
* Smoothing: 1/12 octave
* Frequency Step: 96 ppo
* Start Frequency: 0.36621094 Hz
*
* Freq(Hz) SPL(dB) Phase(degrees)
0.366211 95.653 -14.7533
0.368865 95.654 -14.7701
0.371538 95.655 -14.7953
0.374230 95.655 -14.8267
0.376942 95.656 -14.8628
0.379673 95.657 -14.9021
0.382424 95.659 -14.9439
0.385196 95.660 -14.9877
0.387987 95.661 -15.0331
0.390798 95.662 -15.0800
0.393630 95.663 -15.1284
0.396483 95.664 -15.1781
0.399356 95.666 -15.2292
0.402250 95.667 -15.2817
0.405165 95.668 -15.3356
0.408101 95.669 -15.3909
0.411058 95.671 -15.4476
0.414037 95.672 -15.5057
0.417037 95.673 -15.5652
0.420059 95.674 -15.6261
0.423103 95.676 -15.6885
0.426169 95.677 -15.7524
0.429257 95.678 -15.8177
0.432367 95.680 -15.8845
0.435501 95.681 -15.9528
0.438656 95.682 -16.0226
0.441835 95.684 -16.0938
0.445037 95.685 -16.1667
0.448262 95.686 -16.2410
0.451510 95.688 -16.3168
0.454782 95.689 -16.3942
0.458077 95.690 -16.4732
0.461397 95.692 -16.5537
0.464740 95.693 -16.6358
0.468108 95.695 -16.7194
0.471500 95.696 -16.8046
0.474917 95.698 -16.8914
0.478358 95.699 -16.9797
0.481825 95.701 -17.0697
0.485316 95.702 -17.1612
0.488833 95.703 -17.2544
0.492375 95.705 -17.3491
0.495943 95.706 -17.4454
0.499537 95.708 -17.5434
0.503157 95.710 -17.6429
0.506803 95.711 -17.7440
0.510475 95.713 -17.8468
0.514174 95.714 -17.9511
0.517900 95.716 -18.0570
0.521653 95.717 -18.1645
0.525433 95.719 -18.2736
0.529241 95.721 -18.3842
0.533076 95.722 -18.4964
0.536939 95.724 -18.6102
0.540830 95.725 -18.7256
0.544749 95.727 -18.8425
0.548696 95.729 -18.9609
0.552673 95.730 -19.0808
0.556677 95.732 -19.2023
0.560711 95.734 -19.3253
0.564774 95.736 -19.4497
0.568867 95.737 -19.5756
0.572989 95.739 -19.7029
0.577141 95.741 -19.8317
0.581324 95.743 -19.9619
0.585536 95.744 -20.0934
0.589779 95.746 -20.2263
0.594053 95.748 -20.3606
0.598358 95.750 -20.4961
0.602694 95.752 -20.6330
0.607061 95.753 -20.7711
0.611460 95.755 -20.9103
0.615891 95.757 -21.0508
0.620354 95.759 -21.1924
0.624849 95.761 -21.3352
0.629377 95.763 -21.4790
0.633938 95.765 -21.6238
0.638532 95.767 -21.7696
0.643159 95.769 -21.9163
0.647819 95.771 -22.0640
0.652514 95.773 -22.2125
0.657242 95.775 -22.3617
0.662005 95.777 -22.5117
0.666802 95.779 -22.6624
0.671634 95.781 -22.8137
0.676501 95.783 -22.9655
0.681403 95.785 -23.1179
0.686341 95.787 -23.2706
0.691314 95.789 -23.4238
0.696324 95.791 -23.5772
0.701369 95.793 -23.7309
0.706452 95.796 -23.8848
0.711571 95.798 -24.0388
0.716727 95.800 -24.1930
0.721921 95.803 -24.3473
0.727153 95.806 -24.5020
0.732422 95.809 -24.6572
0.737729 95.813 -24.8132
0.743075 95.817 -24.9701
0.748460 95.822 -25.1282
0.753883 95.827 -25.2877
0.759346 95.832 -25.4487
0.764849 95.837 -25.6112
0.770391 95.842 -25.7753
0.775974 95.848 -25.9410
0.781597 95.853 -26.1083
0.787261 95.859 -26.2773
0.792965 95.865 -26.4478
0.798712 95.871 -26.6199
0.804499 95.877 -26.7937
0.810329 95.883 -26.9690
0.816201 95.889 -27.1459
0.822116 95.895 -27.3243
0.828073 95.902 -27.5043
0.834073 95.908 -27.6859
0.840118 95.915 -27.8689
0.846205 95.922 -28.0535
0.852337 95.929 -28.2396
0.858514 95.936 -28.4271
0.864735 95.943 -28.6161
0.871001 95.951 -28.8065
0.877313 95.959 -28.9983
0.883670 95.966 -29.1915
0.890074 95.974 -29.3860
0.896523 95.983 -29.5819
0.903020 95.991 -29.7791
0.909564 96.000 -29.9775
0.916155 96.008 -30.1772
0.922793 96.017 -30.3781
0.929480 96.027 -30.5801
0.936216 96.036 -30.7833
0.943000 96.046 -30.9876
0.949833 96.056 -31.1930
0.956716 96.066 -31.3993
0.963649 96.076 -31.6066
0.970632 96.087 -31.8149
0.977666 96.097 -32.0240
0.984750 96.109 -32.2340
0.991886 96.120 -32.4447
0.999074 96.132 -32.6562
1.006313 96.144 -32.8683
1.013605 96.156 -33.0811
1.020950 96.169 -33.2944
1.028349 96.182 -33.5082
1.035801 96.195 -33.7224
1.043306 96.209 -33.9369
1.050867 96.222 -34.1518
1.058482 96.237 -34.3668
1.066152 96.252 -34.5820
1.073878 96.267 -34.7971
1.081659 96.282 -35.0121
1.089498 96.298 -35.2268
1.097393 96.314 -35.4410
1.105345 96.331 -35.6546
1.113355 96.348 -35.8672
1.121422 96.366 -36.0789
1.129549 96.383 -36.2895
1.137734 96.402 -36.4990
1.145978 96.421 -36.7076
1.154283 96.440 -36.9152
1.162647 96.460 -37.1219
1.171072 96.480 -37.3279
1.179558 96.500 -37.5333
1.188106 96.521 -37.7383
1.196715 96.543 -37.9429
1.205387 96.565 -38.1473
1.214122 96.587 -38.3516
1.222920 96.610 -38.5561
1.231781 96.633 -38.7608
1.240708 96.657 -38.9660
1.249698 96.681 -39.1718
1.258754 96.706 -39.3784
1.267875 96.731 -39.5860
1.277063 96.756 -39.7948
1.286317 96.783 -40.0049
1.295638 96.809 -40.2166
1.305027 96.836 -40.4300
1.314484 96.864 -40.6455
1.324009 96.892 -40.8631
1.333603 96.920 -41.0832
1.343267 96.949 -41.3060
1.353001 96.979 -41.5317
1.362805 97.009 -41.7605
1.372681 97.039 -41.9926
1.382628 97.070 -42.2285
1.392647 97.101 -42.4681
1.402739 97.133 -42.7119
1.412904 97.166 -42.9600
1.423142 97.198 -43.2125
1.433455 97.232 -43.4695
1.443842 97.266 -43.7310
1.454305 97.300 -43.9967
1.464843 97.335 -44.2662
1.475458 97.371 -44.5390
1.486150 97.408 -44.8145
1.496919 97.445 -45.0922
1.507766 97.483 -45.3719
1.518692 97.521 -45.6533
1.529697 97.561 -45.9364
1.540782 97.601 -46.2213
1.551947 97.642 -46.5080
1.563193 97.684 -46.7966
1.574521 97.726 -47.0873
1.585931 97.769 -47.3803
1.597423 97.813 -47.6756
1.608998 97.858 -47.9736
1.620658 97.903 -48.2744
1.632402 97.949 -48.5781
1.644231 97.995 -48.8851
1.656146 98.042 -49.1955
1.668147 98.090 -49.5096
1.680235 98.138 -49.8276
1.692410 98.187 -50.1497
1.704674 98.236 -50.4763
1.717027 98.285 -50.8075
1.729469 98.335 -51.1437
1.742002 98.386 -51.4851
1.754625 98.437 -51.8319
1.767340 98.488 -52.1846
1.780147 98.539 -52.5432
1.793046 98.591 -52.9080
1.806040 98.643 -53.2791
1.819127 98.696 -53.6565
1.832309 98.749 -54.0400
1.845587 98.802 -54.4293
1.858961 98.856 -54.8241
1.872431 98.911 -55.2241
1.886000 98.966 -55.6290
1.899666 99.022 -56.0386
1.913432 99.079 -56.4527
1.927298 99.136 -56.8713
1.941264 99.194 -57.2943
1.955331 99.253 -57.7217
1.969500 99.312 -58.1534
1.983772 99.371 -58.5894
1.998147 99.431 -59.0297
2.012626 99.492 -59.4744
2.027211 99.552 -59.9235
2.041901 99.613 -60.3771
2.056697 99.675 -60.8352
2.071601 99.736 -61.2981
2.086613 99.798 -61.7657
2.101733 99.860 -62.2384
2.116963 99.922 -62.7162
2.132303 99.984 -63.1994
2.147755 100.045 -63.6883
2.163318 100.107 -64.1831
2.178995 100.169 -64.6843
2.194785 100.231 -65.1921
2.210689 100.293 -65.7069
2.226709 100.355 -66.2288
2.242844 100.417 -66.7579
2.259097 100.480 -67.2941
2.275467 100.542 -67.8370
2.291956 100.605 -68.3864
2.308565 100.668 -68.9418
2.325294 100.730 -69.5028
2.342144 100.794 -70.0689
2.359116 100.857 -70.6399
2.376211 100.920 -71.2152
2.393430 100.983 -71.7945
2.410774 101.045 -72.3775
2.428243 101.108 -72.9638
2.445839 101.171 -73.5532
2.463562 101.233 -74.1455
2.481415 101.295 -74.7407
2.499396 101.356 -75.3386
2.517508 101.417 -75.9397
2.535750 101.478 -76.5443
2.554126 101.538 -77.1532
2.572634 101.598 -77.7671
2.591276 101.658 -78.3872
2.610054 101.717 -79.0138
2.628967 101.775 -79.6474
2.648018 101.834 -80.2877
2.667206 101.892 -80.9342
2.686534 101.949 -81.5864
2.706002 102.006 -82.2434
2.725610 102.063 -82.9044
2.745361 102.119 -83.5685
2.765255 102.174 -84.2347
2.785294 102.229 -84.9023
2.805477 102.284 -85.5705
2.825807 102.337 -86.2384
2.846284 102.391 -86.9057
2.866909 102.443 -87.5719
2.887684 102.495 -88.2371
2.908609 102.546 -88.9017
2.929686 102.596 -89.5668
2.950916 102.645 -90.2336
2.972299 102.694 -90.9032
2.993838 102.742 -91.5764
3.015532 102.789 -92.2536
3.037384 102.835 -92.9343
3.059394 102.880 -93.6181
3.081564 102.924 -94.3040
3.103894 102.967 -94.9909
3.126386 103.010 -95.6778
3.149041 103.052 -96.3633
3.171861 103.093 -97.0465
3.194845 103.133 -97.7260
3.217996 103.173 -98.4011
3.241315 103.211 -99.0710
3.264803 103.249 -99.7358
3.288461 103.286 -100.3957
3.312291 103.322 -101.0517
3.336293 103.357 -101.7049
3.360469 103.391 -102.3561
3.384820 103.424 -103.0060
3.409348 103.456 -103.6544
3.434054 103.487 -104.3010
3.458938 103.517 -104.9451
3.484003 103.546 -105.5858
3.509250 103.574 -106.2220
3.534679 103.602 -106.8526
3.560293 103.629 -107.4765
3.586092 103.655 -108.0926
3.612079 103.681 -108.7002
3.638253 103.707 -109.2988
3.664618 103.732 -109.8885
3.691173 103.756 -110.4696
3.717921 103.779 -111.0427
3.744862 103.802 -111.6085
3.771999 103.824 -112.1671
3.799332 103.845 -112.7189
3.826864 103.866 -113.2636
3.854595 103.886 -113.8012
3.882527 103.906 -114.3312
3.910661 103.926 -114.8532
3.938999 103.946 -115.3666
3.967543 103.966 -115.8708
3.996294 103.987 -116.3652
4.025252 104.007 -116.8494
4.054421 104.027 -117.3231
4.083801 104.048 -117.7862
4.113394 104.069 -118.2390
4.143201 104.090 -118.6819
4.173225 104.110 -119.1155
4.203466 104.132 -119.5406
4.233926 104.153 -119.9578
4.264606 104.175 -120.3679
4.295509 104.198 -120.7713
4.326636 104.221 -121.1683
4.357989 104.246 -121.5591
4.389569 104.271 -121.9434
4.421378 104.297 -122.3208
4.453417 104.324 -122.6911
4.485688 104.351 -123.0543
4.518193 104.380 -123.4107
4.550934 104.410 -123.7614
4.583912 104.440 -124.1073
4.617129 104.471 -124.4497
4.650587 104.503 -124.7898
4.684287 104.536 -125.1286
4.718231 104.569 -125.4669
4.752421 104.603 -125.8050
4.786859 104.639 -126.1428
4.821547 104.675 -126.4803
4.856485 104.712 -126.8172
4.891677 104.750 -127.1538
4.927125 104.788 -127.4904
4.962829 104.828 -127.8277
4.998791 104.867 -128.1665
5.035015 104.907 -128.5076
5.071500 104.947 -128.8518
5.108251 104.987 -129.1996
5.145267 105.027 -129.5513
5.182552 105.067 -129.9069
5.220107 105.107 -130.2662
5.257934 105.147 -130.6289
5.296035 105.187 -130.9947
5.334412 105.227 -131.3633
5.373067 105.266 -131.7343
5.412003 105.304 -132.1078
5.451221 105.342 -132.4837
5.490722 105.379 -132.8622
5.530510 105.416 -133.2433
5.570587 105.451 -133.6270
5.610953 105.485 -134.0131
5.651613 105.519 -134.4007
5.692567 105.551 -134.7891
5.733818 105.583 -135.1773
5.775367 105.613 -135.5645
5.817218 105.643 -135.9501
5.859372 105.671 -136.3336
5.901831 105.698 -136.7150
5.944598 105.724 -137.0942
5.987675 105.748 -137.4710
6.031065 105.772 -137.8449
6.074768 105.794 -138.2153
6.118788 105.816 -138.5812
6.163127 105.836 -138.9420
6.207788 105.856 -139.2972
6.252772 105.875 -139.6463
6.298082 105.893 -139.9893
6.343721 105.911 -140.3263
6.389690 105.928 -140.6574
6.435992 105.944 -140.9827
6.482630 105.960 -141.3022
6.529606 105.976 -141.6157
6.576922 105.991 -141.9232
6.624581 106.006 -142.2247
6.672585 106.022 -142.5203
6.720938 106.037 -142.8105
6.769640 106.052 -143.0957
6.818696 106.068 -143.3769
6.868107 106.083 -143.6547
6.917876 106.099 -143.9297
6.968006 106.115 -144.2025
7.018499 106.132 -144.4734
7.069358 106.148 -144.7428
7.120586 106.165 -145.0112
7.172184 106.183 -145.2793
7.224157 106.200 -145.5481
7.276506 106.217 -145.8183
7.329235 106.235 -146.0904
7.382345 106.253 -146.3649
7.435841 106.271 -146.6420
7.489724 106.288 -146.9217
7.543997 106.306 -147.2044
7.598664 106.323 -147.4902
7.653728 106.340 -147.7794
7.709189 106.356 -148.0721
7.765053 106.372 -148.3684
7.821322 106.387 -148.6681
7.877998 106.401 -148.9709
7.935086 106.415 -149.2764
7.992587 106.429 -149.5842
8.050504 106.441 -149.8939
8.108841 106.453 -150.2054
8.167601 106.463 -150.5184
8.226787 106.473 -150.8325
8.286402 106.482 -151.1472
8.346449 106.491 -151.4621
8.406931 106.499 -151.7769
8.467851 106.506 -152.0911
8.529212 106.512 -152.4046
8.591018 106.518 -152.7175
8.653272 106.524 -153.0296
8.715977 106.529 -153.3409
8.779137 106.534 -153.6514
8.842754 106.538 -153.9611
8.906833 106.543 -154.2703
8.971375 106.547 -154.5792
9.036386 106.552 -154.8883
9.101867 106.556 -155.1978
9.167823 106.560 -155.5083
9.234257 106.565 -155.8201
9.301172 106.569 -156.1333
9.368572 106.573 -156.4485
9.436460 106.578 -156.7660
9.504841 106.582 -157.0861
9.573717 106.586 -157.4091
9.643092 106.591 -157.7351
9.712970 106.595 -158.0641
9.783354 106.599 -158.3960
9.854248 106.602 -158.7307
9.925656 106.605 -159.0681
9.997581 106.608 -159.4079
10.070028 106.611 -159.7498
10.143000 106.613 -160.0934
10.216500 106.615 -160.4380
10.290533 106.616 -160.7834
10.365103 106.618 -161.1289
10.440212 106.618 -161.4743
10.515866 106.619 -161.8191
10.592069 106.619 -162.1628
10.668823 106.619 -162.5052
10.746134 106.619 -162.8459
10.824005 106.620 -163.1850
10.902440 106.620 -163.5223
10.981443 106.621 -163.8579
11.061020 106.621 -164.1919
11.141172 106.622 -164.5245
11.221906 106.624 -164.8559
11.303225 106.626 -165.1864
11.385133 106.628 -165.5165
11.467634 106.631 -165.8464
11.550734 106.634 -166.1763
11.634435 106.638 -166.5066
11.718742 106.641 -166.8375
11.803661 106.645 -167.1691
11.889195 106.650 -167.5014
11.975349 106.654 -167.8344
12.062128 106.658 -168.1678
12.149535 106.663 -168.5016
12.237576 106.667 -168.8354
12.326254 106.671 -169.1689
12.415575 106.675 -169.5015
12.505544 106.679 -169.8329
12.596164 106.682 -170.1628
12.687441 106.686 -170.4906
12.779379 106.689 -170.8160
12.871984 106.691 -171.1388
12.965260 106.694 -171.4586
13.059211 106.696 -171.7754
13.153843 106.699 -172.0892
13.249161 106.701 -172.3997
13.345170 106.703 -172.7072
13.441875 106.705 -173.0117
13.539280 106.706 -173.3133
13.637391 106.708 -173.6122
13.736214 106.709 -173.9086
13.835752 106.710 -174.2023
13.936011 106.711 -174.4937
14.036998 106.711 -174.7826
14.138716 106.711 -175.0690
14.241171 106.710 -175.3530
14.344368 106.709 -175.6345
14.448313 106.708 -175.9133
14.553011 106.706 -176.1893
14.658468 106.703 -176.4626
14.764689 106.700 -176.7332
14.871680 106.696 -177.0009
14.979446 106.692 -177.2660
15.087994 106.688 -177.5287
15.197328 106.683 -177.7891
15.307454 106.678 -178.0476
15.418378 106.672 -178.3045
15.530106 106.666 -178.5602
15.642643 106.659 -178.8151
15.755996 106.652 -179.0696
15.870171 106.644 -179.3242
15.985172 106.637 -179.5790
16.101007 106.628 -179.8346
16.217682 106.619 179.9089
16.335201 106.610 179.6514
16.453573 106.600 179.3925
16.572803 106.589 179.1323
16.692898 106.578 178.8705
16.813862 106.566 178.6075
16.935701 106.553 178.3430
17.058424 106.540 178.0772
17.182035 106.526 177.8103
17.306543 106.512 177.5424
17.431953 106.497 177.2735
17.558273 106.482 177.0040
17.685509 106.466 176.7341
17.813665 106.450 176.4637
17.942751 106.434 176.1931
18.072771 106.417 175.9221
18.203733 106.401 175.6508
18.335646 106.384 175.3790
18.468513 106.367 175.1064
18.602345 106.351 174.8328
18.737144 106.335 174.5579
18.872921 106.319 174.2814
19.009682 106.302 174.0033
19.147434 106.287 173.7236
19.286184 106.271 173.4427
19.425940 106.255 173.1609
19.566708 106.239 172.8791
19.708496 106.223 172.5978
19.851313 106.206 172.3180
19.995163 106.191 172.0402
20.140057 106.175 171.7647
20.285999 106.160 171.4914
20.433001 106.145 171.2197
20.581066 106.131 170.9485
20.730206 106.117 170.6765
20.880424 106.104 170.4020
21.031733 106.091 170.1239
21.184137 106.078 169.8413
21.337646 106.064 169.5544
21.492268 106.048 169.2645
21.648010 106.031 168.9745
21.804880 106.011 168.6884
21.962887 105.988 168.4114
22.122040 105.963 168.1492
22.282345 105.936 167.9073
22.443811 105.907 167.6904
22.606449 105.878 167.5011
22.770266 105.851 167.3396
22.935268 105.825 167.2028
23.101467 105.804 167.0846
23.268869 105.786 166.9763
23.437485 105.773 166.8672
23.607323 105.765 166.7462
23.778391 105.760 166.6032
23.950699 105.758 166.4306
24.124256 105.755 166.2242
24.299070 105.751 165.9838
24.475151 105.744 165.7134
24.652508 105.732 165.4201
24.831150 105.715 165.1133
25.011087 105.693 164.8030
25.192327 105.666 164.4986
25.374882 105.636 164.2071
25.558758 105.602 163.9327
25.743967 105.568 163.6761
25.930519 105.534 163.4350
26.118422 105.502 163.2043
26.307686 105.471 162.9783
26.498322 105.441 162.7509
26.690340 105.413 162.5179
26.883749 105.385 162.2769
27.078560 105.357 162.0277
27.274782 105.329 161.7726
27.472427 105.300 161.5148
27.671503 105.271 161.2582
27.872023 105.241 161.0060
28.073996 105.211 160.7606
28.277431 105.182 160.5228
28.482342 105.154 160.2923
28.688736 105.127 160.0679
28.896626 105.103 159.8479
29.106022 105.079 159.6304
29.316936 105.058 159.4138
29.529379 105.037 159.1970
29.743361 105.017 158.9789
29.958893 104.999 158.7589
30.175987 104.980 158.5366
30.394655 104.961 158.3121
30.614908 104.942 158.0866
30.836756 104.921 157.8621
31.060211 104.898 157.6417
31.285286 104.874 157.4295
31.511992 104.847 157.2296
31.740341 104.819 157.0453
31.970345 104.790 156.8790
32.202015 104.760 156.7302
32.435364 104.731 156.5968
32.670403 104.702 156.4748
32.907146 104.674 156.3593
33.145607 104.647 156.2456
33.385796 104.620 156.1302
33.627724 104.593 156.0110
33.871403 104.564 155.8871
34.116848 104.536 155.7579
34.364071 104.506 155.6229
34.613087 104.475 155.4808
34.863907 104.443 155.3304
35.116547 104.410 155.1704
35.371017 104.375 155.0013
35.627331 104.338 154.8259
35.885502 104.298 154.6488
36.145542 104.257 154.4761
36.407467 104.213 154.3128
36.671291 104.170 154.1611
36.937027 104.128 154.0187
37.204689 104.089 153.8792
37.474289 104.053 153.7335
37.745842 104.020 153.5727
38.019363 103.988 153.3912
38.294868 103.957 153.1887
38.572369 103.925 152.9698
38.851879 103.892 152.7419
39.133415 103.858 152.5125
39.416992 103.823 152.2852
39.702625 103.790 152.0596
39.990326 103.759 151.8311
40.280113 103.728 151.5945
40.571999 103.698 151.3473
40.866001 103.667 151.0919
41.162132 103.633 150.8356
41.460411 103.597 150.5879
41.760849 103.558 150.3568
42.063465 103.520 150.1457
42.368275 103.481 149.9528
42.675293 103.443 149.7726
42.984535 103.406 149.6004
43.296021 103.367 149.4348
43.609760 103.327 149.2786
43.925774 103.284 149.1369
44.244080 103.240 149.0131
44.564690 103.194 148.9057
44.887623 103.148 148.8085
45.212898 103.101 148.7152
45.540531 103.051 148.6248
45.870537 102.997 148.5454
46.202934 102.938 148.4927
46.537739 102.876 148.4832
46.874969 102.816 148.5242
47.214645 102.762 148.6054
47.556782 102.718 148.6992
47.901398 102.685 148.7686
48.248512 102.660 148.7815
48.598141 102.639 148.7231
48.950302 102.618 148.5997
49.305016 102.593 148.4342
49.662300 102.564 148.2538
50.022175 102.535 148.0794
50.384655 102.506 147.9181
50.749763 102.481 147.7651
51.117516 102.460 147.6100
51.487934 102.441 147.4461
51.861038 102.421 147.2750
52.236843 102.399 147.1080
52.615372 102.372 146.9610
52.996643 102.342 146.8485
53.380680 102.308 146.7791
53.767498 102.272 146.7532
54.157120 102.234 146.7650
54.549564 102.194 146.8058
54.944855 102.154 146.8664
55.343006 102.111 146.9375
55.744045 102.068 147.0077
56.147991 102.024 147.0639
56.554863 101.978 147.0935
56.964684 101.931 147.0899
57.377472 101.881 147.0556
57.793251 101.829 147.0002
58.212044 101.778 146.9315
58.633873 101.733 146.8467
59.058758 101.694 146.7309
59.486721 101.662 146.5662
59.917786 101.634 146.3460
60.351974 101.605 146.0823
60.789310 101.573 145.8022
61.229816 101.536 145.5339
61.673512 101.495 145.2954
62.120422 101.448 145.0947
62.570572 101.393 144.9401
63.023983 101.329 144.8513
63.480682 101.254 144.8586
63.940689 101.173 144.9876
64.404030 101.096 145.2356
64.870728 101.030 145.5565
65.340805 100.980 145.8688
65.814293 100.944 146.0887
66.291214 100.914 146.1685
66.771591 100.879 146.1174
67.255447 100.834 145.9937
67.742805 100.777 145.8782
68.233696 100.715 145.8494
68.728142 100.657 145.9618
69.226173 100.614 146.2263
69.727814 100.596 146.5966
70.233093 100.602 146.9870
70.742035 100.621 147.3252
71.254662 100.640 147.5981
71.771004 100.648 147.8409
72.291084 100.645 148.0808
72.814934 100.635 148.3004
73.342583 100.618 148.4584
73.874054 100.593 148.5244
74.409378 100.565 148.4737
74.948578 100.537 148.2604
75.491684 100.506 147.8399
76.038727 100.459 147.2447
