* Measurement data measured by REW V5.31.3
* Source: EXCL: Microphone (USB Sound Device        ), MICROPHONE (Master Volume), R, volume: 0.390
* Format: 256k Log Swept Sine, 1 sweep at -15.0 dBFS with no timing reference
* Dated: May 30, 2025 11:42:56 PM
* REW Settings:
*  C-weighting compensation: Off
*  Target level: 75.0 dB
* Note: Tinhifi C1 L
* Measurement: L TinHifi C1
* Smoothing: 1/12 octave
* Frequency Step: 96 ppo
* Start Frequency: 0.36621094 Hz
*
* Freq(Hz) SPL(dB) Phase(degrees)
0.366211 91.601 166.6066
0.368865 91.597 166.5916
0.371538 91.590 166.5692
0.374230 91.582 166.5411
0.376942 91.572 166.5087
0.379673 91.563 166.4732
0.382424 91.552 166.4353
0.385196 91.542 166.3954
0.387987 91.531 166.3537
0.390798 91.520 166.3105
0.393630 91.509 166.2656
0.396483 91.497 166.2193
0.399356 91.486 166.1714
0.402250 91.475 166.1221
0.405165 91.463 166.0712
0.408101 91.452 166.0187
0.411058 91.440 165.9648
0.414037 91.429 165.9092
0.417037 91.417 165.8521
0.420059 91.405 165.7934
0.423103 91.393 165.7331
0.426169 91.381 165.6712
0.429257 91.369 165.6076
0.432368 91.357 165.5424
0.435501 91.344 165.4755
0.438656 91.332 165.4070
0.441835 91.319 165.3368
0.445037 91.307 165.2649
0.448262 91.294 165.1914
0.451510 91.281 165.1161
0.454782 91.269 165.0390
0.458077 91.256 164.9603
0.461397 91.243 164.8798
0.464740 91.229 164.7975
0.468108 91.216 164.7135
0.471500 91.203 164.6277
0.474917 91.189 164.5401
0.478358 91.176 164.4508
0.481825 91.162 164.3597
0.485316 91.149 164.2667
0.488833 91.135 164.1720
0.492375 91.121 164.0754
0.495943 91.107 163.9771
0.499537 91.093 163.8769
0.503157 91.079 163.7749
0.506803 91.064 163.6711
0.510475 91.050 163.5655
0.514175 91.035 163.4580
0.517900 91.021 163.3487
0.521653 91.006 163.2376
0.525434 90.991 163.1247
0.529241 90.976 163.0100
0.533076 90.961 162.8935
0.536939 90.946 162.7752
0.540830 90.931 162.6551
0.544749 90.915 162.5332
0.548696 90.900 162.4096
0.552673 90.884 162.2842
0.556677 90.868 162.1571
0.560711 90.853 162.0282
0.564774 90.837 161.8976
0.568867 90.821 161.7654
0.572989 90.804 161.6315
0.577141 90.788 161.4959
0.581324 90.772 161.3587
0.585536 90.755 161.2199
0.589779 90.739 161.0796
0.594053 90.722 160.9377
0.598358 90.705 160.7943
0.602694 90.688 160.6495
0.607061 90.671 160.5032
0.611460 90.653 160.3556
0.615891 90.636 160.2066
0.620354 90.619 160.0563
0.624849 90.601 159.9048
0.629377 90.583 159.7521
0.633938 90.565 159.5983
0.638532 90.547 159.4435
0.643159 90.529 159.2876
0.647819 90.511 159.1308
0.652514 90.492 158.9731
0.657242 90.474 158.8146
0.662005 90.455 158.6555
0.666802 90.436 158.4957
0.671634 90.417 158.3354
0.676501 90.398 158.1747
0.681403 90.379 158.0136
0.686341 90.359 157.8523
0.691314 90.340 157.6908
0.696324 90.320 157.5293
0.701370 90.300 157.3679
0.706452 90.280 157.2066
0.711571 90.259 157.0454
0.716728 90.238 156.8844
0.721921 90.216 156.7233
0.727153 90.192 156.5620
0.732422 90.168 156.3999
0.737729 90.141 156.2365
0.743075 90.113 156.0712
0.748460 90.084 155.9035
0.753883 90.053 155.7331
0.759346 90.022 155.5595
0.764849 89.991 155.3827
0.770391 89.959 155.2026
0.775974 89.926 155.0190
0.781597 89.893 154.8319
0.787261 89.859 154.6412
0.792966 89.825 154.4471
0.798712 89.791 154.2493
0.804500 89.756 154.0480
0.810329 89.721 153.8431
0.816201 89.685 153.6345
0.822116 89.649 153.4224
0.828073 89.612 153.2066
0.834074 89.574 152.9873
0.840118 89.536 152.7643
0.846206 89.498 152.5377
0.852338 89.459 152.3075
0.858514 89.419 152.0738
0.864735 89.378 151.8365
0.871001 89.337 151.5957
0.877313 89.295 151.3513
0.883670 89.252 151.1035
0.890074 89.209 150.8523
0.896524 89.164 150.5977
0.903020 89.119 150.3398
0.909564 89.073 150.0787
0.916155 89.026 149.8143
0.922794 88.978 149.5469
0.929481 88.929 149.2764
0.936216 88.879 149.0030
0.943000 88.828 148.7268
0.949834 88.776 148.4479
0.956717 88.722 148.1664
0.963649 88.668 147.8826
0.970632 88.612 147.5964
0.977666 88.555 147.3082
0.984750 88.497 147.0180
0.991886 88.437 146.7261
0.999074 88.376 146.4328
1.006314 88.313 146.1381
1.013606 88.249 145.8425
1.020951 88.183 145.5461
1.028349 88.116 145.2493
1.035801 88.047 144.9523
1.043307 87.976 144.6556
1.050867 87.904 144.3594
1.058482 87.830 144.0640
1.066152 87.754 143.7699
1.073878 87.676 143.4772
1.081660 87.597 143.1862
1.089498 87.516 142.8968
1.097393 87.434 142.6090
1.105345 87.351 142.3223
1.113355 87.268 142.0365
1.121423 87.185 141.7508
1.129549 87.102 141.4651
1.137734 87.020 141.1789
1.145979 86.937 140.8920
1.154283 86.855 140.6042
1.162647 86.772 140.3153
1.171072 86.690 140.0251
1.179558 86.607 139.7334
1.188106 86.523 139.4402
1.196715 86.438 139.1451
1.205387 86.351 138.8481
1.214122 86.264 138.5490
1.222920 86.174 138.2476
1.231782 86.083 137.9436
1.240708 85.989 137.6369
1.249699 85.892 137.3272
1.258754 85.792 137.0143
1.267876 85.688 136.6980
1.277063 85.581 136.3780
1.286318 85.470 136.0540
1.295639 85.354 135.7258
1.305027 85.233 135.3929
1.314484 85.107 135.0552
1.324009 84.975 134.7123
1.333604 84.837 134.3637
1.343268 84.692 134.0092
1.353002 84.539 133.6483
1.362806 84.379 133.2805
1.372681 84.211 132.9055
1.382628 84.034 132.5228
1.392647 83.848 132.1319
1.402739 83.652 131.7321
1.412904 83.445 131.3232
1.423142 83.227 130.9043
1.433455 82.996 130.4750
1.443843 82.751 130.0346
1.454305 82.490 129.5825
1.464844 82.210 129.1181
1.475459 81.910 128.6404
1.486150 81.586 128.1487
1.496920 81.236 127.6418
1.507767 80.860 127.1185
1.518693 80.458 126.5773
1.529698 80.029 126.0166
1.540783 79.576 125.4344
1.551948 79.099 124.8287
1.563194 78.601 124.1969
1.574521 78.083 123.5363
1.585931 77.548 122.8436
1.597423 76.997 122.1152
1.608999 76.435 121.3467
1.620658 75.862 120.5332
1.632402 75.283 119.6687
1.644232 74.700 118.7463
1.656146 74.116 117.7578
1.668147 73.536 116.6931
1.680235 72.963 115.5404
1.692411 72.400 114.2849
1.704675 71.853 112.9087
1.717028 71.326 111.3895
1.729470 70.823 109.6991
1.742003 70.351 107.8021
1.754626 69.915 105.6528
1.767341 69.521 103.1920
1.780147 69.175 100.3420
1.793047 68.883 96.9999
1.806040 68.652 93.0284
1.819128 68.487 88.2446
1.832310 68.391 82.4097
1.845587 68.366 75.2304
1.858961 68.413 66.4004
1.872432 68.530 55.7316
1.886001 68.714 43.4021
1.899667 68.961 30.1749
1.913433 69.267 17.2413
1.927299 69.625 5.6499
1.941265 70.032 -4.1165
1.955332 70.481 -12.0850
1.969501 70.967 -18.5251
1.983773 71.485 -23.7509
1.998148 72.027 -28.0371
2.012627 72.589 -31.5999
2.027212 73.165 -34.6027
2.041902 73.749 -37.1674
2.056698 74.335 -39.3851
2.071602 74.916 -41.3242
2.086614 75.489 -43.0370
2.101734 76.046 -44.5635
2.116964 76.584 -45.9355
2.132304 77.098 -47.1782
2.147756 77.585 -48.3123
2.163320 78.043 -49.3556
2.178996 78.471 -50.3233
2.194786 78.871 -51.2295
2.210690 79.248 -52.0864
2.226710 79.605 -52.9044
2.242845 79.946 -53.6910
2.259098 80.274 -54.4516
2.275468 80.591 -55.1896
2.291957 80.898 -55.9071
2.308566 81.195 -56.6054
2.325295 81.485 -57.2851
2.342145 81.767 -57.9467
2.359117 82.041 -58.5902
2.376212 82.308 -59.2159
2.393431 82.568 -59.8236
2.410775 82.822 -60.4134
2.428244 83.071 -60.9851
2.445840 83.313 -61.5388
2.463564 83.551 -62.0744
2.481416 83.784 -62.5922
2.499397 84.012 -63.0926
2.517509 84.235 -63.5764
2.535752 84.454 -64.0451
2.554127 84.667 -64.5007
2.572635 84.874 -64.9459
2.591277 85.075 -65.3835
2.610055 85.267 -65.8158
2.628968 85.452 -66.2444
2.648019 85.628 -66.6700
2.667208 85.797 -67.0927
2.686535 85.958 -67.5124
2.706003 86.113 -67.9283
2.725612 86.261 -68.3398
2.745363 86.404 -68.7459
2.765257 86.542 -69.1459
2.785295 86.676 -69.5389
2.805478 86.806 -69.9239
2.825808 86.933 -70.3002
2.846285 87.059 -70.6671
2.866910 87.183 -71.0242
2.887685 87.306 -71.3715
2.908611 87.428 -71.7093
2.929688 87.548 -72.0386
2.950917 87.667 -72.3608
2.972301 87.782 -72.6771
2.993839 87.895 -72.9886
3.015534 88.005 -73.2960
3.037386 88.111 -73.5995
3.059396 88.213 -73.8989
3.081565 88.313 -74.1940
3.103896 88.410 -74.4841
3.126388 88.504 -74.7686
3.149043 88.597 -75.0470
3.171862 88.687 -75.3186
3.194847 88.776 -75.5826
3.217998 88.864 -75.8384
3.241317 88.951 -76.0856
3.264805 89.037 -76.3239
3.288463 89.123 -76.5530
3.312293 89.207 -76.7734
3.336295 89.290 -76.9854
3.360471 89.371 -77.1897
3.384822 89.451 -77.3869
3.409350 89.529 -77.5776
3.434056 89.605 -77.7625
3.458940 89.680 -77.9420
3.484005 89.754 -78.1168
3.509252 89.827 -78.2872
3.534681 89.899 -78.4538
3.560295 89.971 -78.6167
3.586094 90.042 -78.7763
3.612081 90.113 -78.9327
3.638255 90.184 -79.0858
3.664620 90.255 -79.2354
3.691175 90.326 -79.3813
3.717923 90.396 -79.5234
3.744864 90.466 -79.6619
3.772001 90.535 -79.7971
3.799335 90.604 -79.9296
3.826866 90.672 -80.0603
3.854597 90.740 -80.1899
3.882529 90.808 -80.3194
3.910664 90.876 -80.4495
3.939002 90.944 -80.5810
3.967546 91.011 -80.7145
3.996296 91.079 -80.8502
4.025255 91.147 -80.9881
4.054423 91.215 -81.1280
4.083804 91.283 -81.2698
4.113396 91.351 -81.4132
4.143204 91.418 -81.5587
4.173227 91.486 -81.7067
4.203468 91.554 -81.8580
4.233928 91.621 -82.0133
4.264609 91.688 -82.1735
4.295512 91.755 -82.3396
4.326639 91.821 -82.5122
4.357992 91.887 -82.6920
4.389572 91.953 -82.8791
4.421380 92.018 -83.0738
4.453419 92.083 -83.2758
4.485691 92.147 -83.4850
4.518196 92.211 -83.7012
4.550936 92.274 -83.9242
4.583914 92.337 -84.1540
4.617131 92.399 -84.3906
4.650589 92.460 -84.6341
4.684289 92.521 -84.8846
4.718233 92.580 -85.1423
4.752424 92.639 -85.4076
4.786862 92.696 -85.6805
4.821549 92.752 -85.9613
4.856488 92.807 -86.2497
4.891680 92.861 -86.5454
4.927127 92.914 -86.8480
4.962831 92.966 -87.1567
4.998794 93.017 -87.4709
5.035017 93.067 -87.7901
5.071503 93.115 -88.1141
5.108253 93.162 -88.4426
5.145270 93.208 -88.7758
5.182555 93.252 -89.1138
5.220110 93.295 -89.4567
5.257937 93.337 -89.8043
5.296038 93.377 -90.1561
5.334415 93.417 -90.5112
5.373071 93.455 -90.8691
5.412006 93.492 -91.2289
5.451224 93.528 -91.5902
5.490725 93.563 -91.9526
5.530514 93.597 -92.3163
5.570590 93.630 -92.6812
5.610957 93.662 -93.0476
5.651616 93.693 -93.4153
5.692570 93.724 -93.7841
5.733821 93.753 -94.1536
5.775370 93.782 -94.5235
5.817221 93.811 -94.8935
5.859375 93.840 -95.2632
5.901834 93.868 -95.6329
5.944602 93.896 -96.0024
5.987679 93.923 -96.3722
6.031068 93.951 -96.7427
6.074771 93.978 -97.1141
6.118792 94.005 -97.4867
6.163131 94.033 -97.8610
6.207792 94.061 -98.2369
6.252776 94.089 -98.6146
6.298086 94.118 -98.9943
6.343725 94.147 -99.3763
6.389694 94.176 -99.7609
6.435996 94.206 -100.1488
6.482634 94.236 -100.5405
6.529610 94.266 -100.9365
6.576926 94.298 -101.3374
6.624585 94.329 -101.7433
6.672590 94.361 -102.1544
6.720942 94.394 -102.5708
6.769645 94.427 -102.9928
6.818700 94.460 -103.4205
6.868111 94.494 -103.8542
6.917881 94.528 -104.2943
6.968010 94.562 -104.7409
7.018504 94.597 -105.1940
7.069362 94.631 -105.6536
7.120590 94.666 -106.1192
7.172189 94.701 -106.5906
7.224161 94.736 -107.0673
7.276511 94.770 -107.5489
7.329239 94.805 -108.0353
7.382350 94.839 -108.5261
7.435845 94.873 -109.0211
7.489729 94.907 -109.5197
7.544002 94.941 -110.0209
7.598669 94.974 -110.5242
7.653732 95.008 -111.0286
7.709194 95.041 -111.5337
7.765058 95.074 -112.0390
7.821327 95.106 -112.5442
7.878004 95.139 -113.0485
7.935091 95.171 -113.5514
7.992592 95.204 -114.0522
8.050510 95.236 -114.5502
8.108847 95.269 -115.0451
8.167607 95.301 -115.5366
8.226793 95.334 -116.0246
8.286408 95.367 -116.5089
8.346454 95.401 -116.9893
8.406936 95.434 -117.4656
8.467856 95.469 -117.9377
8.529218 95.504 -118.4058
8.591024 95.539 -118.8699
8.653278 95.575 -119.3303
8.715983 95.611 -119.7872
8.779143 95.648 -120.2410
8.842760 95.686 -120.6917
8.906839 95.724 -121.1395
8.971381 95.762 -121.5847
9.036392 95.801 -122.0276
9.101873 95.840 -122.4682
9.167829 95.880 -122.9070
9.234263 95.919 -123.3438
9.301178 95.959 -123.7787
9.368578 95.999 -124.2116
9.436467 96.039 -124.6424
9.504847 96.078 -125.0708
9.573723 96.117 -125.4967
9.643099 96.156 -125.9199
9.712976 96.194 -126.3398
9.783361 96.232 -126.7561
9.854255 96.269 -127.1682
9.925663 96.305 -127.5758
9.997588 96.341 -127.9784
10.070035 96.376 -128.3757
10.143007 96.411 -128.7672
10.216507 96.445 -129.1525
10.290540 96.478 -129.5313
10.365109 96.511 -129.9035
10.440219 96.543 -130.2691
10.515873 96.574 -130.6279
10.592076 96.605 -130.9802
10.668830 96.636 -131.3261
10.746141 96.666 -131.6658
10.824012 96.695 -131.9999
10.902447 96.725 -132.3288
10.981451 96.754 -132.6531
11.061027 96.783 -132.9734
11.141180 96.811 -133.2902
11.221913 96.839 -133.6042
11.303232 96.866 -133.9160
11.385140 96.893 -134.2264
11.467641 96.920 -134.5357
11.550741 96.945 -134.8444
11.634442 96.970 -135.1530
11.718750 96.994 -135.4616
11.803669 97.018 -135.7707
11.889203 97.040 -136.0803
11.975357 97.061 -136.3904
12.062136 97.081 -136.7011
12.149543 97.100 -137.0123
12.237583 97.117 -137.3238
12.326262 97.134 -137.6357
12.415583 97.149 -137.9477
12.505552 97.163 -138.2598
12.596172 97.176 -138.5719
12.687449 97.187 -138.8840
12.779387 97.198 -139.1962
12.871992 97.208 -139.5086
12.965268 97.216 -139.8213
13.059220 97.224 -140.1347
13.153852 97.231 -140.4490
13.249170 97.237 -140.7645
13.345179 97.243 -141.0817
13.441884 97.248 -141.4008
13.539289 97.252 -141.7223
13.637401 97.256 -142.0465
13.736223 97.259 -142.3737
13.835761 97.261 -142.7041
13.936021 97.263 -143.0380
14.037007 97.265 -143.3755
14.138725 97.266 -143.7167
14.241180 97.267 -144.0616
14.344377 97.267 -144.4101
14.448323 97.267 -144.7622
14.553021 97.267 -145.1179
14.658478 97.266 -145.4770
14.764700 97.265 -145.8395
14.871691 97.265 -146.2052
14.979457 97.264 -146.5740
15.088005 97.263 -146.9458
15.197339 97.262 -147.3206
15.307465 97.262 -147.6982
15.418389 97.261 -148.0784
15.530117 97.261 -148.4611
15.642655 97.262 -148.8460
15.756008 97.262 -149.2328
15.870182 97.263 -149.6213
15.985184 97.264 -150.0110
16.101019 97.265 -150.4016
16.217694 97.267 -150.7924
16.335214 97.269 -151.1831
16.453586 97.272 -151.5731
16.572815 97.275 -151.9619
16.692909 97.278 -152.3492
16.813872 97.282 -152.7344
16.935713 97.287 -153.1172
17.058436 97.291 -153.4973
17.182048 97.297 -153.8743
17.306556 97.302 -154.2481
17.431967 97.309 -154.6184
17.558286 97.315 -154.9851
17.685521 97.322 -155.3478
17.813677 97.329 -155.7066
17.942762 97.336 -156.0610
18.072783 97.343 -156.4109
18.203746 97.351 -156.7561
18.335658 97.358 -157.0964
18.468526 97.365 -157.4315
18.602356 97.372 -157.7613
18.737156 97.379 -158.0857
18.872934 97.385 -158.4046
19.009695 97.391 -158.7182
19.147447 97.396 -159.0264
19.286197 97.401 -159.3295
19.425953 97.406 -159.6278
19.566721 97.410 -159.9215
19.708510 97.413 -160.2109
19.851326 97.415 -160.4963
19.995177 97.417 -160.7782
20.140070 97.418 -161.0567
20.286013 97.418 -161.3323
20.433014 97.417 -161.6053
20.581080 97.416 -161.8760
20.730219 97.413 -162.1449
20.880439 97.410 -162.4123
21.031747 97.405 -162.6787
21.184152 97.400 -162.9448
21.337661 97.394 -163.2110
21.492282 97.388 -163.4779
21.648024 97.380 -163.7461
21.804895 97.372 -164.0161
21.962902 97.363 -164.2884
22.122054 97.354 -164.5634
22.282360 97.344 -164.8414
22.443827 97.334 -165.1227
22.606464 97.323 -165.4074
22.770280 97.312 -165.6957
22.935283 97.301 -165.9875
23.101481 97.289 -166.2829
23.268884 97.277 -166.5818
23.437500 97.265 -166.8842
23.607338 97.254 -167.1899
23.778406 97.242 -167.4987
23.950714 97.231 -167.8105
24.124271 97.220 -168.1250
24.299086 97.209 -168.4418
24.475167 97.199 -168.7605
24.652524 97.189 -169.0806
24.831166 97.179 -169.4015
25.011103 97.170 -169.7227
25.192344 97.161 -170.0433
25.374898 97.153 -170.3628
25.558775 97.145 -170.6804
25.743984 97.138 -170.9954
25.930536 97.130 -171.3072
26.118439 97.124 -171.6151
26.307704 97.117 -171.9187
26.498341 97.111 -172.2177
26.690359 97.105 -172.5117
26.883768 97.099 -172.8008
27.078579 97.094 -173.0849
27.274801 97.088 -173.3641
27.472446 97.083 -173.6387
27.671522 97.077 -173.9087
27.872042 97.071 -174.1743
28.074014 97.064 -174.4358
28.277450 97.057 -174.6932
28.482360 97.049 -174.9468
28.688755 97.041 -175.1968
28.896645 97.032 -175.4436
29.106042 97.023 -175.6877
29.316957 97.012 -175.9296
29.529400 97.001 -176.1701
29.743382 96.990 -176.4097
29.958915 96.977 -176.6492
30.176009 96.964 -176.8891
30.394677 96.951 -177.1299
30.614929 96.936 -177.3720
30.836778 96.922 -177.6157
31.060234 96.906 -177.8613
31.285309 96.891 -178.1091
31.512015 96.875 -178.3595
31.740364 96.859 -178.6127
31.970368 96.843 -178.8689
32.202039 96.827 -179.1282
32.435388 96.812 -179.3907
32.670428 96.796 -179.6564
32.907171 96.781 -179.9249
33.145630 96.765 179.8040
33.385817 96.750 179.5309
33.627745 96.735 179.2567
33.871425 96.720 178.9820
34.116871 96.705 178.7080
34.364096 96.690 178.4359
34.613113 96.675 178.1666
34.863934 96.660 177.9011
35.116572 96.645 177.6402
35.371041 96.630 177.3841
35.627354 96.615 177.1329
35.885525 96.601 176.8863
36.145566 96.586 176.6439
36.407492 96.572 176.4050
36.671316 96.557 176.1693
36.937051 96.542 175.9365
37.204712 96.526 175.7066
37.474313 96.511 175.4794
37.745867 96.494 175.2549
38.019389 96.477 175.0329
38.294893 96.460 174.8129
38.572394 96.443 174.5943
38.851905 96.425 174.3765
39.133442 96.406 174.1588
39.417019 96.388 173.9404
39.702651 96.369 173.7210
39.990353 96.350 173.5003
40.280140 96.331 173.2783
40.572026 96.311 173.0551
40.866028 96.291 172.8311
41.162160 96.271 172.6066
41.460438 96.250 172.3824
41.760877 96.229 172.1594
42.063494 96.209 171.9384
42.368303 96.188 171.7198
42.675322 96.168 171.5039
42.984565 96.147 171.2906
43.296048 96.128 171.0791
43.609789 96.108 170.8687
43.925804 96.089 170.6588
44.244108 96.070 170.4488
44.564719 96.050 170.2390
44.887654 96.031 170.0297
45.212928 96.011 169.8215
45.540560 95.990 169.6146
45.870565 95.970 169.4092
46.202962 95.949 169.2051
46.537768 95.927 169.0023
46.875000 95.906 168.8005
47.214676 95.884 168.6000
47.556813 95.861 168.4008
47.901429 95.839 168.2033
48.248542 95.816 168.0079
48.598171 95.793 167.8147
48.950334 95.770 167.6240
49.305048 95.747 167.4357
49.662333 95.724 167.2495
50.022206 95.701 167.0650
50.384688 95.678 166.8818
50.749796 95.655 166.6996
51.117550 95.632 166.5186
51.487969 95.608 166.3392
51.861072 95.585 166.1622
52.236879 95.561 165.9880
52.615409 95.536 165.8173
52.996681 95.512 165.6500
53.380717 95.488 165.4860
53.767536 95.463 165.3247
54.157158 95.440 165.1652
54.549603 95.416 165.0063
54.944892 95.393 164.8469
55.343045 95.370 164.6857
55.744084 95.348 164.5219
56.148028 95.326 164.3550
56.554900 95.304 164.1854
56.964720 95.282 164.0132
57.377510 95.259 163.8388
57.793291 95.237 163.6627
58.212085 95.214 163.4851
58.633914 95.191 163.3073
59.058799 95.167 163.1303
59.486764 95.143 162.9558
59.917829 95.118 162.7845
60.352019 95.092 162.6169
60.789354 95.066 162.4526
61.229859 95.039 162.2911
61.673556 95.012 162.1320
62.120468 94.984 161.9750
62.570618 94.957 161.8202
63.024031 94.928 161.6673
63.480729 94.900 161.5163
63.940736 94.871 161.3669
64.404077 94.843 161.2194
64.870776 94.814 161.0734
65.340856 94.786 160.9289
65.814343 94.757 160.7858
66.291261 94.729 160.6443
66.771635 94.701 160.5044
67.255489 94.673 160.3667
67.742850 94.645 160.2314
68.233743 94.617 160.0987
68.728193 94.588 159.9686
69.226226 94.560 159.8411
69.727867 94.531 159.7164
70.233144 94.502 159.5942
70.742083 94.473 159.4742
71.254709 94.444 159.3557
71.771050 94.415 159.2381
72.291132 94.386 159.1212
72.814984 94.357 159.0047
73.342631 94.328 158.8889
73.874102 94.300 158.7736
74.409424 94.271 158.6589
74.948626 94.243 158.5450
75.491734 94.215 158.4318
76.038779 94.187 158.3196
76.589787 94.158 158.2085
77.144788 94.130 158.0985
77.703811 94.102 157.9896
78.266885 94.075 157.8816
78.834039 94.047 157.7731
79.405303 94.020 157.6621
79.980706 93.994 157.5461
80.560280 93.967 157.4233
81.144053 93.940 157.2935
81.732056 93.912 157.1573
82.324320 93.882 157.0162
82.920876 93.852 156.8726
83.521755 93.819 156.7294
84.126988 93.784 156.5898
84.736607 93.748 156.4567
85.350643 93.711 156.3322
85.969129 93.672 156.2175
86.592097 93.633 156.1131
87.219579 93.594 156.0190
