* Measurement data measured by REW V5.31
* Source: EXCL: Microphone (USB Sound Device        ), MICROPHONE (Master Volume), L, volume: 0.390
* Format: 256k Log Swept Sine, 1 sweep at -4.0 dBFS with no timing reference
* Dated: Jul 21, 2024 12:03:39 AM
* REW Settings:
*  C-weighting compensation: Off
*  Target level: 75.0 dB
* Note: Tinhifi Dudu L
* Measurement: L Tinhifi Dudu
* Smoothing: 1/12 octave
* Frequency Step: 96 ppo
* Start Frequency: 0.36621094 Hz
*
* Freq(Hz) SPL(dB) Phase(degrees)
0.366211 82.134 167.1718
0.368865 82.132 167.1582
0.371538 82.129 167.1378
0.374230 82.125 167.1123
0.376942 82.121 167.0829
0.379673 82.116 167.0508
0.382424 82.111 167.0164
0.385196 82.106 166.9804
0.387987 82.101 166.9428
0.390798 82.096 166.9038
0.393630 82.091 166.8635
0.396483 82.085 166.8219
0.399356 82.080 166.7790
0.402250 82.075 166.7348
0.405165 82.069 166.6893
0.408101 82.064 166.6425
0.411058 82.059 166.5943
0.414037 82.053 166.5449
0.417037 82.047 166.4940
0.420059 82.042 166.4419
0.423103 82.036 166.3884
0.426169 82.031 166.3335
0.429257 82.025 166.2772
0.432368 82.019 166.2195
0.435501 82.013 166.1604
0.438656 82.007 166.1000
0.441835 82.002 166.0381
0.445037 81.996 165.9748
0.448262 81.990 165.9100
0.451510 81.984 165.8439
0.454782 81.978 165.7763
0.458077 81.972 165.7072
0.461397 81.965 165.6367
0.464740 81.959 165.5647
0.468108 81.953 165.4913
0.471500 81.947 165.4164
0.474917 81.940 165.3401
0.478358 81.934 165.2622
0.481825 81.928 165.1829
0.485316 81.921 165.1021
0.488833 81.915 165.0199
0.492375 81.908 164.9361
0.495943 81.902 164.8509
0.499537 81.895 164.7643
0.503157 81.888 164.6761
0.506803 81.881 164.5865
0.510475 81.875 164.4954
0.514175 81.868 164.4029
0.517900 81.861 164.3089
0.521653 81.854 164.2134
0.525434 81.847 164.1165
0.529241 81.840 164.0182
0.533076 81.833 163.9185
0.536939 81.826 163.8174
0.540830 81.818 163.7148
0.544749 81.811 163.6109
0.548696 81.804 163.5056
0.552673 81.797 163.3990
0.556677 81.789 163.2910
0.560711 81.782 163.1818
0.564774 81.774 163.0712
0.568867 81.767 162.9594
0.572989 81.759 162.8463
0.577141 81.751 162.7320
0.581324 81.744 162.6166
0.585536 81.736 162.5000
0.589779 81.728 162.3822
0.594053 81.720 162.2634
0.598358 81.712 162.1434
0.602694 81.704 162.0225
0.607061 81.696 161.9006
0.611460 81.688 161.7778
0.615891 81.680 161.6541
0.620354 81.671 161.5295
0.624849 81.663 161.4042
0.629377 81.655 161.2781
0.633938 81.646 161.1513
0.638532 81.638 161.0239
0.643159 81.629 160.8960
0.647819 81.621 160.7675
0.652514 81.612 160.6387
0.657242 81.603 160.5094
0.662005 81.594 160.3799
0.666802 81.585 160.2502
0.671634 81.577 160.1204
0.676501 81.568 159.9905
0.681403 81.558 159.8607
0.686341 81.549 159.7310
0.691314 81.540 159.6015
0.696324 81.531 159.4724
0.701370 81.521 159.3437
0.706452 81.512 159.2154
0.711571 81.502 159.0877
0.716728 81.493 158.9605
0.721921 81.483 158.8337
0.727153 81.472 158.7072
0.732422 81.461 158.5806
0.737729 81.450 158.4537
0.743075 81.439 158.3260
0.748460 81.427 158.1972
0.753883 81.414 158.0670
0.759346 81.401 157.9352
0.764849 81.389 157.8019
0.770391 81.375 157.6668
0.775974 81.362 157.5300
0.781597 81.348 157.3915
0.787261 81.334 157.2513
0.792966 81.320 157.1094
0.798712 81.306 156.9658
0.804500 81.291 156.8205
0.810329 81.277 156.6735
0.816201 81.262 156.5250
0.822116 81.246 156.3748
0.828073 81.231 156.2230
0.834074 81.215 156.0697
0.840118 81.200 155.9149
0.846206 81.184 155.7586
0.852338 81.167 155.6009
0.858514 81.151 155.4419
0.864735 81.134 155.2815
0.871001 81.118 155.1198
0.877313 81.101 154.9569
0.883670 81.083 154.7928
0.890074 81.066 154.6276
0.896524 81.049 154.4614
0.903020 81.031 154.2943
0.909564 81.013 154.1262
0.916155 80.995 153.9574
0.922794 80.977 153.7878
0.929481 80.958 153.6176
0.936216 80.940 153.4470
0.943000 80.921 153.2759
0.949834 80.902 153.1045
0.956717 80.883 152.9329
0.963649 80.864 152.7612
0.970632 80.845 152.5897
0.977666 80.825 152.4183
0.984750 80.806 152.2473
0.991886 80.786 152.0768
0.999074 80.767 151.9070
1.006314 80.747 151.7380
1.013606 80.727 151.5700
1.020951 80.707 151.4033
1.028349 80.687 151.2380
1.035801 80.667 151.0744
1.043307 80.647 150.9128
1.050867 80.626 150.7537
1.058482 80.606 150.5974
1.066152 80.586 150.4448
1.073878 80.566 150.2968
1.081660 80.545 150.1546
1.089498 80.525 150.0199
1.097393 80.504 149.8937
1.105345 80.484 149.7767
1.113355 80.463 149.6677
1.121423 80.442 149.5649
1.129549 80.421 149.4663
1.137734 80.399 149.3703
1.145979 80.377 149.2758
1.154283 80.355 149.1819
1.162647 80.332 149.0883
1.171072 80.310 148.9946
1.179558 80.287 148.9009
1.188106 80.264 148.8070
1.196715 80.240 148.7129
1.205387 80.217 148.6187
1.214122 80.193 148.5243
1.222920 80.170 148.4297
1.231782 80.146 148.3351
1.240708 80.121 148.2404
1.249699 80.097 148.1457
1.258754 80.073 148.0510
1.267876 80.049 147.9564
1.277063 80.025 147.8619
1.286318 80.000 147.7676
1.295639 79.976 147.6734
1.305027 79.952 147.5795
1.314484 79.928 147.4859
1.324009 79.904 147.3927
1.333604 79.880 147.2999
1.343268 79.857 147.2076
1.353002 79.833 147.1159
1.362806 79.810 147.0247
1.372681 79.787 146.9342
1.382628 79.765 146.8446
1.392647 79.743 146.7557
1.402739 79.721 146.6677
1.412904 79.700 146.5807
1.423142 79.679 146.4948
1.433455 79.659 146.4100
1.443843 79.639 146.3265
1.454305 79.620 146.2442
1.464844 79.601 146.1633
1.475459 79.583 146.0838
1.486150 79.565 146.0058
1.496920 79.547 145.9293
1.507767 79.530 145.8544
1.518693 79.513 145.7810
1.529698 79.496 145.7093
1.540783 79.480 145.6393
1.551948 79.463 145.5711
1.563194 79.448 145.5046
1.574521 79.432 145.4400
1.585931 79.417 145.3773
1.597423 79.402 145.3165
1.608999 79.388 145.2576
1.620658 79.375 145.2008
1.632402 79.362 145.1461
1.644232 79.349 145.0935
1.656146 79.337 145.0430
1.668147 79.326 144.9947
1.680235 79.316 144.9486
1.692411 79.306 144.9047
1.704675 79.297 144.8632
1.717028 79.289 144.8239
1.729470 79.281 144.7868
1.742003 79.275 144.7520
1.754626 79.270 144.7191
1.767341 79.265 144.6879
1.780147 79.262 144.6578
1.793047 79.260 144.6279
1.806040 79.259 144.5971
1.819128 79.259 144.5637
1.832310 79.261 144.5266
1.845587 79.263 144.4850
1.858961 79.268 144.4398
1.872432 79.273 144.3923
1.886001 79.280 144.3437
1.899667 79.288 144.2949
1.913433 79.298 144.2464
1.927299 79.308 144.1981
1.941265 79.320 144.1499
1.955332 79.334 144.1013
1.969501 79.349 144.0520
1.983773 79.364 144.0013
1.998148 79.382 143.9486
2.012627 79.400 143.8932
2.027212 79.419 143.8345
2.041902 79.440 143.7717
2.056698 79.462 143.7040
2.071602 79.485 143.6308
2.086614 79.508 143.5513
2.101734 79.533 143.4647
2.116964 79.559 143.3703
2.132304 79.586 143.2675
2.147756 79.614 143.1557
2.163320 79.642 143.0347
2.178996 79.672 142.9043
2.194786 79.703 142.7650
2.210690 79.735 142.6173
2.226710 79.769 142.4619
2.242845 79.804 142.2997
2.259098 79.840 142.1309
2.275468 79.878 141.9557
2.291957 79.918 141.7742
2.308566 79.959 141.5863
2.325295 80.001 141.3918
2.342145 80.045 141.1902
2.359117 80.090 140.9814
2.376212 80.136 140.7650
2.393431 80.183 140.5406
2.410775 80.231 140.3078
2.428244 80.280 140.0662
2.445840 80.330 139.8154
2.463564 80.380 139.5549
2.481416 80.431 139.2844
2.499397 80.482 139.0033
2.517509 80.533 138.7114
2.535752 80.585 138.4082
2.554127 80.638 138.0936
2.572635 80.690 137.7675
2.591277 80.744 137.4300
2.610055 80.798 137.0813
2.628968 80.853 136.7219
2.648019 80.909 136.3520
2.667208 80.965 135.9722
2.686535 81.022 135.5828
2.706003 81.081 135.1843
2.725612 81.139 134.7771
2.745363 81.198 134.3616
2.765257 81.258 133.9382
2.785295 81.318 133.5071
2.805478 81.378 133.0688
2.825808 81.439 132.6234
2.846285 81.499 132.1710
2.866910 81.560 131.7117
2.887685 81.621 131.2454
2.908611 81.681 130.7719
2.929688 81.742 130.2906
2.950917 81.802 129.8011
2.972301 81.863 129.3031
2.993839 81.924 128.7963
3.015534 81.984 128.2810
3.037386 82.045 127.7576
3.059396 82.106 127.2266
3.081565 82.168 126.6887
3.103896 82.229 126.1446
3.126388 82.290 125.5951
3.149043 82.351 125.0409
3.171862 82.413 124.4826
3.194847 82.474 123.9207
3.217998 82.535 123.3559
3.241317 82.596 122.7881
3.264805 82.657 122.2173
3.288463 82.717 121.6432
3.312293 82.778 121.0651
3.336295 82.838 120.4824
3.360471 82.898 119.8946
3.384822 82.957 119.3018
3.409350 83.017 118.7044
3.434056 83.076 118.1030
3.458940 83.135 117.4987
3.484005 83.194 116.8923
3.509252 83.253 116.2850
3.534681 83.312 115.6778
3.560295 83.371 115.0717
3.586094 83.430 114.4674
3.612081 83.488 113.8656
3.638255 83.547 113.2664
3.664620 83.605 112.6696
3.691175 83.663 112.0746
3.717923 83.721 111.4809
3.744864 83.779 110.8881
3.772001 83.837 110.2962
3.799335 83.895 109.7054
3.826866 83.952 109.1159
3.854597 84.010 108.5286
3.882529 84.067 107.9438
3.910664 84.125 107.3625
3.939002 84.183 106.7851
3.967546 84.241 106.2123
3.996296 84.299 105.6443
4.025255 84.357 105.0813
4.054423 84.415 104.5232
4.083804 84.474 103.9697
4.113396 84.533 103.4205
4.143204 84.592 102.8756
4.173227 84.651 102.3348
4.203468 84.710 101.7983
4.233928 84.770 101.2660
4.264609 84.830 100.7383
4.295512 84.890 100.2154
4.326639 84.951 99.6974
4.357992 85.012 99.1847
4.389572 85.074 98.6774
4.421380 85.136 98.1757
4.453419 85.199 97.6793
4.485691 85.263 97.1883
4.518196 85.326 96.7023
4.550936 85.391 96.2209
4.583914 85.456 95.7439
4.617131 85.521 95.2708
4.650589 85.587 94.8012
4.684289 85.653 94.3349
4.718233 85.720 93.8717
4.752424 85.788 93.4117
4.786862 85.856 92.9548
4.821549 85.925 92.5012
4.856488 85.994 92.0506
4.891680 86.064 91.6031
4.927127 86.135 91.1582
4.962831 86.205 90.7157
4.998794 86.277 90.2749
5.035017 86.348 89.8355
5.071503 86.420 89.3971
5.108253 86.492 88.9595
5.145270 86.565 88.5225
5.182555 86.637 88.0862
5.220110 86.710 87.6506
5.257937 86.783 87.2158
5.296038 86.857 86.7816
5.334415 86.930 86.3481
5.373071 87.003 85.9151
5.412006 87.076 85.4825
5.451224 87.149 85.0500
5.490725 87.222 84.6176
5.530514 87.294 84.1850
5.570590 87.366 83.7524
5.610957 87.438 83.3198
5.651616 87.509 82.8874
5.692570 87.580 82.4557
5.733821 87.650 82.0248
5.775370 87.720 81.5950
5.817221 87.789 81.1665
5.859375 87.858 80.7391
5.901834 87.925 80.3130
5.944602 87.993 79.8880
5.987679 88.059 79.4644
6.031068 88.124 79.0425
6.074771 88.189 78.6227
6.118792 88.253 78.2056
6.163131 88.316 77.7913
6.207792 88.379 77.3803
6.252776 88.440 76.9726
6.298086 88.501 76.5681
6.343725 88.561 76.1669
6.389694 88.620 75.7691
6.435996 88.679 75.3748
6.482634 88.737 74.9845
6.529610 88.794 74.5982
6.576926 88.850 74.2163
6.624585 88.906 73.8387
6.672590 88.961 73.4653
6.720942 89.015 73.0960
6.769645 89.069 72.7307
6.818700 89.123 72.3692
6.868111 89.176 72.0115
6.917881 89.228 71.6573
6.968010 89.280 71.3067
7.018504 89.332 70.9595
7.069362 89.384 70.6154
7.120590 89.435 70.2741
7.172189 89.485 69.9353
7.224161 89.536 69.5984
7.276511 89.586 69.2632
7.329239 89.636 68.9293
7.382350 89.685 68.5964
7.435845 89.734 68.2644
7.489729 89.783 67.9328
7.544002 89.831 67.6014
7.598669 89.879 67.2697
7.653732 89.927 66.9373
7.709194 89.974 66.6040
7.765058 90.021 66.2695
7.821327 90.067 65.9337
7.878004 90.113 65.5964
7.935091 90.158 65.2577
7.992592 90.202 64.9172
8.050510 90.245 64.5749
8.108847 90.288 64.2308
8.167607 90.330 63.8848
8.226793 90.372 63.5369
8.286408 90.412 63.1874
8.346454 90.452 62.8364
8.406936 90.490 62.4840
8.467856 90.528 62.1303
8.529218 90.565 61.7755
8.591024 90.601 61.4196
8.653278 90.636 61.0628
8.715983 90.670 60.7055
8.779143 90.704 60.3479
8.842760 90.736 59.9900
8.906839 90.768 59.6319
8.971381 90.799 59.2736
9.036392 90.829 58.9154
9.101873 90.859 58.5572
9.167829 90.888 58.1991
9.234263 90.916 57.8410
9.301178 90.944 57.4830
9.368578 90.972 57.1247
9.436467 90.999 56.7661
9.504847 91.026 56.4071
9.573723 91.052 56.0474
9.643099 91.077 55.6869
9.712976 91.101 55.3252
9.783361 91.124 54.9623
9.854255 91.144 54.5977
9.925663 91.162 54.2313
9.997588 91.178 53.8628
10.070035 91.192 53.4922
10.143007 91.203 53.1191
10.216507 91.213 52.7435
10.290540 91.221 52.3652
10.365109 91.227 51.9842
10.440219 91.233 51.6004
10.515873 91.238 51.2140
10.592076 91.242 50.8249
10.668830 91.246 50.4333
10.746141 91.250 50.0393
10.824012 91.254 49.6430
10.902447 91.257 49.2447
10.981451 91.260 48.8447
11.061027 91.263 48.4431
11.141180 91.266 48.0402
11.221913 91.268 47.6362
11.303232 91.271 47.2314
11.385140 91.273 46.8260
11.467641 91.276 46.4202
11.550741 91.279 46.0142
11.634442 91.282 45.6080
11.718750 91.285 45.2020
11.803669 91.289 44.7960
11.889203 91.293 44.3904
11.975357 91.298 43.9850
12.062136 91.304 43.5800
12.149543 91.310 43.1753
12.237583 91.317 42.7711
12.326262 91.324 42.3673
12.415583 91.332 41.9641
12.505552 91.339 41.5614
12.596172 91.347 41.1594
12.687449 91.355 40.7582
12.779387 91.363 40.3579
12.871992 91.371 39.9587
12.965268 91.379 39.5608
13.059220 91.387 39.1645
13.153852 91.396 38.7700
13.249170 91.404 38.3776
13.345179 91.413 37.9876
13.441884 91.422 37.6003
13.539289 91.431 37.2160
13.637401 91.441 36.8349
13.736223 91.450 36.4573
13.835761 91.460 36.0834
13.936021 91.469 35.7133
14.037007 91.478 35.3472
14.138725 91.487 34.9851
14.241180 91.496 34.6269
14.344377 91.505 34.2726
14.448323 91.514 33.9221
14.553021 91.522 33.5751
14.658478 91.531 33.2314
14.764700 91.539 32.8906
14.871691 91.547 32.5525
14.979457 91.555 32.2165
15.088005 91.564 31.8825
15.197339 91.572 31.5501
15.307465 91.579 31.2188
15.418389 91.587 30.8886
15.530117 91.594 30.5592
15.642655 91.600 30.2304
15.756008 91.606 29.9023
15.870182 91.611 29.5747
15.985184 91.615 29.2479
16.101019 91.618 28.9220
16.217694 91.620 28.5971
16.335214 91.622 28.2734
16.453586 91.623 27.9512
16.572815 91.623 27.6306
16.692909 91.622 27.3117
16.813872 91.622 26.9946
16.935713 91.620 26.6792
17.058436 91.619 26.3654
17.182048 91.618 26.0528
17.306556 91.616 25.7410
17.431967 91.614 25.4297
17.558286 91.612 25.1183
17.685521 91.609 24.8061
17.813677 91.607 24.4927
17.942762 91.604 24.1775
18.072783 91.601 23.8600
18.203746 91.598 23.5398
18.335658 91.594 23.2168
18.468526 91.591 22.8907
18.602356 91.587 22.5616
18.737156 91.583 22.2295
18.872934 91.579 21.8948
19.009695 91.575 21.5576
19.147447 91.571 21.2182
19.286197 91.568 20.8772
19.425953 91.564 20.5347
19.566721 91.560 20.1911
19.708510 91.556 19.8467
19.851326 91.552 19.5017
19.995177 91.547 19.1566
20.140070 91.543 18.8113
20.286013 91.539 18.4663
20.433014 91.536 18.1218
20.581080 91.532 17.7781
20.730219 91.528 17.4354
20.880439 91.525 17.0940
21.031747 91.522 16.7543
21.184152 91.519 16.4166
21.337661 91.517 16.0810
21.492282 91.516 15.7477
21.648024 91.514 15.4169
21.804895 91.513 15.0887
21.962902 91.512 14.7631
22.122054 91.511 14.4404
22.282360 91.510 14.1205
22.443827 91.509 13.8039
22.606464 91.508 13.4907
22.770280 91.507 13.1813
22.935283 91.505 12.8763
23.101481 91.503 12.5758
23.268884 91.500 12.2801
23.437500 91.498 11.9894
23.607338 91.495 11.7036
23.778406 91.491 11.4221
23.950714 91.488 11.1443
24.124271 91.484 10.8693
24.299086 91.480 10.5961
24.475167 91.475 10.3236
24.652524 91.470 10.0508
24.831166 91.465 9.7769
25.011103 91.459 9.5016
25.192344 91.453 9.2246
25.374898 91.445 8.9461
25.558775 91.437 8.6665
25.743984 91.428 8.3866
25.930536 91.417 8.1070
26.118439 91.406 7.8281
26.307704 91.394 7.5505
26.498341 91.381 7.2741
26.690359 91.368 6.9989
26.883768 91.355 6.7243
27.078579 91.342 6.4498
27.274801 91.328 6.1748
27.472446 91.315 5.8985
27.671522 91.301 5.6206
27.872042 91.288 5.3407
28.074014 91.274 5.0590
28.277450 91.261 4.7757
28.482360 91.247 4.4910
28.688755 91.233 4.2056
28.896645 91.219 3.9199
29.106042 91.206 3.6344
29.316957 91.192 3.3495
29.529400 91.179 3.0654
29.743382 91.166 2.7823
29.958915 91.153 2.5002
30.176009 91.141 2.2192
30.394677 91.129 1.9394
30.614929 91.118 1.6607
30.836778 91.107 1.3832
31.060234 91.095 1.1072
31.285309 91.084 0.8326
31.512015 91.073 0.5595
31.740364 91.062 0.2879
31.970368 91.050 0.0179
32.202039 91.038 -0.2506
32.435388 91.026 -0.5175
32.670428 91.013 -0.7829
32.907171 91.000 -1.0464
33.145630 90.986 -1.3077
33.385817 90.971 -1.5667
33.627745 90.955 -1.8232
33.871425 90.940 -2.0769
34.116871 90.923 -2.3281
34.364096 90.906 -2.5773
34.613113 90.889 -2.8247
34.863934 90.872 -3.0710
35.116572 90.854 -3.3166
35.371041 90.835 -3.5617
35.627354 90.817 -3.8064
35.885525 90.797 -4.0504
36.145566 90.778 -4.2939
36.407492 90.759 -4.5369
36.671316 90.739 -4.7797
36.937051 90.719 -5.0226
37.204712 90.700 -5.2660
37.474313 90.680 -5.5097
37.745867 90.660 -5.7531
38.019389 90.640 -5.9953
38.294893 90.620 -6.2352
38.572394 90.599 -6.4720
38.851905 90.579 -6.7056
39.133442 90.560 -6.9366
39.417019 90.540 -7.1664
39.702651 90.521 -7.3962
39.990353 90.502 -7.6267
40.280140 90.483 -7.8578
40.572026 90.463 -8.0880
40.866028 90.442 -8.3157
41.162160 90.421 -8.5393
41.460438 90.400 -8.7585
41.760877 90.378 -8.9739
42.063494 90.357 -9.1874
42.368303 90.335 -9.4004
42.675322 90.313 -9.6137
42.984565 90.289 -9.8266
43.296048 90.265 -10.0373
43.609789 90.240 -10.2441
43.925804 90.214 -10.4460
44.244108 90.189 -10.6434
44.564719 90.163 -10.8380
44.887654 90.137 -11.0311
45.212928 90.111 -11.2236
45.540560 90.084 -11.4150
45.870565 90.058 -11.6043
46.202962 90.032 -11.7912
46.537768 90.006 -11.9765
46.875000 89.981 -12.1630
47.214676 89.957 -12.3538
47.556813 89.933 -12.5515
47.901429 89.909 -12.7565
48.248542 89.884 -12.9672
48.598171 89.859 -13.1802
48.950334 89.832 -13.3918
49.305048 89.804 -13.5988
49.662333 89.776 -13.7991
50.022206 89.748 -13.9921
50.384688 89.720 -14.1784
50.749796 89.694 -14.3599
51.117550 89.667 -14.5391
51.487969 89.642 -14.7184
51.861072 89.617 -14.8992
52.236879 89.592 -15.0812
52.615409 89.566 -15.2626
52.996681 89.540 -15.4410
53.380717 89.514 -15.6143
53.767536 89.487 -15.7818
54.157158 89.461 -15.9440
54.549603 89.435 -16.1023
54.944892 89.410 -16.2584
55.343045 89.384 -16.4136
55.744084 89.359 -16.5691
56.148028 89.334 -16.7256
56.554900 89.308 -16.8836
56.964720 89.283 -17.0439
57.377510 89.257 -17.2072
57.793291 89.230 -17.3738
58.212085 89.203 -17.5433
58.633914 89.175 -17.7143
59.058799 89.146 -17.8843
59.486764 89.116 -18.0509
59.917829 89.085 -18.2129
60.352019 89.054 -18.3705
60.789354 89.023 -18.5250
61.229859 88.992 -18.6779
61.673556 88.961 -18.8299
62.120468 88.929 -18.9816
62.570618 88.897 -19.1328
63.024031 88.865 -19.2835
63.480729 88.833 -19.4332
63.940736 88.800 -19.5814
64.404077 88.767 -19.7275
64.870776 88.733 -19.8712
65.340856 88.700 -20.0118
65.814343 88.666 -20.1482
66.291261 88.632 -20.2785
66.771635 88.597 -20.4012
67.255489 88.563 -20.5160
67.742850 88.530 -20.6237
68.233743 88.496 -20.7255
68.728193 88.463 -20.8222
69.226226 88.429 -20.9138
69.727867 88.394 -20.9997
70.233144 88.359 -21.0803
70.742083 88.324 -21.1575
71.254709 88.288 -21.2345
71.771050 88.252 -21.3154
72.291132 88.214 -21.4033
72.814984 88.175 -21.4996
73.342631 88.134 -21.6016
73.874102 88.092 -21.7026
74.409424 88.050 -21.7963
74.948626 88.009 -21.8817
75.491734 87.972 -21.9667
76.038779 87.940 -22.0631
76.589787 87.911 -22.1782
77.144788 87.883 -22.3105
77.703811 87.857 -22.4523
78.266885 87.831 -22.5959
78.834039 87.806 -22.7361
79.405303 87.781 -22.8691
79.980706 87.756 -22.9921
80.560280 87.731 -23.1050
81.144053 87.705 -23.2109
81.732056 87.678 -23.3146
82.324320 87.649 -23.4194
82.920876 87.617 -23.5259
83.521755 87.582 -23.6321
84.126988 87.544 -23.7358
84.736607 87.503 -23.8358
85.350643 87.462 -23.9323
85.969129 87.419 -24.0259
86.592097 87.376 -24.1166
87.219579 87.333 -24.2039
87.851608 87.290 -24.2867
88.488217 87.248 -24.3635
89.129439 87.207 -24.4322
89.775308 87.167 -24.4897
90.425856 87.128 -24.5333
91.081119 87.090 -24.5642
91.741131 87.054 -24.5886
92.405925 87.018 -24.6139
93.075536 86.982 -24.6428
93.750000 86.944 -24.6725
94.429351 86.903 -24.6983
95.113625 86.862 -24.7179
95.802858 86.819 -24.7312
96.497085 86.776 -24.7386
97.196342 86.733 -24.7408
97.900667 86.692 -24.7399
98.610096 86.652 -24.7382
99.324665 86.615 -24.7386
100.044413 86.580 -24.7427
100.769376 86.547 -24.7506
101.499592 86.515 -24.7599
102.235100 86.483 -24.7684
