* Measurement data measured by REW V5.31
* Source: EXCL: Microphone (USB Sound Device        ), MICROPHONE (Master Volume), L, volume: 0.390
* Format: 256k Log Swept Sine, 1 sweep at -4.0 dBFS with no timing reference
* Dated: Jul 27, 2024 12:34:15 AM
* REW Settings:
*  C-weighting compensation: Off
*  Target level: 75.0 dB
* Note: TRN VX PRO Plus L
* Measurement: L TRN VX Pro+
* Smoothing: 1/12 octave
* Frequency Step: 96 ppo
* Start Frequency: 0.36621094 Hz
*
* Freq(Hz) SPL(dB) Phase(degrees)
0.366211 78.878 -167.5842
0.368865 78.886 -167.5951
0.371538 78.898 -167.6113
0.374230 78.913 -167.6313
0.376942 78.929 -167.6538
0.379673 78.946 -167.6780
0.382424 78.965 -167.7031
0.385196 78.984 -167.7289
0.387987 79.003 -167.7552
0.390798 79.022 -167.7818
0.393630 79.042 -167.8087
0.396483 79.061 -167.8358
0.399356 79.081 -167.8631
0.402250 79.101 -167.8907
0.405165 79.121 -167.9185
0.408101 79.142 -167.9465
0.411058 79.162 -167.9749
0.414037 79.183 -168.0034
0.417037 79.204 -168.0323
0.420059 79.224 -168.0615
0.423103 79.246 -168.0909
0.426169 79.267 -168.1207
0.429257 79.288 -168.1508
0.432368 79.310 -168.1813
0.435501 79.331 -168.2121
0.438656 79.353 -168.2432
0.441835 79.375 -168.2748
0.445037 79.397 -168.3067
0.448262 79.420 -168.3391
0.451510 79.442 -168.3719
0.454782 79.465 -168.4051
0.458077 79.488 -168.4388
0.461397 79.511 -168.4730
0.464740 79.534 -168.5077
0.468108 79.557 -168.5429
0.471500 79.581 -168.5786
0.474917 79.604 -168.6149
0.478358 79.628 -168.6518
0.481825 79.652 -168.6893
0.485316 79.676 -168.7274
0.488833 79.701 -168.7661
0.492375 79.725 -168.8055
0.495943 79.750 -168.8455
0.499537 79.775 -168.8863
0.503157 79.800 -168.9278
0.506803 79.825 -168.9701
0.510475 79.850 -169.0132
0.514175 79.876 -169.0571
0.517900 79.902 -169.1018
0.521653 79.928 -169.1474
0.525434 79.954 -169.1939
0.529241 79.980 -169.2413
0.533076 80.007 -169.2897
0.536939 80.033 -169.3391
0.540830 80.060 -169.3895
0.544749 80.088 -169.4409
0.548696 80.115 -169.4935
0.552673 80.142 -169.5471
0.556677 80.170 -169.6020
0.560711 80.198 -169.6580
0.564774 80.226 -169.7153
0.568867 80.254 -169.7739
0.572989 80.283 -169.8338
0.577141 80.312 -169.8951
0.581324 80.341 -169.9577
0.585536 80.370 -170.0218
0.589779 80.399 -170.0874
0.594053 80.429 -170.1546
0.598358 80.459 -170.2233
0.602694 80.489 -170.2937
0.607061 80.519 -170.3658
0.611460 80.549 -170.4397
0.615891 80.580 -170.5153
0.620354 80.611 -170.5928
0.624849 80.642 -170.6723
0.629377 80.673 -170.7537
0.633938 80.705 -170.8371
0.638532 80.737 -170.9227
0.643159 80.769 -171.0104
0.647819 80.801 -171.1003
0.652514 80.834 -171.1926
0.657242 80.866 -171.2873
0.662005 80.899 -171.3844
0.666802 80.932 -171.4841
0.671634 80.966 -171.5863
0.676501 81.000 -171.6913
0.681403 81.033 -171.7991
0.686341 81.068 -171.9097
0.691314 81.102 -172.0234
0.696324 81.137 -172.1400
0.701370 81.171 -172.2599
0.706452 81.206 -172.3830
0.711571 81.241 -172.5095
0.716728 81.276 -172.6395
0.721921 81.311 -172.7730
0.727153 81.345 -172.9101
0.732422 81.378 -173.0510
0.737729 81.410 -173.1956
0.743075 81.442 -173.3440
0.748460 81.473 -173.4962
0.753883 81.504 -173.6521
0.759346 81.534 -173.8118
0.764849 81.564 -173.9752
0.770391 81.594 -174.1422
0.775974 81.624 -174.3128
0.781597 81.654 -174.4870
0.787261 81.684 -174.6648
0.792966 81.714 -174.8460
0.798712 81.744 -175.0307
0.804500 81.773 -175.2187
0.810329 81.803 -175.4101
0.816201 81.833 -175.6048
0.822116 81.863 -175.8028
0.828073 81.893 -176.0039
0.834074 81.922 -176.2082
0.840118 81.952 -176.4156
0.846206 81.982 -176.6260
0.852338 82.012 -176.8394
0.858514 82.041 -177.0557
0.864735 82.071 -177.2749
0.871001 82.100 -177.4969
0.877313 82.129 -177.7217
0.883670 82.159 -177.9492
0.890074 82.188 -178.1795
0.896524 82.217 -178.4123
0.903020 82.246 -178.6477
0.909564 82.275 -178.8856
0.916155 82.304 -179.1260
0.922794 82.333 -179.3688
0.929481 82.361 -179.6140
0.936216 82.390 -179.8615
0.943000 82.418 179.8887
0.949834 82.446 179.6366
0.956717 82.474 179.3824
0.963649 82.502 179.1259
0.970632 82.530 178.8673
0.977666 82.558 178.6066
0.984750 82.585 178.3438
0.991886 82.612 178.0789
0.999074 82.639 177.8121
1.006314 82.666 177.5432
1.013606 82.693 177.2723
1.020951 82.719 176.9995
1.028349 82.746 176.7246
1.035801 82.772 176.4478
1.043307 82.797 176.1689
1.050867 82.823 175.8880
1.058482 82.848 175.6049
1.066152 82.873 175.3196
1.073878 82.897 175.0318
1.081660 82.922 174.7411
1.089498 82.946 174.4470
1.097393 82.969 174.1488
1.105345 82.993 173.8456
1.113355 83.016 173.5365
1.121423 83.038 173.2209
1.129549 83.060 172.8983
1.137734 83.082 172.5685
1.145979 83.104 172.2314
1.154283 83.125 171.8869
1.162647 83.145 171.5353
1.171072 83.165 171.1766
1.179558 83.185 170.8110
1.188106 83.204 170.4388
1.196715 83.223 170.0602
1.205387 83.241 169.6754
1.214122 83.259 169.2848
1.222920 83.277 168.8885
1.231782 83.294 168.4869
1.240708 83.311 168.0802
1.249699 83.327 167.6688
1.258754 83.342 167.2530
1.267876 83.357 166.8332
1.277063 83.372 166.4097
1.286318 83.386 165.9828
1.295639 83.400 165.5531
1.305027 83.413 165.1208
1.314484 83.426 164.6865
1.324009 83.438 164.2505
1.333604 83.450 163.8134
1.343268 83.461 163.3754
1.353002 83.472 162.9373
1.362806 83.482 162.4995
1.372681 83.492 162.0624
1.382628 83.501 161.6267
1.392647 83.510 161.1928
1.402739 83.518 160.7613
1.412904 83.526 160.3325
1.423142 83.533 159.9069
1.433455 83.539 159.4845
1.443843 83.545 159.0652
1.454305 83.550 158.6486
1.464844 83.555 158.2335
1.475459 83.559 157.8187
1.486150 83.562 157.4028
1.496920 83.565 156.9846
1.507767 83.566 156.5633
1.518693 83.567 156.1384
1.529698 83.566 155.7095
1.540783 83.565 155.2768
1.551948 83.563 154.8403
1.563194 83.560 154.4001
1.574521 83.557 153.9565
1.585931 83.552 153.5097
1.597423 83.546 153.0602
1.608999 83.540 152.6082
1.620658 83.533 152.1541
1.632402 83.525 151.6984
1.644232 83.516 151.2414
1.656146 83.507 150.7838
1.668147 83.496 150.3259
1.680235 83.485 149.8683
1.692411 83.473 149.4118
1.704675 83.461 148.9568
1.717028 83.448 148.5040
1.729470 83.434 148.0542
1.742003 83.419 147.6080
1.754626 83.404 147.1662
1.767341 83.388 146.7295
1.780147 83.372 146.2985
1.793047 83.354 145.8737
1.806040 83.337 145.4553
1.819128 83.318 145.0432
1.832310 83.298 144.6370
1.845587 83.278 144.2358
1.858961 83.256 143.8385
1.872432 83.233 143.4443
1.886001 83.208 143.0527
1.899667 83.182 142.6632
1.913433 83.155 142.2758
1.927299 83.126 141.8906
1.941265 83.097 141.5076
1.955332 83.066 141.1272
1.969501 83.034 140.7498
1.983773 83.001 140.3758
1.998148 82.968 140.0057
2.012627 82.934 139.6401
2.027212 82.900 139.2796
2.041902 82.865 138.9250
2.056698 82.830 138.5770
2.071602 82.795 138.2366
2.086614 82.760 137.9046
2.101734 82.726 137.5822
2.116964 82.692 137.2704
2.132304 82.658 136.9703
2.147756 82.625 136.6833
2.163320 82.593 136.4107
2.178996 82.561 136.1536
2.194786 82.530 135.9132
2.210690 82.499 135.6905
2.226710 82.468 135.4861
2.242845 82.436 135.3005
2.259098 82.404 135.1337
2.275468 82.371 134.9854
2.291957 82.339 134.8552
2.308566 82.306 134.7427
2.325295 82.273 134.6473
2.342145 82.241 134.5683
2.359117 82.210 134.5049
2.376212 82.180 134.4562
2.393431 82.151 134.4216
2.410775 82.124 134.4000
2.428244 82.099 134.3904
2.445840 82.077 134.3920
2.463564 82.057 134.4038
2.481416 82.041 134.4249
2.499397 82.029 134.4550
2.517509 82.021 134.4939
2.535752 82.016 134.5424
2.554127 82.017 134.6021
2.572635 82.021 134.6753
2.591277 82.030 134.7645
2.610055 82.044 134.8716
2.628968 82.061 134.9971
2.648019 82.083 135.1404
2.667208 82.108 135.2998
2.686535 82.138 135.4727
2.706003 82.171 135.6559
2.725612 82.208 135.8460
2.745363 82.249 136.0391
2.765257 82.293 136.2313
2.785295 82.341 136.4186
2.805478 82.393 136.5972
2.825808 82.448 136.7631
2.846285 82.507 136.9130
2.866910 82.570 137.0443
2.887685 82.636 137.1549
2.908611 82.707 137.2446
2.929688 82.782 137.3143
2.950917 82.861 137.3662
2.972301 82.946 137.4026
2.993839 83.036 137.4254
3.015534 83.131 137.4352
3.037386 83.230 137.4318
3.059396 83.335 137.4142
3.081565 83.442 137.3809
3.103896 83.554 137.3303
3.126388 83.668 137.2604
3.149043 83.784 137.1693
3.171862 83.901 137.0551
3.194847 84.020 136.9160
3.217998 84.139 136.7503
3.241317 84.258 136.5568
3.264805 84.377 136.3347
3.288463 84.495 136.0838
3.312293 84.614 135.8047
3.336295 84.733 135.4986
3.360471 84.853 135.1671
3.384822 84.974 134.8119
3.409350 85.095 134.4350
3.434056 85.217 134.0381
3.458940 85.339 133.6226
3.484005 85.461 133.1901
3.509252 85.583 132.7417
3.534681 85.703 132.2783
3.560295 85.823 131.8005
3.586094 85.940 131.3084
3.612081 86.056 130.8018
3.638255 86.170 130.2799
3.664620 86.281 129.7414
3.691175 86.390 129.1853
3.717923 86.497 128.6111
3.744864 86.602 128.0193
3.772001 86.706 127.4117
3.799335 86.807 126.7906
3.826866 86.906 126.1591
3.854597 87.003 125.5201
3.882529 87.099 124.8769
3.910664 87.192 124.2321
3.939002 87.283 123.5881
3.967546 87.371 122.9462
3.996296 87.457 122.3067
4.025255 87.541 121.6689
4.054423 87.622 121.0312
4.083804 87.700 120.3919
4.113396 87.776 119.7503
4.143204 87.849 119.1069
4.173227 87.919 118.4632
4.203468 87.987 117.8216
4.233928 88.053 117.1852
4.264609 88.117 116.5569
4.295512 88.180 115.9397
4.326639 88.240 115.3360
4.357992 88.299 114.7474
4.389572 88.357 114.1743
4.421380 88.412 113.6163
4.453419 88.466 113.0721
4.485691 88.517 112.5410
4.518196 88.567 112.0224
4.550936 88.616 111.5167
4.583914 88.664 111.0248
4.617131 88.711 110.5480
4.650589 88.757 110.0878
4.684289 88.804 109.6459
4.718233 88.851 109.2236
4.752424 88.898 108.8222
4.786862 88.946 108.4421
4.821549 88.994 108.0832
4.856488 89.043 107.7445
4.891680 89.092 107.4248
4.927127 89.142 107.1224
4.962831 89.193 106.8356
4.998794 89.246 106.5629
5.035017 89.300 106.3031
5.071503 89.357 106.0553
5.108253 89.416 105.8193
5.145270 89.478 105.5952
5.182555 89.543 105.3832
5.220110 89.610 105.1826
5.257937 89.679 104.9918
5.296038 89.751 104.8083
5.334415 89.825 104.6289
5.373071 89.902 104.4505
5.412006 89.981 104.2703
5.451224 90.062 104.0860
5.490725 90.146 103.8965
5.530514 90.232 103.7015
5.570590 90.321 103.5009
5.610957 90.411 103.2944
5.651616 90.504 103.0811
5.692570 90.598 102.8599
5.733821 90.692 102.6288
5.775370 90.788 102.3864
5.817221 90.884 102.1312
5.859375 90.980 101.8622
5.901834 91.077 101.5795
5.944602 91.173 101.2833
5.987679 91.269 100.9745
6.031068 91.364 100.6544
6.074771 91.459 100.3239
6.118792 91.553 99.9839
6.163131 91.645 99.6349
6.207792 91.736 99.2774
6.252776 91.824 98.9114
6.298086 91.911 98.5375
6.343725 91.996 98.1567
6.389694 92.078 97.7706
6.435996 92.159 97.3815
6.482634 92.238 96.9917
6.529610 92.314 96.6030
6.576926 92.388 96.2169
6.624585 92.460 95.8341
6.672590 92.529 95.4551
6.720942 92.597 95.0805
6.769645 92.662 94.7114
6.818700 92.726 94.3494
6.868111 92.788 93.9961
6.917881 92.849 93.6528
6.968010 92.908 93.3206
7.018504 92.967 92.9997
7.069362 93.024 92.6901
7.120590 93.081 92.3914
7.172189 93.137 92.1032
7.224161 93.193 91.8253
7.276511 93.250 91.5576
7.329239 93.306 91.2997
7.382350 93.364 91.0514
7.435845 93.421 90.8117
7.489729 93.480 90.5794
7.544002 93.539 90.3527
7.598669 93.599 90.1297
7.653732 93.660 89.9090
7.709194 93.722 89.6892
7.765058 93.785 89.4694
7.821327 93.849 89.2486
7.878004 93.914 89.0253
7.935091 93.980 88.7981
7.992592 94.046 88.5654
8.050510 94.112 88.3260
8.108847 94.179 88.0792
8.167607 94.245 87.8246
8.226793 94.312 87.5620
8.286408 94.378 87.2914
8.346454 94.444 87.0129
8.406936 94.508 86.7263
8.467856 94.572 86.4319
8.529218 94.635 86.1302
8.591024 94.696 85.8218
8.653278 94.756 85.5081
8.715983 94.814 85.1901
8.779143 94.871 84.8688
8.842760 94.927 84.5452
8.906839 94.981 84.2200
8.971381 95.033 83.8942
9.036392 95.084 83.5689
9.101873 95.134 83.2451
9.167829 95.182 82.9237
9.234263 95.230 82.6053
9.301178 95.277 82.2899
9.368578 95.323 81.9779
9.436467 95.368 81.6692
9.504847 95.413 81.3638
9.573723 95.458 81.0615
9.643099 95.502 80.7618
9.712976 95.545 80.4641
9.783361 95.587 80.1674
9.854255 95.627 79.8709
9.925663 95.665 79.5737
9.997588 95.702 79.2749
10.070035 95.737 78.9738
10.143007 95.770 78.6694
10.216507 95.802 78.3610
10.290540 95.832 78.0478
10.365109 95.862 77.7293
10.440219 95.890 77.4055
10.515873 95.918 77.0760
10.592076 95.945 76.7411
10.668830 95.972 76.4007
10.746141 95.998 76.0551
10.824012 96.024 75.7050
10.902447 96.048 75.3510
10.981451 96.073 74.9937
11.061027 96.096 74.6337
11.141180 96.119 74.2717
11.221913 96.142 73.9083
11.303232 96.164 73.5441
11.385140 96.186 73.1797
11.467641 96.207 72.8155
11.550741 96.228 72.4515
11.634442 96.250 72.0880
11.718750 96.272 71.7248
11.803669 96.294 71.3620
11.889203 96.317 70.9993
11.975357 96.340 70.6363
12.062136 96.364 70.2728
12.149543 96.389 69.9084
12.237583 96.414 69.5428
12.326262 96.440 69.1758
12.415583 96.465 68.8073
12.505552 96.491 68.4373
12.596172 96.517 68.0657
12.687449 96.543 67.6929
12.779387 96.568 67.3191
12.871992 96.594 66.9449
12.965268 96.619 66.5706
13.059220 96.644 66.1969
13.153852 96.669 65.8243
13.249170 96.694 65.4532
13.345179 96.719 65.0843
13.441884 96.744 64.7176
13.539289 96.770 64.3536
13.637401 96.796 63.9922
13.736223 96.822 63.6335
13.835761 96.848 63.2772
13.936021 96.874 62.9232
14.037007 96.901 62.5709
14.138725 96.928 62.2202
14.241180 96.954 61.8705
14.344377 96.981 61.5215
14.448323 97.008 61.1730
14.553021 97.034 60.8248
14.658478 97.060 60.4769
14.764700 97.086 60.1293
14.871691 97.111 59.7823
14.979457 97.136 59.4361
15.088005 97.161 59.0912
15.197339 97.185 58.7478
15.307465 97.209 58.4066
15.418389 97.232 58.0676
15.530117 97.254 57.7312
15.642655 97.276 57.3975
15.756008 97.298 57.0664
15.870182 97.319 56.7377
15.985184 97.340 56.4113
16.101019 97.360 56.0865
16.217694 97.380 55.7629
16.335214 97.399 55.4402
16.453586 97.419 55.1176
16.572815 97.438 54.7950
16.692909 97.456 54.4719
16.813872 97.475 54.1482
16.935713 97.493 53.8237
17.058436 97.510 53.4986
17.182048 97.527 53.1730
17.306556 97.544 52.8471
17.431967 97.560 52.5211
17.558286 97.575 52.1954
17.685521 97.589 51.8700
17.813677 97.603 51.5450
17.942762 97.616 51.2205
18.072783 97.629 50.8963
18.203746 97.641 50.5723
18.335658 97.653 50.2482
18.468526 97.665 49.9238
18.602356 97.677 49.5988
18.737156 97.688 49.2728
18.872934 97.700 48.9456
19.009695 97.711 48.6170
19.147447 97.723 48.2869
19.286197 97.735 47.9550
19.425953 97.746 47.6215
19.566721 97.758 47.2861
19.708510 97.770 46.9489
19.851326 97.781 46.6098
19.995177 97.792 46.2689
20.140070 97.803 45.9263
20.286013 97.814 45.5822
20.433014 97.825 45.2368
20.581080 97.835 44.8904
20.730219 97.846 44.5435
20.880439 97.856 44.1966
21.031747 97.866 43.8501
21.184152 97.877 43.5046
21.337661 97.887 43.1604
21.492282 97.898 42.8180
21.648024 97.909 42.4773
21.804895 97.920 42.1384
21.962902 97.931 41.8011
22.122054 97.943 41.4654
22.282360 97.954 41.1308
22.443827 97.966 40.7973
22.606464 97.977 40.4649
22.770280 97.988 40.1334
22.935283 97.999 39.8033
23.101481 98.010 39.4747
23.268884 98.020 39.1481
23.437500 98.030 38.8239
23.607338 98.039 38.5024
23.778406 98.048 38.1838
23.950714 98.056 37.8679
24.124271 98.064 37.5547
24.299086 98.072 37.2437
24.475167 98.079 36.9345
24.652524 98.085 36.6268
24.831166 98.092 36.3201
25.011103 98.097 36.0142
25.192344 98.103 35.7090
25.374898 98.108 35.4044
25.558775 98.112 35.1004
25.743984 98.115 34.7971
25.930536 98.119 34.4943
26.118439 98.121 34.1920
26.307704 98.124 33.8898
26.498341 98.126 33.5876
26.690359 98.127 33.2851
26.883768 98.128 32.9821
27.078579 98.129 32.6783
27.274801 98.129 32.3740
27.472446 98.129 32.0691
27.671522 98.129 31.7639
27.872042 98.128 31.4585
28.074014 98.128 31.1530
28.277450 98.127 30.8475
28.482360 98.125 30.5421
28.688755 98.124 30.2364
28.896645 98.123 29.9306
29.106042 98.122 29.6244
29.316957 98.121 29.3180
29.529400 98.120 29.0115
29.743382 98.119 28.7049
29.958915 98.118 28.3986
30.176009 98.118 28.0927
30.394677 98.117 27.7875
30.614929 98.117 27.4832
30.836778 98.117 27.1797
31.060234 98.117 26.8774
31.285309 98.117 26.5760
31.512015 98.117 26.2756
31.740364 98.117 25.9764
31.970368 98.116 25.6782
32.202039 98.116 25.3812
32.435388 98.115 25.0857
32.670428 98.113 24.7919
32.907171 98.112 24.4999
33.145630 98.110 24.2098
33.385817 98.108 23.9217
33.627745 98.106 23.6351
33.871425 98.103 23.3496
34.116871 98.101 23.0645
34.364096 98.098 22.7794
34.613113 98.095 22.4938
34.863934 98.091 22.2076
35.116572 98.087 21.9211
35.371041 98.083 21.6345
35.627354 98.078 21.3484
35.885525 98.072 21.0629
36.145566 98.066 20.7780
36.407492 98.060 20.4938
36.671316 98.054 20.2100
36.937051 98.047 19.9266
37.204712 98.040 19.6440
37.474313 98.033 19.3627
37.745867 98.026 19.0834
38.019389 98.018 18.8066
38.294893 98.010 18.5330
38.572394 98.003 18.2624
38.851905 97.995 17.9948
39.133442 97.987 17.7300
39.417019 97.980 17.4677
39.702651 97.973 17.2079
39.990353 97.966 16.9507
40.280140 97.959 16.6960
40.572026 97.953 16.4435
40.866028 97.946 16.1925
41.162160 97.940 15.9418
41.460438 97.935 15.6902
41.760877 97.929 15.4367
42.063494 97.924 15.1809
42.368303 97.918 14.9229
42.675322 97.912 14.6634
42.984565 97.905 14.4031
43.296048 97.897 14.1425
43.609789 97.890 13.8822
43.925804 97.882 13.6221
44.244108 97.873 13.3624
44.564719 97.864 13.1033
44.887654 97.855 12.8451
45.212928 97.846 12.5882
45.540560 97.836 12.3328
45.870565 97.827 12.0788
46.202962 97.817 11.8259
46.537768 97.808 11.5737
46.875000 97.799 11.3221
47.214676 97.789 11.0710
47.556813 97.780 10.8210
47.901429 97.770 10.5723
48.248542 97.761 10.3251
48.598171 97.751 10.0793
48.950334 97.742 9.8346
49.305048 97.732 9.5906
49.662333 97.722 9.3472
50.022206 97.712 9.1043
50.384688 97.702 8.8621
50.749796 97.692 8.6208
51.117550 97.681 8.3808
51.487969 97.670 8.1423
51.861072 97.659 7.9056
52.236879 97.648 7.6711
52.615409 97.637 7.4390
52.996681 97.626 7.2088
53.380717 97.615 6.9805
53.767536 97.605 6.7536
54.157158 97.595 6.5278
54.549603 97.586 6.3026
54.944892 97.576 6.0776
55.343045 97.568 5.8522
55.744084 97.559 5.6257
56.148028 97.551 5.3976
56.554900 97.542 5.1674
56.964720 97.534 4.9351
57.377510 97.525 4.7006
57.793291 97.516 4.4646
58.212085 97.506 4.2275
58.633914 97.496 3.9900
59.058799 97.485 3.7521
59.486764 97.473 3.5142
59.917829 97.461 3.2767
60.352019 97.448 3.0400
60.789354 97.434 2.8051
61.229859 97.420 2.5724
61.673556 97.406 2.3424
62.120468 97.391 2.1152
62.570618 97.376 1.8906
63.024031 97.361 1.6683
63.480729 97.345 1.4481
63.940736 97.330 1.2297
64.404077 97.315 1.0129
64.870776 97.300 0.7972
65.340856 97.284 0.5824
65.814343 97.269 0.3682
66.291261 97.253 0.1545
66.771635 97.238 -0.0582
67.255489 97.222 -0.2700
67.742850 97.206 -0.4807
68.233743 97.189 -0.6900
68.728193 97.173 -0.8981
69.226226 97.157 -1.1050
69.727867 97.141 -1.3109
70.233144 97.125 -1.5159
70.742083 97.109 -1.7201
71.254709 97.093 -1.9232
71.771050 97.077 -2.1253
72.291132 97.061 -2.3259
72.814984 97.044 -2.5247
73.342631 97.028 -2.7217
73.874102 97.012 -2.9167
74.409424 96.996 -3.1104
74.948626 96.980 -3.3031
75.491734 96.964 -3.4955
76.038779 96.949 -3.6879
76.589787 96.934 -3.8810
77.144788 96.919 -4.0753
77.703811 96.904 -4.2715
78.266885 96.889 -4.4702
78.834039 96.875 -4.6721
79.405303 96.860 -4.8781
79.980706 96.845 -5.0890
80.560280 96.830 -5.3059
81.144053 96.815 -5.5291
81.732056 96.798 -5.7581
82.324320 96.781 -5.9918
82.920876 96.762 -6.2280
83.521755 96.741 -6.4640
84.126988 96.719 -6.6966
84.736607 96.696 -6.9229
85.350643 96.671 -7.1407
85.969129 96.647 -7.3491
86.592097 96.622 -7.5476
87.219579 96.597 -7.7368
87.851608 96.572 -7.9179
88.488217 96.547 -8.0922
89.129439 96.523 -8.2614
89.775308 96.499 -8.4266
90.425856 96.476 -8.5894
91.081119 96.453 -8.7502
91.741131 96.431 -8.9097
92.405925 96.408 -9.0679
93.075536 96.386 -9.2251
93.750000 96.364 -9.3816
94.429351 96.342 -9.5370
95.113625 96.320 -9.6915
95.802858 96.297 -9.8447
96.497085 96.275 -9.9966
97.196342 96.252 -10.1472
97.900667 96.228 -10.2963
98.610096 96.205 -10.4440
99.324665 96.181 -10.5898
100.044413 96.157 -10.7332
