* Measurement data measured by REW V5.31
* Source: EXCL: Microphone (USB Sound Device        ), MICROPHONE (Master Volume), L, volume: 0.560
* Format: 256k Log Swept Sine, 1 sweep at -5.0 dBFS with no timing reference
* Dated: May 27, 2024 3:13:19 PM
* REW Settings:
*  C-weighting compensation: Off
*  Target level: 75.0 dB
* Note: TRN Medusa L
* Measurement: L TRN Medusa
* Smoothing: 1/12 octave
* Frequency Step: 96 ppo
* Start Frequency: 0.36621094 Hz
*
* Freq(Hz) SPL(dB) Phase(degrees)
0.366211 79.675 173.7148
0.368865 79.672 173.7032
0.371538 79.668 173.6859
0.374230 79.663 173.6643
0.376942 79.658 173.6395
0.379673 79.652 173.6125
0.382424 79.646 173.5837
0.385196 79.639 173.5536
0.387987 79.633 173.5223
0.390798 79.626 173.4899
0.393630 79.620 173.4565
0.396483 79.613 173.4221
0.399356 79.606 173.3868
0.402250 79.599 173.3504
0.405165 79.593 173.3131
0.408101 79.586 173.2748
0.411058 79.579 173.2354
0.414037 79.572 173.1951
0.417037 79.565 173.1537
0.420059 79.558 173.1113
0.423103 79.550 173.0678
0.426169 79.543 173.0233
0.429257 79.536 172.9778
0.432368 79.529 172.9311
0.435501 79.521 172.8834
0.438656 79.514 172.8345
0.441835 79.507 172.7846
0.445037 79.499 172.7335
0.448262 79.492 172.6814
0.451510 79.484 172.6280
0.454782 79.476 172.5736
0.458077 79.469 172.5180
0.461397 79.461 172.4612
0.464740 79.453 172.4033
0.468108 79.445 172.3441
0.471500 79.437 172.2838
0.474917 79.429 172.2223
0.478358 79.421 172.1596
0.481825 79.413 172.0957
0.485316 79.405 172.0305
0.488833 79.396 171.9642
0.492375 79.388 171.8965
0.495943 79.380 171.8277
0.499537 79.371 171.7576
0.503157 79.363 171.6862
0.506803 79.354 171.6135
0.510475 79.346 171.5396
0.514175 79.337 171.4644
0.517900 79.328 171.3879
0.521653 79.320 171.3101
0.525434 79.311 171.2310
0.529241 79.302 171.1506
0.533076 79.293 171.0689
0.536939 79.284 170.9859
0.540830 79.275 170.9016
0.544749 79.265 170.8159
0.548696 79.256 170.7289
0.552673 79.247 170.6405
0.556677 79.237 170.5508
0.560711 79.228 170.4598
0.564774 79.218 170.3675
0.568867 79.209 170.2738
0.572989 79.199 170.1787
0.577141 79.189 170.0823
0.581324 79.180 169.9845
0.585536 79.170 169.8854
0.589779 79.160 169.7849
0.594053 79.150 169.6831
0.598358 79.140 169.5799
0.602694 79.130 169.4753
0.607061 79.119 169.3695
0.611460 79.109 169.2622
0.615891 79.099 169.1536
0.620354 79.088 169.0437
0.624849 79.078 168.9324
0.629377 79.067 168.8198
0.633938 79.056 168.7058
0.638532 79.046 168.5905
0.643159 79.035 168.4739
0.647819 79.024 168.3560
0.652514 79.013 168.2368
0.657242 79.002 168.1162
0.662005 78.991 167.9944
0.666802 78.979 167.8713
0.671634 78.968 167.7469
0.676501 78.957 167.6212
0.681403 78.945 167.4943
0.686341 78.934 167.3661
0.691314 78.922 167.2367
0.696324 78.910 167.1060
0.701370 78.898 166.9741
0.706452 78.886 166.8410
0.711571 78.873 166.7065
0.716728 78.860 166.5706
0.721921 78.846 166.4331
0.727153 78.831 166.2939
0.732422 78.814 166.1524
0.737729 78.796 166.0084
0.743075 78.776 165.8613
0.748460 78.755 165.7109
0.753883 78.733 165.5568
0.759346 78.711 165.3989
0.764849 78.688 165.2370
0.770391 78.664 165.0710
0.775974 78.641 164.9009
0.781597 78.617 164.7266
0.787261 78.592 164.5480
0.792966 78.567 164.3653
0.798712 78.542 164.1782
0.804500 78.517 163.9869
0.810329 78.491 163.7913
0.816201 78.465 163.5914
0.822116 78.438 163.3871
0.828073 78.411 163.1785
0.834074 78.384 162.9655
0.840118 78.356 162.7481
0.846206 78.327 162.5264
0.852338 78.298 162.3002
0.858514 78.268 162.0697
0.864735 78.238 161.8347
0.871001 78.207 161.5954
0.877313 78.175 161.3517
0.883670 78.143 161.1035
0.890074 78.109 160.8510
0.896524 78.075 160.5941
0.903020 78.041 160.3329
0.909564 78.005 160.0673
0.916155 77.968 159.7973
0.922794 77.930 159.5231
0.929481 77.892 159.2445
0.936216 77.852 158.9617
0.943000 77.811 158.6746
0.949834 77.769 158.3833
0.956717 77.725 158.0879
0.963649 77.681 157.7883
0.970632 77.635 157.4847
0.977666 77.588 157.1770
0.984750 77.539 156.8654
0.991886 77.489 156.5498
0.999074 77.437 156.2304
1.006314 77.384 155.9071
1.013606 77.328 155.5802
1.020951 77.272 155.2496
1.028349 77.213 154.9154
1.035801 77.152 154.5777
1.043307 77.090 154.2366
1.050867 77.025 153.8920
1.058482 76.958 153.5441
1.066152 76.889 153.1928
1.073878 76.817 152.8378
1.081660 76.743 152.4787
1.089498 76.666 152.1150
1.097393 76.586 151.7456
1.105345 76.503 151.3693
1.113355 76.416 150.9847
1.121423 76.326 150.5905
1.129549 76.231 150.1857
1.137734 76.133 149.7693
1.145979 76.030 149.3407
1.154283 75.924 148.8993
1.162647 75.814 148.4445
1.171072 75.700 147.9759
1.179558 75.582 147.4929
1.188106 75.461 146.9951
1.196715 75.337 146.4819
1.205387 75.209 145.9528
1.214122 75.079 145.4072
1.222920 74.946 144.8446
1.231782 74.810 144.2644
1.240708 74.672 143.6658
1.249699 74.531 143.0482
1.258754 74.388 142.4110
1.267876 74.244 141.7532
1.277063 74.098 141.0742
1.286318 73.951 140.3731
1.295639 73.803 139.6490
1.305027 73.654 138.9009
1.314484 73.504 138.1279
1.324009 73.354 137.3288
1.333604 73.205 136.5026
1.343268 73.055 135.6479
1.353002 72.907 134.7637
1.362806 72.760 133.8483
1.372681 72.614 132.9004
1.382628 72.470 131.9183
1.392647 72.328 130.9003
1.402739 72.189 129.8442
1.412904 72.052 128.7479
1.423142 71.919 127.6085
1.433455 71.789 126.4226
1.443843 71.662 125.1858
1.454305 71.538 123.8924
1.464844 71.415 122.5351
1.475459 71.293 121.1051
1.486150 71.171 119.5925
1.496920 71.048 117.9871
1.507767 70.923 116.2787
1.518693 70.796 114.4570
1.529698 70.668 112.5118
1.540783 70.538 110.4326
1.551948 70.406 108.2090
1.563194 70.275 105.8307
1.574521 70.143 103.2875
1.585931 70.013 100.5698
1.597423 69.884 97.6693
1.608999 69.757 94.5796
1.620658 69.634 91.2968
1.632402 69.514 87.8208
1.644232 69.399 84.1560
1.656146 69.290 80.3126
1.668147 69.188 76.3065
1.680235 69.094 72.1605
1.692411 69.009 67.9035
1.704675 68.933 63.5694
1.717028 68.869 59.1961
1.729470 68.817 54.8226
1.742003 68.779 50.4874
1.754626 68.757 46.2254
1.767341 68.750 42.0670
1.780147 68.762 38.0360
1.793047 68.794 34.1491
1.806040 68.847 30.4166
1.819128 68.924 26.8422
1.832310 69.025 23.4252
1.845587 69.153 20.1619
1.858961 69.309 17.0481
1.872432 69.492 14.0796
1.886001 69.701 11.2530
1.899667 69.937 8.5646
1.913433 70.197 6.0106
1.927299 70.479 3.5862
1.941265 70.782 1.2865
1.955332 71.103 -0.8943
1.969501 71.440 -2.9623
1.983773 71.790 -4.9238
1.998148 72.152 -6.7851
2.012627 72.523 -8.5526
2.027212 72.899 -10.2324
2.041902 73.279 -11.8305
2.056698 73.660 -13.3528
2.071602 74.038 -14.8046
2.086614 74.412 -16.1914
2.101734 74.778 -17.5181
2.116964 75.134 -18.7897
2.132304 75.478 -20.0111
2.147756 75.807 -21.1871
2.163320 76.121 -22.3228
2.178996 76.419 -23.4236
2.194786 76.701 -24.4949
2.210690 76.970 -25.5421
2.226710 77.226 -26.5697
2.242845 77.473 -27.5809
2.259098 77.710 -28.5775
2.275468 77.939 -29.5603
2.291957 78.162 -30.5292
2.308566 78.378 -31.4840
2.325295 78.587 -32.4238
2.342145 78.792 -33.3481
2.359117 78.991 -34.2561
2.376212 79.185 -35.1472
2.393431 79.374 -36.0208
2.410775 79.559 -36.8765
2.428244 79.741 -37.7138
2.445840 79.919 -38.5324
2.463564 80.095 -39.3324
2.481416 80.267 -40.1138
2.499397 80.437 -40.8773
2.517509 80.606 -41.6239
2.535752 80.771 -42.3554
2.554127 80.935 -43.0744
2.572635 81.095 -43.7840
2.591277 81.252 -44.4874
2.610055 81.404 -45.1873
2.628968 81.552 -45.8849
2.648019 81.696 -46.5809
2.667208 81.835 -47.2749
2.686535 81.970 -47.9658
2.706003 82.101 -48.6524
2.725612 82.228 -49.3333
2.745363 82.351 -50.0068
2.765257 82.471 -50.6715
2.785295 82.588 -51.3255
2.805478 82.702 -51.9676
2.825808 82.814 -52.5963
2.846285 82.924 -53.2105
2.866910 83.032 -53.8095
2.887685 83.138 -54.3933
2.908611 83.242 -54.9627
2.929688 83.344 -55.5192
2.950917 83.443 -56.0651
2.972301 83.540 -56.6028
2.993839 83.634 -57.1339
3.015534 83.724 -57.6594
3.037386 83.812 -58.1794
3.059396 83.896 -58.6934
3.081565 83.978 -59.2006
3.103896 84.057 -59.6999
3.126388 84.133 -60.1897
3.149043 84.208 -60.6686
3.171862 84.281 -61.1352
3.194847 84.353 -61.5878
3.217998 84.423 -62.0252
3.241317 84.493 -62.4462
3.264805 84.561 -62.8503
3.288463 84.628 -63.2374
3.312293 84.694 -63.6081
3.336295 84.759 -63.9635
3.360471 84.822 -64.3046
3.384822 84.883 -64.6324
3.409350 84.942 -64.9476
3.434056 85.000 -65.2507
3.458940 85.056 -65.5421
3.484005 85.112 -65.8217
3.509252 85.167 -66.0896
3.534681 85.221 -66.3456
3.560295 85.276 -66.5894
3.586094 85.331 -66.8207
3.612081 85.387 -67.0390
3.638255 85.443 -67.2436
3.664620 85.500 -67.4340
3.691175 85.558 -67.6098
3.717923 85.616 -67.7708
3.744864 85.674 -67.9176
3.772001 85.733 -68.0512
3.799335 85.792 -68.1729
3.826866 85.852 -68.2846
3.854597 85.912 -68.3880
3.882529 85.974 -68.4849
3.910664 86.036 -68.5772
3.939002 86.100 -68.6661
3.967546 86.166 -68.7528
3.996296 86.233 -68.8378
4.025255 86.302 -68.9207
4.054423 86.373 -69.0012
4.083804 86.446 -69.0784
4.113396 86.521 -69.1526
4.143204 86.597 -69.2244
4.173227 86.675 -69.2954
4.203468 86.754 -69.3675
4.233928 86.835 -69.4430
4.264609 86.917 -69.5242
4.295512 87.000 -69.6133
4.326639 87.083 -69.7120
4.357992 87.168 -69.8216
4.389572 87.254 -69.9426
4.421380 87.341 -70.0748
4.453419 87.429 -70.2175
4.485691 87.517 -70.3705
4.518196 87.607 -70.5333
4.550936 87.698 -70.7062
4.583914 87.788 -70.8897
4.617131 87.879 -71.0842
4.650589 87.970 -71.2907
4.684289 88.060 -71.5099
4.718233 88.150 -71.7425
4.752424 88.238 -71.9889
4.786862 88.326 -72.2495
4.821549 88.413 -72.5239
4.856488 88.500 -72.8115
4.891680 88.585 -73.1114
4.927127 88.670 -73.4224
4.962831 88.753 -73.7433
4.998794 88.835 -74.0729
5.035017 88.915 -74.4103
5.071503 88.994 -74.7549
5.108253 89.071 -75.1067
5.145270 89.146 -75.4657
5.182555 89.219 -75.8321
5.220110 89.291 -76.2057
5.257937 89.360 -76.5857
5.296038 89.427 -76.9706
5.334415 89.493 -77.3588
5.373071 89.557 -77.7483
5.412006 89.620 -78.1376
5.451224 89.680 -78.5254
5.490725 89.739 -78.9113
5.530514 89.797 -79.2951
5.570590 89.852 -79.6769
5.610957 89.906 -80.0567
5.651616 89.958 -80.4340
5.692570 90.010 -80.8079
5.733821 90.060 -81.1774
5.775370 90.109 -81.5413
5.817221 90.157 -81.8987
5.859375 90.206 -82.2489
5.901834 90.253 -82.5917
5.944602 90.300 -82.9275
5.987679 90.347 -83.2565
6.031068 90.393 -83.5794
6.074771 90.440 -83.8967
6.118792 90.487 -84.2088
6.163131 90.534 -84.5159
6.207792 90.582 -84.8183
6.252776 90.631 -85.1159
6.298086 90.681 -85.4091
6.343725 90.732 -85.6985
6.389694 90.784 -85.9853
6.435996 90.836 -86.2709
6.482634 90.890 -86.5566
6.529610 90.945 -86.8439
6.576926 91.001 -87.1337
6.624585 91.058 -87.4266
6.672590 91.117 -87.7229
6.720942 91.176 -88.0233
6.769645 91.237 -88.3284
6.818700 91.298 -88.6393
6.868111 91.360 -88.9571
6.917881 91.423 -89.2827
6.968010 91.486 -89.6168
7.018504 91.550 -89.9596
7.069362 91.614 -90.3110
7.120590 91.678 -90.6708
7.172189 91.742 -91.0387
7.224161 91.806 -91.4144
7.276511 91.870 -91.7979
7.329239 91.933 -92.1889
7.382350 91.995 -92.5872
7.435845 92.057 -92.9923
7.489729 92.118 -93.4033
7.544002 92.178 -93.8190
7.598669 92.238 -94.2384
7.653732 92.296 -94.6603
7.709194 92.354 -95.0839
7.765058 92.410 -95.5088
7.821327 92.466 -95.9343
7.878004 92.521 -96.3594
7.935091 92.574 -96.7830
7.992592 92.628 -97.2043
8.050510 92.680 -97.6222
8.108847 92.733 -98.0363
8.167607 92.784 -98.4463
8.226793 92.836 -98.8520
8.286408 92.887 -99.2533
8.346454 92.938 -99.6500
8.406936 92.990 -100.0419
8.467856 93.042 -100.4292
8.529218 93.094 -100.8121
8.591024 93.146 -101.1909
8.653278 93.199 -101.5664
8.715983 93.253 -101.9393
8.779143 93.307 -102.3101
8.842760 93.361 -102.6793
8.906839 93.417 -103.0476
8.971381 93.473 -103.4155
9.036392 93.529 -103.7837
9.101873 93.586 -104.1529
9.167829 93.644 -104.5237
9.234263 93.701 -104.8965
9.301178 93.759 -105.2713
9.368578 93.817 -105.6483
9.436467 93.875 -106.0275
9.504847 93.932 -106.4090
9.573723 93.989 -106.7926
9.643099 94.045 -107.1781
9.712976 94.099 -107.5649
9.783361 94.152 -107.9526
9.854255 94.202 -108.3405
9.925663 94.249 -108.7281
9.997588 94.293 -109.1149
10.070035 94.334 -109.5005
10.143007 94.373 -109.8840
10.216507 94.409 -110.2652
10.290540 94.444 -110.6433
10.365109 94.476 -111.0182
10.440219 94.508 -111.3898
10.515873 94.538 -111.7578
10.592076 94.568 -112.1224
10.668830 94.597 -112.4834
10.746141 94.626 -112.8412
10.824012 94.654 -113.1961
10.902447 94.682 -113.5484
10.981451 94.711 -113.8987
11.061027 94.739 -114.2472
11.141180 94.766 -114.5946
11.221913 94.794 -114.9410
11.303232 94.821 -115.2871
11.385140 94.848 -115.6331
11.467641 94.875 -115.9793
11.550741 94.902 -116.3259
11.634442 94.928 -116.6729
11.718750 94.954 -117.0202
11.803669 94.980 -117.3680
11.889203 95.005 -117.7160
11.975357 95.030 -118.0639
12.062136 95.055 -118.4117
12.149543 95.080 -118.7590
12.237583 95.104 -119.1058
12.326262 95.128 -119.4517
12.415583 95.151 -119.7969
12.505552 95.174 -120.1411
12.596172 95.196 -120.4846
12.687449 95.218 -120.8274
12.779387 95.240 -121.1699
12.871992 95.261 -121.5123
12.965268 95.282 -121.8550
13.059220 95.302 -122.1984
13.153852 95.323 -122.5429
13.249170 95.343 -122.8890
13.345179 95.364 -123.2368
13.441884 95.384 -123.5868
13.539289 95.405 -123.9390
13.637401 95.425 -124.2935
13.736223 95.444 -124.6504
13.835761 95.464 -125.0094
13.936021 95.483 -125.3704
14.037007 95.501 -125.7331
14.138725 95.518 -126.0971
14.241180 95.535 -126.4622
14.344377 95.552 -126.8281
14.448323 95.568 -127.1945
14.553021 95.584 -127.5613
14.658478 95.599 -127.9284
14.764700 95.614 -128.2958
14.871691 95.629 -128.6636
14.979457 95.644 -129.0320
15.088005 95.660 -129.4014
15.197339 95.675 -129.7720
15.307465 95.691 -130.1440
15.418389 95.707 -130.5178
15.530117 95.722 -130.8936
15.642655 95.738 -131.2714
15.756008 95.754 -131.6513
15.870182 95.769 -132.0331
15.985184 95.784 -132.4166
16.101019 95.799 -132.8014
16.217694 95.814 -133.1871
16.335214 95.828 -133.5734
16.453586 95.843 -133.9597
16.572815 95.857 -134.3457
16.692909 95.872 -134.7310
16.813872 95.887 -135.1152
16.935713 95.902 -135.4984
17.058436 95.917 -135.8802
17.182048 95.932 -136.2608
17.306556 95.948 -136.6402
17.431967 95.964 -137.0184
17.558286 95.980 -137.3955
17.685521 95.996 -137.7717
17.813677 96.012 -138.1467
17.942762 96.028 -138.5206
18.072783 96.043 -138.8933
18.203746 96.059 -139.2645
18.335658 96.074 -139.6340
18.468526 96.089 -140.0016
18.602356 96.104 -140.3670
18.737156 96.118 -140.7299
18.872934 96.133 -141.0905
19.009695 96.148 -141.4484
19.147447 96.162 -141.8039
19.286197 96.177 -142.1571
19.425953 96.192 -142.5080
19.566721 96.206 -142.8570
19.708510 96.220 -143.2043
19.851326 96.234 -143.5500
19.995177 96.247 -143.8944
20.140070 96.260 -144.2376
20.286013 96.272 -144.5798
20.433014 96.284 -144.9209
20.581080 96.296 -145.2612
20.730219 96.307 -145.6006
20.880439 96.317 -145.9391
21.031747 96.327 -146.2770
21.184152 96.337 -146.6142
21.337661 96.347 -146.9509
21.492282 96.356 -147.2873
21.648024 96.365 -147.6234
21.804895 96.373 -147.9594
21.962902 96.382 -148.2955
22.122054 96.389 -148.6318
22.282360 96.397 -148.9684
22.443827 96.404 -149.3054
22.606464 96.410 -149.6430
22.770280 96.416 -149.9813
22.935283 96.422 -150.3205
23.101481 96.428 -150.6607
23.268884 96.433 -151.0019
23.437500 96.438 -151.3442
23.607338 96.442 -151.6875
23.778406 96.446 -152.0318
23.950714 96.449 -152.3767
24.124271 96.452 -152.7221
24.299086 96.455 -153.0678
24.475167 96.457 -153.4136
24.652524 96.460 -153.7592
24.831166 96.462 -154.1047
25.011103 96.464 -154.4500
25.192344 96.466 -154.7949
25.374898 96.468 -155.1396
25.558775 96.470 -155.4839
25.743984 96.472 -155.8276
25.930536 96.474 -156.1705
26.118439 96.475 -156.5123
26.307704 96.477 -156.8527
26.498341 96.478 -157.1912
26.690359 96.480 -157.5277
26.883768 96.481 -157.8621
27.078579 96.482 -158.1943
27.274801 96.483 -158.5245
27.472446 96.484 -158.8529
27.671522 96.484 -159.1795
27.872042 96.484 -159.5043
28.074014 96.484 -159.8273
28.277450 96.483 -160.1482
28.482360 96.482 -160.4666
28.688755 96.481 -160.7824
28.896645 96.479 -161.0954
29.106042 96.476 -161.4055
29.316957 96.474 -161.7133
29.529400 96.471 -162.0191
29.743382 96.468 -162.3237
29.958915 96.465 -162.6278
30.176009 96.462 -162.9321
30.394677 96.459 -163.2372
30.614929 96.455 -163.5432
30.836778 96.452 -163.8501
31.060234 96.447 -164.1578
31.285309 96.443 -164.4661
31.512015 96.438 -164.7746
31.740364 96.432 -165.0834
31.970368 96.427 -165.3923
32.202039 96.421 -165.7016
32.435388 96.415 -166.0115
32.670428 96.408 -166.3221
32.907171 96.402 -166.6335
33.145630 96.395 -166.9455
33.385817 96.389 -167.2580
33.627745 96.382 -167.5706
33.871425 96.375 -167.8831
34.116871 96.368 -168.1951
34.364096 96.360 -168.5066
34.613113 96.353 -168.8175
34.863934 96.345 -169.1277
35.116572 96.337 -169.4368
35.371041 96.329 -169.7445
35.627354 96.321 -170.0500
35.885525 96.312 -170.3526
36.145566 96.302 -170.6517
36.407492 96.293 -170.9471
36.671316 96.283 -171.2391
36.937051 96.274 -171.5285
37.204712 96.264 -171.8162
37.474313 96.254 -172.1032
37.745867 96.244 -172.3900
38.019389 96.234 -172.6766
38.294893 96.223 -172.9625
38.572394 96.212 -173.2468
38.851905 96.200 -173.5292
39.133442 96.188 -173.8094
39.417019 96.175 -174.0880
39.702651 96.162 -174.3656
39.990353 96.149 -174.6429
40.280140 96.135 -174.9200
40.572026 96.121 -175.1965
40.866028 96.107 -175.4714
41.162160 96.091 -175.7439
41.460438 96.076 -176.0134
41.760877 96.060 -176.2798
42.063494 96.045 -176.5439
42.368303 96.029 -176.8063
42.675322 96.014 -177.0679
42.984565 95.998 -177.3288
43.296048 95.982 -177.5892
43.609789 95.966 -177.8488
43.925804 95.950 -178.1076
44.244108 95.934 -178.3657
44.564719 95.917 -178.6234
44.887654 95.901 -178.8811
45.212928 95.884 -179.1389
45.540560 95.867 -179.3965
45.870565 95.849 -179.6534
46.202962 95.831 -179.9093
46.537768 95.812 179.8363
46.875000 95.793 179.5835
47.214676 95.774 179.3325
47.556813 95.754 179.0842
47.901429 95.734 178.8392
48.248542 95.714 178.5984
48.598171 95.693 178.3618
48.950334 95.674 178.1283
49.305048 95.654 177.8955
49.662333 95.635 177.6611
50.022206 95.616 177.4230
50.384688 95.597 177.1813
50.749796 95.577 176.9375
51.117550 95.556 176.6951
51.487969 95.534 176.4574
51.861072 95.512 176.2269
52.236879 95.489 176.0044
52.615409 95.468 175.7889
52.996681 95.447 175.5789
53.380717 95.426 175.3726
53.767536 95.407 175.1693
54.157158 95.388 174.9687
54.549603 95.370 174.7709
54.944892 95.353 174.5748
55.343045 95.337 174.3783
55.744084 95.322 174.1777
56.148028 95.308 173.9691
56.554900 95.293 173.7504
56.964720 95.277 173.5220
57.377510 95.258 173.2877
57.793291 95.238 173.0536
58.212085 95.214 172.8260
58.633914 95.189 172.6086
59.058799 95.164 172.4019
59.486764 95.138 172.2028
59.917829 95.113 172.0068
60.352019 95.087 171.8093
60.789354 95.062 171.6075
61.229859 95.036 171.3998
61.673556 95.009 171.1870
62.120468 94.981 170.9712
62.570618 94.952 170.7554
63.024031 94.921 170.5425
63.480729 94.890 170.3344
63.940736 94.859 170.1314
64.404077 94.827 169.9335
64.870776 94.795 169.7410
65.340856 94.762 169.5555
65.814343 94.728 169.3795
66.291261 94.694 169.2149
66.771635 94.659 169.0620
67.255489 94.625 168.9187
67.742850 94.591 168.7821
68.233743 94.557 168.6504
68.728193 94.523 168.5241
69.226226 94.488 168.4050
69.727867 94.453 168.2934
70.233144 94.419 168.1881
70.742083 94.386 168.0876
71.254709 94.353 167.9932
71.771050 94.321 167.9089
72.291132 94.291 167.8394
72.814984 94.262 167.7870
73.342631 94.238 167.7495
73.874102 94.216 167.7205
74.409424 94.198 167.6925
74.948626 94.182 167.6633
75.491734 94.166 167.6400
76.038779 94.151 167.6354
76.589787 94.137 167.6564
77.144788 94.128 167.6929
77.703811 94.124 167.7202
78.266885 94.123 167.7147
78.834039 94.122 167.6677
79.405303 94.119 167.5867
79.980706 94.113 167.4841
80.560280 94.105 167.3646
81.144053 94.096 167.2234
81.732056 94.087 167.0531
82.324320 94.077 166.8510
82.920876 94.064 166.6218
83.521755 94.049 166.3748
84.126988 94.031 166.1193
84.736607 94.011 165.8637
85.350643 93.989 165.6136
85.969129 93.966 165.3724
86.592097 93.942 165.1405
87.219579 93.917 164.9180
87.851608 93.890 164.7056
