* Measurement data measured by REW V5.31
* Source: EXCL: Microphone (USB Sound Device        ), MICROPHONE (Master Volume), L, volume: 0.560
* Format: 256k Log Swept Sine, 1 sweep at -5.0 dBFS with no timing reference
* Dated: Jun 1, 2024 4:32:34 PM
* REW Settings:
*  C-weighting compensation: Off
*  Target level: 75.0 dB
* Note: Truthear Gate R
* Measurement: R Truthear Gate
* Smoothing: 1/12 octave
* Frequency Step: 96 ppo
* Start Frequency: 0.36621094 Hz
*
* Freq(Hz) SPL(dB) Phase(degrees)
0.366211 78.158 -175.8577
0.368865 78.158 -175.8622
0.371538 78.157 -175.8690
0.374230 78.157 -175.8774
0.376942 78.156 -175.8869
0.379673 78.155 -175.8973
0.382424 78.154 -175.9082
0.385196 78.153 -175.9195
0.387987 78.152 -175.9312
0.390798 78.151 -175.9431
0.393630 78.150 -175.9553
0.396483 78.149 -175.9677
0.399356 78.148 -175.9805
0.402250 78.147 -175.9934
0.405165 78.146 -176.0066
0.408101 78.145 -176.0201
0.411058 78.144 -176.0338
0.414037 78.142 -176.0478
0.417037 78.141 -176.0621
0.420059 78.140 -176.0766
0.423103 78.139 -176.0914
0.426169 78.138 -176.1066
0.429257 78.137 -176.1220
0.432368 78.136 -176.1377
0.435501 78.135 -176.1537
0.438656 78.133 -176.1700
0.441835 78.132 -176.1866
0.445037 78.131 -176.2036
0.448262 78.130 -176.2209
0.451510 78.129 -176.2385
0.454782 78.128 -176.2564
0.458077 78.126 -176.2747
0.461397 78.125 -176.2934
0.464740 78.124 -176.3124
0.468108 78.123 -176.3317
0.471500 78.122 -176.3515
0.474917 78.120 -176.3716
0.478358 78.119 -176.3921
0.481825 78.118 -176.4130
0.485316 78.117 -176.4343
0.488833 78.115 -176.4560
0.492375 78.114 -176.4781
0.495943 78.113 -176.5007
0.499537 78.111 -176.5237
0.503157 78.110 -176.5471
0.506803 78.109 -176.5710
0.510475 78.107 -176.5954
0.514175 78.106 -176.6202
0.517900 78.105 -176.6455
0.521653 78.103 -176.6712
0.525434 78.102 -176.6975
0.529241 78.101 -176.7243
0.533076 78.099 -176.7517
0.536939 78.098 -176.7795
0.540830 78.096 -176.8079
0.544749 78.095 -176.8369
0.548696 78.093 -176.8664
0.552673 78.092 -176.8965
0.556677 78.091 -176.9272
0.560711 78.089 -176.9585
0.564774 78.088 -176.9905
0.568867 78.086 -177.0230
0.572989 78.085 -177.0563
0.577141 78.083 -177.0901
0.581324 78.082 -177.1247
0.585536 78.080 -177.1600
0.589779 78.079 -177.1960
0.594053 78.077 -177.2327
0.598358 78.075 -177.2702
0.602694 78.074 -177.3084
0.607061 78.072 -177.3474
0.611460 78.071 -177.3873
0.615891 78.069 -177.4279
0.620354 78.067 -177.4694
0.624849 78.066 -177.5118
0.629377 78.064 -177.5551
0.633938 78.063 -177.5993
0.638532 78.061 -177.6444
0.643159 78.059 -177.6906
0.647819 78.057 -177.7377
0.652514 78.056 -177.7858
0.657242 78.054 -177.8350
0.662005 78.052 -177.8853
0.666802 78.051 -177.9367
0.671634 78.049 -177.9892
0.676501 78.047 -178.0430
0.681403 78.045 -178.0979
0.686341 78.043 -178.1542
0.691314 78.042 -178.2117
0.696324 78.040 -178.2706
0.701370 78.038 -178.3309
0.706452 78.035 -178.3926
0.711571 78.033 -178.4559
0.716728 78.029 -178.5209
0.721921 78.025 -178.5877
0.727153 78.019 -178.6565
0.732422 78.012 -178.7276
0.737729 78.003 -178.8012
0.743075 77.992 -178.8776
0.748460 77.980 -178.9571
0.753883 77.967 -179.0398
0.759346 77.953 -179.1258
0.764849 77.939 -179.2152
0.770391 77.925 -179.3081
0.775974 77.911 -179.4044
0.781597 77.897 -179.5041
0.787261 77.883 -179.6073
0.792966 77.868 -179.7139
0.798712 77.854 -179.8239
0.804500 77.839 -179.9373
0.810329 77.824 179.9459
0.816201 77.809 179.8258
0.822116 77.794 179.7023
0.828073 77.778 179.5755
0.834074 77.762 179.4454
0.840118 77.745 179.3121
0.846206 77.728 179.1757
0.852338 77.710 179.0359
0.858514 77.692 178.8931
0.864735 77.673 178.7473
0.871001 77.653 178.5983
0.877313 77.632 178.4464
0.883670 77.611 178.2916
0.890074 77.588 178.1339
0.896524 77.565 177.9733
0.903020 77.540 177.8101
0.909564 77.514 177.6441
0.916155 77.487 177.4756
0.922794 77.458 177.3046
0.929481 77.428 177.1310
0.936216 77.396 176.9552
0.943000 77.363 176.7771
0.949834 77.327 176.5969
0.956717 77.290 176.4146
0.963649 77.251 176.2303
0.970632 77.210 176.0443
0.977666 77.166 175.8565
0.984750 77.121 175.6671
0.991886 77.072 175.4764
0.999074 77.021 175.2843
1.006314 76.968 175.0911
1.013606 76.911 174.8969
1.020951 76.852 174.7019
1.028349 76.789 174.5062
1.035801 76.723 174.3101
1.043307 76.654 174.1136
1.050867 76.581 173.9171
1.058482 76.504 173.7204
1.066152 76.423 173.5236
1.073878 76.337 173.3267
1.081660 76.247 173.1290
1.089498 76.152 172.9299
1.097393 76.050 172.7282
1.105345 75.943 172.5223
1.113355 75.828 172.3105
1.121423 75.706 172.0914
1.129549 75.576 171.8637
1.137734 75.438 171.6266
1.145979 75.292 171.3795
1.154283 75.138 171.1219
1.162647 74.977 170.8536
1.171072 74.808 170.5743
1.179558 74.633 170.2839
1.188106 74.451 169.9822
1.196715 74.263 169.6690
1.205387 74.068 169.3441
1.214122 73.869 169.0075
1.222920 73.664 168.6589
1.231782 73.454 168.2983
1.240708 73.241 167.9255
1.249699 73.024 167.5403
1.258754 72.804 167.1426
1.267876 72.581 166.7322
1.277063 72.356 166.3092
1.286318 72.130 165.8733
1.295639 71.903 165.4244
1.305027 71.676 164.9625
1.314484 71.450 164.4874
1.324009 71.226 163.9992
1.333604 71.003 163.4977
1.343268 70.783 162.9831
1.353002 70.568 162.4552
1.362806 70.356 161.9141
1.372681 70.151 161.3600
1.382628 69.952 160.7928
1.392647 69.761 160.2127
1.402739 69.578 159.6196
1.412904 69.404 159.0132
1.423142 69.241 158.3928
1.433455 69.089 157.7567
1.443843 68.949 157.1018
1.454305 68.820 156.4227
1.464844 68.701 155.7106
1.475459 68.593 154.9531
1.486150 68.494 154.1344
1.496920 68.402 153.2353
1.507767 68.317 152.2329
1.518693 68.239 151.0989
1.529698 68.168 149.7969
1.540783 68.102 148.2775
1.551948 68.044 146.4709
1.563194 67.992 144.2758
1.574521 67.947 141.5368
1.585931 67.910 138.0081
1.597423 67.880 133.2808
1.608999 67.858 126.6476
1.620658 67.844 116.8687
1.632402 67.839 101.9839
1.644232 67.844 80.4152
1.656146 67.857 55.3417
1.668147 67.881 34.2642
1.680235 67.914 19.8217
1.692411 67.959 10.2833
1.704675 68.015 3.7396
1.717028 68.082 -0.9961
1.729470 68.161 -4.6000
1.742003 68.253 -7.4640
1.754626 68.359 -9.8247
1.767341 68.479 -11.8315
1.780147 68.613 -13.5822
1.793047 68.765 -15.1431
1.806040 68.934 -16.5599
1.819128 69.123 -17.8647
1.832310 69.335 -19.0798
1.845587 69.570 -20.2203
1.858961 69.832 -21.2972
1.872432 70.121 -22.3184
1.886001 70.436 -23.2900
1.899667 70.777 -24.2173
1.913433 71.142 -25.1049
1.927299 71.529 -25.9569
1.941265 71.935 -26.7769
1.955332 72.358 -27.5682
1.969501 72.797 -28.3339
1.983773 73.247 -29.0765
1.998148 73.707 -29.7988
2.012627 74.173 -30.5031
2.027212 74.643 -31.1912
2.041902 75.113 -31.8654
2.056698 75.582 -32.5273
2.071602 76.045 -33.1790
2.086614 76.499 -33.8219
2.101734 76.943 -34.4578
2.116964 77.372 -35.0883
2.132304 77.784 -35.7150
2.147756 78.178 -36.3396
2.163320 78.552 -36.9640
2.178996 78.905 -37.5900
2.194786 79.237 -38.2193
2.210690 79.550 -38.8535
2.226710 79.845 -39.4935
2.242845 80.124 -40.1396
2.259098 80.389 -40.7913
2.275468 80.642 -41.4476
2.291957 80.882 -42.1071
2.308566 81.111 -42.7686
2.325295 81.330 -43.4307
2.342145 81.540 -44.0921
2.359117 81.741 -44.7518
2.376212 81.935 -45.4086
2.393431 82.122 -46.0618
2.410775 82.303 -46.7106
2.428244 82.480 -47.3544
2.445840 82.652 -47.9928
2.463564 82.822 -48.6255
2.481416 82.990 -49.2526
2.499397 83.157 -49.8744
2.517509 83.323 -50.4919
2.535752 83.489 -51.1064
2.554127 83.654 -51.7200
2.572635 83.817 -52.3351
2.591277 83.978 -52.9540
2.610055 84.136 -53.5785
2.628968 84.290 -54.2094
2.648019 84.439 -54.8461
2.667208 84.584 -55.4880
2.686535 84.725 -56.1335
2.706003 84.861 -56.7812
2.725612 84.994 -57.4292
2.745363 85.122 -58.0756
2.765257 85.247 -58.7189
2.785295 85.369 -59.3572
2.805478 85.488 -59.9891
2.825808 85.605 -60.6132
2.846285 85.719 -61.2285
2.866910 85.832 -61.8346
2.887685 85.942 -62.4313
2.908611 86.050 -63.0198
2.929688 86.156 -63.6019
2.950917 86.260 -64.1798
2.972301 86.361 -64.7561
2.993839 86.458 -65.3322
3.015534 86.552 -65.9089
3.037386 86.643 -66.4860
3.059396 86.731 -67.0627
3.081565 86.816 -67.6377
3.103896 86.898 -68.2095
3.126388 86.977 -68.7762
3.149043 87.054 -69.3362
3.171862 87.129 -69.8876
3.194847 87.202 -70.4288
3.217998 87.273 -70.9583
3.241317 87.342 -71.4749
3.264805 87.411 -71.9785
3.288463 87.477 -72.4694
3.312293 87.542 -72.9485
3.336295 87.604 -73.4176
3.360471 87.664 -73.8781
3.384822 87.722 -74.3307
3.409350 87.778 -74.7760
3.434056 87.831 -75.2139
3.458940 87.883 -75.6442
3.484005 87.933 -76.0659
3.509252 87.982 -76.4784
3.534681 88.029 -76.8806
3.560295 88.076 -77.2714
3.586094 88.123 -77.6500
3.612081 88.169 -78.0151
3.638255 88.215 -78.3662
3.664620 88.261 -78.7029
3.691175 88.306 -79.0250
3.717923 88.351 -79.3329
3.744864 88.395 -79.6274
3.772001 88.438 -79.9094
3.799335 88.481 -80.1799
3.826866 88.523 -80.4399
3.854597 88.566 -80.6904
3.882529 88.609 -80.9326
3.910664 88.652 -81.1670
3.939002 88.696 -81.3945
3.967546 88.741 -81.6152
3.996296 88.788 -81.8292
4.025255 88.835 -82.0360
4.054423 88.884 -82.2349
4.083804 88.935 -82.4257
4.113396 88.986 -82.6083
4.143204 89.039 -82.7839
4.173227 89.092 -82.9539
4.203468 89.147 -83.1202
4.233928 89.203 -83.2850
4.264609 89.260 -83.4507
4.295512 89.319 -83.6193
4.326639 89.378 -83.7925
4.357992 89.439 -83.9712
4.389572 89.502 -84.1560
4.421380 89.566 -84.3466
4.453419 89.631 -84.5424
4.485691 89.698 -84.7432
4.518196 89.766 -84.9493
4.550936 89.835 -85.1617
4.583914 89.905 -85.3813
4.617131 89.976 -85.6097
4.650589 90.047 -85.8485
4.684289 90.119 -86.0989
4.718233 90.190 -86.3621
4.752424 90.261 -86.6388
4.786862 90.333 -86.9293
4.821549 90.404 -87.2333
4.856488 90.476 -87.5504
4.891680 90.547 -87.8796
4.927127 90.618 -88.2206
4.962831 90.688 -88.5725
4.998794 90.758 -88.9350
5.035017 90.826 -89.3078
5.071503 90.893 -89.6909
5.108253 90.959 -90.0846
5.145270 91.024 -90.4891
5.182555 91.086 -90.9048
5.220110 91.148 -91.3311
5.257937 91.207 -91.7672
5.296038 91.265 -92.2117
5.334415 91.322 -92.6626
5.373071 91.376 -93.1183
5.412006 91.429 -93.5774
5.451224 91.481 -94.0388
5.490725 91.530 -94.5020
5.530514 91.577 -94.9670
5.570590 91.622 -95.4341
5.610957 91.665 -95.9030
5.651616 91.707 -96.3726
5.692570 91.747 -96.8416
5.733821 91.785 -97.3082
5.775370 91.822 -97.7710
5.817221 91.858 -98.2284
5.859375 91.892 -98.6798
5.901834 91.925 -99.1248
5.944602 91.957 -99.5635
5.987679 91.989 -99.9962
6.031068 92.019 -100.4227
6.074771 92.049 -100.8429
6.118792 92.078 -101.2563
6.163131 92.107 -101.6624
6.207792 92.137 -102.0609
6.252776 92.167 -102.4513
6.298086 92.197 -102.8339
6.343725 92.227 -103.2092
6.389694 92.258 -103.5782
6.435996 92.290 -103.9419
6.482634 92.323 -104.3016
6.529610 92.357 -104.6581
6.576926 92.392 -105.0123
6.624585 92.428 -105.3644
6.672590 92.465 -105.7149
6.720942 92.504 -106.0646
6.769645 92.544 -106.4147
6.818700 92.586 -106.7665
6.868111 92.628 -107.1216
6.917881 92.672 -107.4813
6.968010 92.716 -107.8465
7.018504 92.762 -108.2177
7.069362 92.809 -108.5950
7.120590 92.856 -108.9788
7.172189 92.904 -109.3694
7.224161 92.952 -109.7673
7.276511 93.001 -110.1730
7.329239 93.050 -110.5867
7.382350 93.098 -111.0085
7.435845 93.146 -111.4381
7.489729 93.194 -111.8748
7.544002 93.242 -112.3176
7.598669 93.289 -112.7659
7.653732 93.335 -113.2186
7.709194 93.380 -113.6754
7.765058 93.424 -114.1357
7.821327 93.467 -114.5986
7.878004 93.510 -115.0632
7.935091 93.551 -115.5282
7.992592 93.591 -115.9922
8.050510 93.631 -116.4542
8.108847 93.669 -116.9131
8.167607 93.707 -117.3680
8.226793 93.744 -117.8180
8.286408 93.780 -118.2623
8.346454 93.816 -118.7006
8.406936 93.852 -119.1324
8.467856 93.887 -119.5577
8.529218 93.922 -119.9766
8.591024 93.958 -120.3892
8.653278 93.993 -120.7958
8.715983 94.029 -121.1967
8.779143 94.065 -121.5922
8.842760 94.102 -121.9825
8.906839 94.139 -122.3684
8.971381 94.177 -122.7504
9.036392 94.215 -123.1293
9.101873 94.254 -123.5061
9.167829 94.293 -123.8815
9.234263 94.333 -124.2560
9.301178 94.373 -124.6301
9.368578 94.413 -125.0044
9.436467 94.454 -125.3793
9.504847 94.495 -125.7550
9.573723 94.535 -126.1320
9.643099 94.574 -126.5101
9.712976 94.612 -126.8893
9.783361 94.648 -127.2690
9.854255 94.682 -127.6490
9.925663 94.713 -128.0290
9.997588 94.741 -128.4084
10.070035 94.766 -128.7866
10.143007 94.788 -129.1630
10.216507 94.807 -129.5370
10.290540 94.825 -129.9078
10.365109 94.840 -130.2752
10.440219 94.854 -130.6387
10.515873 94.867 -130.9979
10.592076 94.879 -131.3527
10.668830 94.889 -131.7029
10.746141 94.900 -132.0485
10.824012 94.910 -132.3899
10.902447 94.919 -132.7273
10.981451 94.929 -133.0611
11.061027 94.938 -133.3918
11.141180 94.947 -133.7200
11.221913 94.955 -134.0463
11.303232 94.964 -134.3711
11.385140 94.972 -134.6953
11.467641 94.980 -135.0192
11.550741 94.988 -135.3431
11.634442 94.995 -135.6676
11.718750 95.002 -135.9927
11.803669 95.009 -136.3186
11.889203 95.016 -136.6453
11.975357 95.022 -136.9727
12.062136 95.028 -137.3004
12.149543 95.034 -137.6283
12.237583 95.039 -137.9560
12.326262 95.043 -138.2833
12.415583 95.047 -138.6099
12.505552 95.050 -138.9354
12.596172 95.052 -139.2598
12.687449 95.054 -139.5830
12.779387 95.055 -139.9051
12.871992 95.055 -140.2261
12.965268 95.055 -140.5464
13.059220 95.055 -140.8663
13.153852 95.055 -141.1863
13.249170 95.055 -141.5068
13.345179 95.056 -141.8283
13.441884 95.056 -142.1512
13.539289 95.056 -142.4760
13.637401 95.056 -142.8029
13.736223 95.056 -143.1323
13.835761 95.056 -143.4641
13.936021 95.056 -143.7983
14.037007 95.055 -144.1349
14.138725 95.054 -144.4735
14.241180 95.052 -144.8140
14.344377 95.050 -145.1558
14.448323 95.048 -145.4987
14.553021 95.045 -145.8422
14.658478 95.042 -146.1862
14.764700 95.038 -146.5305
14.871691 95.035 -146.8748
14.979457 95.032 -147.2191
15.088005 95.029 -147.5636
15.197339 95.027 -147.9083
15.307465 95.024 -148.2535
15.418389 95.022 -148.5995
15.530117 95.021 -148.9463
15.642655 95.019 -149.2942
15.756008 95.018 -149.6432
15.870182 95.017 -149.9935
15.985184 95.017 -150.3448
16.101019 95.016 -150.6972
16.217694 95.015 -151.0503
16.335214 95.015 -151.4038
16.453586 95.015 -151.7574
16.572815 95.015 -152.1110
16.692909 95.015 -152.4640
16.813872 95.016 -152.8162
16.935713 95.017 -153.1675
17.058436 95.018 -153.5178
17.182048 95.020 -153.8667
17.306556 95.022 -154.2143
17.431967 95.024 -154.5603
17.558286 95.027 -154.9046
17.685521 95.029 -155.2468
17.813677 95.031 -155.5867
17.942762 95.032 -155.9238
18.072783 95.034 -156.2576
18.203746 95.035 -156.5877
18.335658 95.036 -156.9136
18.468526 95.036 -157.2349
18.602356 95.037 -157.5515
18.737156 95.037 -157.8630
18.872934 95.038 -158.1699
19.009695 95.039 -158.4722
19.147447 95.040 -158.7704
19.286197 95.041 -159.0651
19.425953 95.043 -159.3571
19.566721 95.044 -159.6467
19.708510 95.045 -159.9347
19.851326 95.046 -160.2214
19.995177 95.047 -160.5071
20.140070 95.047 -160.7917
20.286013 95.046 -161.0754
20.433014 95.045 -161.3578
20.581080 95.043 -161.6387
20.730219 95.040 -161.9181
20.880439 95.037 -162.1957
21.031747 95.034 -162.4718
21.184152 95.030 -162.7465
21.337661 95.026 -163.0203
21.492282 95.022 -163.2936
21.648024 95.018 -163.5672
21.804895 95.014 -163.8416
21.962902 95.009 -164.1173
22.122054 95.005 -164.3947
22.282360 94.999 -164.6739
22.443827 94.994 -164.9550
22.606464 94.987 -165.2376
22.770280 94.981 -165.5216
22.935283 94.973 -165.8066
23.101481 94.966 -166.0922
23.268884 94.958 -166.3781
23.437500 94.949 -166.6641
23.607338 94.941 -166.9500
23.778406 94.932 -167.2358
23.950714 94.923 -167.5217
24.124271 94.914 -167.8076
24.299086 94.905 -168.0936
24.475167 94.896 -168.3799
24.652524 94.887 -168.6665
24.831166 94.879 -168.9536
25.011103 94.870 -169.2410
25.192344 94.862 -169.5287
25.374898 94.854 -169.8166
25.558775 94.845 -170.1042
25.743984 94.837 -170.3912
25.930536 94.829 -170.6769
26.118439 94.820 -170.9607
26.307704 94.812 -171.2419
26.498341 94.803 -171.5199
26.690359 94.794 -171.7941
26.883768 94.786 -172.0643
27.078579 94.777 -172.3304
27.274801 94.768 -172.5928
27.472446 94.759 -172.8517
27.671522 94.751 -173.1077
27.872042 94.742 -173.3614
28.074014 94.733 -173.6133
28.277450 94.724 -173.8636
28.482360 94.714 -174.1125
28.688755 94.704 -174.3601
28.896645 94.694 -174.6061
29.106042 94.683 -174.8505
29.316957 94.671 -175.0933
29.529400 94.659 -175.3344
29.743382 94.647 -175.5740
29.958915 94.634 -175.8126
30.176009 94.621 -176.0505
30.394677 94.608 -176.2882
30.614929 94.594 -176.5259
30.836778 94.581 -176.7639
31.060234 94.567 -177.0027
31.285309 94.553 -177.2422
31.512015 94.538 -177.4828
31.740364 94.524 -177.7245
31.970368 94.509 -177.9673
32.202039 94.494 -178.2112
32.435388 94.479 -178.4559
32.670428 94.463 -178.7016
32.907171 94.448 -178.9480
33.145630 94.433 -179.1951
33.385817 94.417 -179.4426
33.627745 94.402 -179.6907
33.871425 94.387 -179.9390
34.116871 94.371 179.8128
34.364096 94.356 179.5652
34.613113 94.340 179.3187
34.863934 94.325 179.0743
35.116572 94.309 178.8325
35.371041 94.293 178.5940
35.627354 94.277 178.3589
35.885525 94.261 178.1271
36.145566 94.245 177.8981
36.407492 94.229 177.6712
36.671316 94.213 177.4459
36.937051 94.197 177.2219
37.204712 94.181 176.9989
37.474313 94.164 176.7776
37.745867 94.147 176.5584
38.019389 94.129 176.3420
38.294893 94.111 176.1287
38.572394 94.092 175.9185
38.851905 94.073 175.7107
39.133442 94.054 175.5048
39.417019 94.035 175.2999
39.702651 94.016 175.0956
39.990353 93.996 174.8919
40.280140 93.975 174.6891
40.572026 93.954 174.4879
40.866028 93.933 174.2888
41.162160 93.912 174.0918
41.460438 93.890 173.8967
41.760877 93.869 173.7031
42.063494 93.847 173.5101
42.368303 93.825 173.3176
42.675322 93.804 173.1252
42.984565 93.782 172.9331
43.296048 93.760 172.7412
43.609789 93.738 172.5494
43.925804 93.715 172.3569
44.244108 93.693 172.1632
44.564719 93.671 171.9675
44.887654 93.648 171.7699
45.212928 93.625 171.5710
45.540560 93.600 171.3727
45.870565 93.575 171.1777
46.202962 93.549 170.9893
46.537768 93.523 170.8102
46.875000 93.496 170.6417
47.214676 93.471 170.4829
47.556813 93.447 170.3307
47.901429 93.425 170.1803
48.248542 93.405 170.0269
48.598171 93.385 169.8669
48.950334 93.366 169.6992
49.305048 93.347 169.5250
49.662333 93.326 169.3475
50.022206 93.304 169.1705
50.384688 93.281 168.9977
50.749796 93.258 168.8312
51.117550 93.233 168.6721
51.487969 93.209 168.5201
51.861072 93.184 168.3741
52.236879 93.160 168.2326
52.615409 93.136 168.0940
52.996681 93.112 167.9572
53.380717 93.088 167.8213
53.767536 93.064 167.6864
54.157158 93.040 167.5527
54.549603 93.016 167.4208
54.944892 92.992 167.2903
55.343045 92.968 167.1611
55.744084 92.945 167.0319
56.148028 92.923 166.9014
56.554900 92.900 166.7678
56.964720 92.879 166.6293
57.377510 92.857 166.4847
57.793291 92.835 166.3336
58.212085 92.812 166.1772
58.633914 92.787 166.0186
59.058799 92.762 165.8607
59.486764 92.735 165.7066
59.917829 92.708 165.5578
60.352019 92.679 165.4146
60.789354 92.651 165.2763
61.229859 92.623 165.1421
61.673556 92.594 165.0114
62.120468 92.566 164.8836
62.570618 92.537 164.7586
63.024031 92.509 164.6359
63.480729 92.481 164.5146
63.940736 92.453 164.3946
64.404077 92.424 164.2757
64.870776 92.396 164.1588
65.340856 92.367 164.0449
65.814343 92.337 163.9353
66.291261 92.307 163.8302
66.771635 92.277 163.7296
67.255489 92.247 163.6329
67.742850 92.217 163.5389
68.233743 92.186 163.4462
68.728193 92.156 163.3530
69.226226 92.125 163.2588
69.727867 92.094 163.1638
70.233144 92.064 163.0685
70.742083 92.034 162.9722
71.254709 92.004 162.8734
71.771050 91.975 162.7706
72.291132 91.947 162.6642
72.814984 91.919 162.5551
73.342631 91.891 162.4442
73.874102 91.862 162.3333
74.409424 91.833 162.2265
74.948626 91.802 162.1310
75.491734 91.772 162.0527
76.038779 91.742 161.9921
76.589787 91.714 161.9439
77.144788 91.688 161.9006
77.703811 91.663 161.8571
78.266885 91.639 161.8105
78.834039 91.616 161.7585
79.405303 91.593 161.6975
79.980706 91.570 161.6257
80.560280 91.545 161.5440
81.144053 91.520 161.4556
81.732056 91.493 161.3622
82.324320 91.465 161.2620
82.920876 91.435 161.1527
83.521755 91.403 161.0352
84.126988 91.368 160.9152
