* Measurement data measured by REW V5.31
* Source: EXCL: Microphone (USB Sound Device        ), MICROPHONE (Master Volume), L, volume: 0.560
* Format: 256k Log Swept Sine, 1 sweep at -5.0 dBFS with no timing reference
* Dated: May 27, 2024 3:25:19 PM
* REW Settings:
*  C-weighting compensation: Off
*  Target level: 75.0 dB
* Note: Twistura D-Major Blue  L
* Measurement: L Twistura D-Major Blue
* Smoothing: 1/12 octave
* Frequency Step: 96 ppo
* Start Frequency: 0.36621094 Hz
*
* Freq(Hz) SPL(dB) Phase(degrees)
0.366211 78.974 174.5327
0.368865 78.970 174.5234
0.371538 78.965 174.5096
0.374230 78.958 174.4923
0.376942 78.950 174.4724
0.379673 78.941 174.4507
0.382424 78.933 174.4275
0.385196 78.923 174.4031
0.387987 78.914 174.3777
0.390798 78.905 174.3514
0.393630 78.895 174.3242
0.396483 78.886 174.2962
0.399356 78.876 174.2673
0.402250 78.866 174.2375
0.405165 78.857 174.2068
0.408101 78.847 174.1753
0.411058 78.837 174.1429
0.414037 78.827 174.1096
0.417037 78.817 174.0754
0.420059 78.807 174.0403
0.423103 78.796 174.0043
0.426169 78.786 173.9674
0.429257 78.776 173.9296
0.432368 78.765 173.8908
0.435501 78.755 173.8510
0.438656 78.744 173.8103
0.441835 78.734 173.7687
0.445037 78.723 173.7261
0.448262 78.712 173.6825
0.451510 78.701 173.6379
0.454782 78.690 173.5923
0.458077 78.679 173.5458
0.461397 78.668 173.4982
0.464740 78.657 173.4497
0.468108 78.646 173.4001
0.471500 78.634 173.3495
0.474917 78.623 173.2979
0.478358 78.611 173.2452
0.481825 78.600 173.1915
0.485316 78.588 173.1368
0.488833 78.576 173.0810
0.492375 78.564 173.0242
0.495943 78.552 172.9663
0.499537 78.540 172.9074
0.503157 78.528 172.8474
0.506803 78.516 172.7863
0.510475 78.503 172.7242
0.514175 78.491 172.6609
0.517900 78.479 172.5967
0.521653 78.466 172.5313
0.525434 78.453 172.4649
0.529241 78.441 172.3973
0.533076 78.428 172.3287
0.536939 78.415 172.2590
0.540830 78.402 172.1882
0.544749 78.389 172.1164
0.548696 78.375 172.0435
0.552673 78.362 171.9694
0.556677 78.349 171.8943
0.560711 78.335 171.8182
0.564774 78.321 171.7409
0.568867 78.308 171.6626
0.572989 78.294 171.5832
0.577141 78.280 171.5028
0.581324 78.266 171.4213
0.585536 78.252 171.3387
0.589779 78.238 171.2551
0.594053 78.223 171.1705
0.598358 78.209 171.0848
0.602694 78.194 170.9981
0.607061 78.180 170.9104
0.611460 78.165 170.8218
0.615891 78.150 170.7321
0.620354 78.135 170.6414
0.624849 78.120 170.5498
0.629377 78.105 170.4573
0.633938 78.089 170.3638
0.638532 78.074 170.2693
0.643159 78.058 170.1740
0.647819 78.043 170.0779
0.652514 78.027 169.9808
0.657242 78.011 169.8829
0.662005 77.995 169.7842
0.666802 77.979 169.6847
0.671634 77.963 169.5845
0.676501 77.947 169.4834
0.681403 77.930 169.3817
0.686341 77.914 169.2793
0.691314 77.897 169.1763
0.696324 77.880 169.0726
0.701370 77.863 168.9682
0.706452 77.845 168.8633
0.711571 77.827 168.7576
0.716728 77.809 168.6513
0.721921 77.789 168.5441
0.727153 77.767 168.4357
0.732422 77.744 168.3258
0.737729 77.719 168.2140
0.743075 77.692 168.0999
0.748460 77.663 167.9830
0.753883 77.634 167.8631
0.759346 77.604 167.7400
0.764849 77.574 167.6134
0.770391 77.543 167.4835
0.775974 77.513 167.3500
0.781597 77.482 167.2130
0.787261 77.452 167.0723
0.792966 77.421 166.9281
0.798712 77.390 166.7803
0.804500 77.359 166.6288
0.810329 77.328 166.4738
0.816201 77.296 166.3150
0.822116 77.264 166.1526
0.828073 77.232 165.9865
0.834074 77.199 165.8168
0.840118 77.165 165.6433
0.846206 77.131 165.4663
0.852338 77.096 165.2855
0.858514 77.061 165.1011
0.864735 77.024 164.9130
0.871001 76.987 164.7214
0.877313 76.949 164.5260
0.883670 76.909 164.3271
0.890074 76.868 164.1246
0.896524 76.826 163.9186
0.903020 76.782 163.7090
0.909564 76.737 163.4960
0.916155 76.691 163.2795
0.922794 76.642 163.0596
0.929481 76.592 162.8364
0.936216 76.540 162.6098
0.943000 76.485 162.3801
0.949834 76.428 162.1472
0.956717 76.369 161.9112
0.963649 76.308 161.6722
0.970632 76.244 161.4303
0.977666 76.177 161.1856
0.984750 76.107 160.9382
0.991886 76.034 160.6883
0.999074 75.958 160.4359
1.006314 75.878 160.1812
1.013606 75.795 159.9244
1.020951 75.707 159.6656
1.028349 75.616 159.4050
1.035801 75.521 159.1427
1.043307 75.422 158.8791
1.050867 75.317 158.6142
1.058482 75.208 158.3481
1.066152 75.094 158.0810
1.073878 74.974 157.8128
1.081660 74.848 157.5432
1.089498 74.715 157.2717
1.097393 74.574 156.9973
1.105345 74.424 156.7186
1.113355 74.263 156.4344
1.121423 74.092 156.1432
1.129549 73.910 155.8439
1.137734 73.716 155.5356
1.145979 73.510 155.2174
1.154283 73.293 154.8887
1.162647 73.065 154.5490
1.171072 72.827 154.1976
1.179558 72.578 153.8340
1.188106 72.320 153.4576
1.196715 72.053 153.0678
1.205387 71.778 152.6638
1.214122 71.495 152.2450
1.222920 71.205 151.8106
1.231782 70.910 151.3596
1.240708 70.609 150.8911
1.249699 70.304 150.4040
1.258754 69.996 149.8972
1.267876 69.685 149.3694
1.277063 69.372 148.8191
1.286318 69.059 148.2448
1.295639 68.747 147.6445
1.305027 68.437 147.0164
1.314484 68.129 146.3581
1.324009 67.826 145.6671
1.333604 67.529 144.9402
1.343268 67.239 144.1742
1.353002 66.957 143.3652
1.362806 66.685 142.5084
1.372681 66.425 141.5985
1.382628 66.179 140.6293
1.392647 65.947 139.5929
1.402739 65.733 138.4803
1.412904 65.538 137.2800
1.423142 65.363 135.9776
1.433455 65.211 134.5549
1.443843 65.083 132.9877
1.454305 64.979 131.2438
1.464844 64.902 129.2804
1.475459 64.850 127.0397
1.486150 64.823 124.4458
1.496920 64.821 121.3994
1.507767 64.842 117.7709
1.518693 64.886 113.3915
1.529698 64.953 108.0455
1.540783 65.040 101.4729
1.551948 65.148 93.4020
1.563194 65.276 83.6504
1.574521 65.422 72.3148
1.585931 65.585 59.9659
1.597423 65.765 47.5951
1.608999 65.961 36.2005
1.620658 66.172 26.3662
1.632402 66.396 18.1995
1.644232 66.632 11.5227
1.656146 66.879 6.0656
1.668147 67.136 1.5682
1.680235 67.401 -2.1848
1.692411 67.673 -5.3612
1.704675 67.951 -8.0883
1.717028 68.233 -10.4626
1.729470 68.517 -12.5573
1.742003 68.803 -14.4284
1.754626 69.088 -16.1190
1.767341 69.373 -17.6630
1.780147 69.655 -19.0870
1.793047 69.934 -20.4122
1.806040 70.211 -21.6553
1.819128 70.487 -22.8297
1.832310 70.764 -23.9458
1.845587 71.044 -25.0115
1.858961 71.329 -26.0327
1.872432 71.621 -27.0140
1.886001 71.921 -27.9587
1.899667 72.230 -28.8698
1.913433 72.546 -29.7499
1.927299 72.870 -30.6012
1.941265 73.200 -31.4257
1.955332 73.536 -32.2255
1.969501 73.877 -33.0022
1.983773 74.221 -33.7576
1.998148 74.568 -34.4933
2.012627 74.916 -35.2108
2.027212 75.264 -35.9116
2.041902 75.611 -36.5970
2.056698 75.955 -37.2683
2.071602 76.296 -37.9267
2.086614 76.631 -38.5736
2.101734 76.960 -39.2102
2.116964 77.281 -39.8377
2.132304 77.593 -40.4574
2.147756 77.895 -41.0708
2.163320 78.186 -41.6794
2.178996 78.466 -42.2848
2.194786 78.734 -42.8890
2.210690 78.990 -43.4937
2.226710 79.236 -44.1001
2.242845 79.472 -44.7089
2.259098 79.698 -45.3202
2.275468 79.916 -45.9336
2.291957 80.125 -46.5483
2.308566 80.327 -47.1634
2.325295 80.521 -47.7780
2.342145 80.709 -48.3912
2.359117 80.890 -49.0020
2.376212 81.066 -49.6096
2.393431 81.238 -50.2134
2.410775 81.404 -50.8128
2.428244 81.567 -51.4070
2.445840 81.727 -51.9958
2.463564 81.885 -52.5788
2.481416 82.041 -53.1561
2.499397 82.195 -53.7277
2.517509 82.349 -54.2942
2.535752 82.501 -54.8568
2.554127 82.652 -55.4170
2.572635 82.802 -55.9767
2.591277 82.950 -56.5380
2.610055 83.094 -57.1022
2.628968 83.235 -57.6702
2.648019 83.372 -58.2419
2.667208 83.506 -58.8167
2.686535 83.636 -59.3936
2.706003 83.762 -59.9714
2.725612 83.886 -60.5489
2.745363 84.005 -61.1247
2.765257 84.123 -61.6975
2.785295 84.237 -62.2660
2.805478 84.349 -62.8290
2.825808 84.459 -63.3855
2.846285 84.567 -63.9345
2.866910 84.673 -64.4757
2.887685 84.778 -65.0090
2.908611 84.881 -65.5352
2.929688 84.982 -66.0556
2.950917 85.081 -66.5721
2.972301 85.178 -67.0864
2.993839 85.271 -67.5999
3.015534 85.362 -68.1130
3.037386 85.451 -68.6256
3.059396 85.536 -69.1372
3.081565 85.619 -69.6468
3.103896 85.700 -70.1533
3.126388 85.778 -70.6552
3.149043 85.855 -71.1513
3.171862 85.929 -71.6402
3.194847 86.003 -72.1205
3.217998 86.075 -72.5913
3.241317 86.145 -73.0516
3.264805 86.214 -73.5012
3.288463 86.282 -73.9402
3.312293 86.349 -74.3696
3.336295 86.414 -74.7904
3.360471 86.476 -75.2038
3.384822 86.537 -75.6104
3.409350 86.596 -76.0106
3.434056 86.654 -76.4046
3.458940 86.709 -76.7921
3.484005 86.764 -77.1728
3.509252 86.817 -77.5460
3.534681 86.870 -77.9112
3.560295 86.921 -78.2678
3.586094 86.973 -78.6150
3.612081 87.024 -78.9523
3.638255 87.075 -79.2791
3.664620 87.125 -79.5952
3.691175 87.176 -79.9006
3.717923 87.225 -80.1955
3.744864 87.274 -80.4805
3.772001 87.323 -80.7562
3.799335 87.371 -81.0233
3.826866 87.419 -81.2828
3.854597 87.466 -81.5354
3.882529 87.514 -81.7819
3.910664 87.562 -82.0230
3.939002 87.610 -82.2590
3.967546 87.659 -82.4905
3.996296 87.709 -82.7172
4.025255 87.760 -82.9390
4.054423 87.811 -83.1554
4.083804 87.863 -83.3662
4.113396 87.916 -83.5714
4.143204 87.970 -83.7718
4.173227 88.024 -83.9683
4.203468 88.079 -84.1625
4.233928 88.135 -84.3558
4.264609 88.191 -84.5499
4.295512 88.248 -84.7462
4.326639 88.305 -84.9461
4.357992 88.364 -85.1501
4.389572 88.423 -85.3587
4.421380 88.483 -85.5718
4.453419 88.544 -85.7889
4.485691 88.606 -86.0099
4.518196 88.668 -86.2350
4.550936 88.731 -86.4647
4.583914 88.795 -86.6997
4.617131 88.859 -86.9410
4.650589 88.923 -87.1897
4.684289 88.986 -87.4465
4.718233 89.050 -87.7124
4.752424 89.114 -87.9880
4.786862 89.177 -88.2733
4.821549 89.240 -88.5683
4.856488 89.303 -88.8727
4.891680 89.366 -89.1859
4.927127 89.428 -89.5075
4.962831 89.490 -89.8369
4.998794 89.551 -90.1737
5.035017 89.611 -90.5177
5.071503 89.670 -90.8688
5.108253 89.728 -91.2272
5.145270 89.784 -91.5931
5.182555 89.840 -91.9667
5.220110 89.894 -92.3477
5.257937 89.946 -92.7356
5.296038 89.998 -93.1291
5.334415 90.048 -93.5271
5.373071 90.096 -93.9282
5.412006 90.144 -94.3312
5.451224 90.190 -94.7353
5.490725 90.234 -95.1403
5.530514 90.277 -95.5460
5.570590 90.318 -95.9526
5.610957 90.358 -96.3598
5.651616 90.396 -96.7671
5.692570 90.433 -97.1733
5.733821 90.470 -97.5775
5.775370 90.505 -97.9783
5.817221 90.539 -98.3747
5.859375 90.572 -98.7663
5.901834 90.604 -99.1528
5.944602 90.636 -99.5342
5.987679 90.667 -99.9107
6.031068 90.697 -100.2825
6.074771 90.727 -100.6494
6.118792 90.757 -101.0114
6.163131 90.787 -101.3681
6.207792 90.817 -101.7194
6.252776 90.847 -102.0651
6.298086 90.878 -102.4053
6.343725 90.909 -102.7405
6.389694 90.941 -103.0715
6.435996 90.973 -103.3991
6.482634 91.006 -103.7243
6.529610 91.039 -104.0481
6.576926 91.074 -104.3709
6.624585 91.110 -104.6932
6.672590 91.146 -105.0152
6.720942 91.184 -105.3376
6.769645 91.222 -105.6612
6.818700 91.262 -105.9870
6.868111 91.302 -106.3161
6.917881 91.343 -106.6496
6.968010 91.385 -106.9880
7.018504 91.427 -107.3318
7.069362 91.470 -107.6810
7.120590 91.514 -108.0358
7.172189 91.557 -108.3963
7.224161 91.601 -108.7627
7.276511 91.645 -109.1353
7.329239 91.689 -109.5142
7.382350 91.733 -109.8994
7.435845 91.776 -110.2905
7.489729 91.819 -110.6870
7.544002 91.862 -111.0880
7.598669 91.904 -111.4927
7.653732 91.945 -111.9004
7.709194 91.985 -112.3106
7.765058 92.025 -112.7227
7.821327 92.064 -113.1361
7.878004 92.102 -113.5499
7.935091 92.139 -113.9630
7.992592 92.175 -114.3742
8.050510 92.211 -114.7827
8.108847 92.246 -115.1878
8.167607 92.281 -115.5891
8.226793 92.315 -115.9861
8.286408 92.348 -116.3785
8.346454 92.381 -116.7655
8.406936 92.415 -117.1469
8.467856 92.448 -117.5222
8.529218 92.481 -117.8916
8.591024 92.514 -118.2552
8.653278 92.548 -118.6135
8.715983 92.582 -118.9666
8.779143 92.616 -119.3152
8.842760 92.651 -119.6594
8.906839 92.686 -119.9997
8.971381 92.722 -120.3368
9.036392 92.759 -120.6714
9.101873 92.796 -121.0043
9.167829 92.833 -121.3360
9.234263 92.872 -121.6671
9.301178 92.910 -121.9980
9.368578 92.949 -122.3290
9.436467 92.987 -122.6605
9.504847 93.026 -122.9927
9.573723 93.064 -123.3259
9.643099 93.102 -123.6599
9.712976 93.138 -123.9946
9.783361 93.173 -124.3296
9.854255 93.205 -124.6646
9.925663 93.235 -124.9992
9.997588 93.262 -125.3329
10.070035 93.285 -125.6652
10.143007 93.307 -125.9956
10.216507 93.325 -126.3233
10.290540 93.342 -126.6478
10.365109 93.357 -126.9686
10.440219 93.370 -127.2855
10.515873 93.383 -127.5981
10.592076 93.394 -127.9060
10.668830 93.405 -128.2092
10.746141 93.415 -128.5075
10.824012 93.425 -128.8013
10.902447 93.434 -129.0906
10.981451 93.444 -129.3758
11.061027 93.453 -129.6573
11.141180 93.462 -129.9355
11.221913 93.471 -130.2109
11.303232 93.480 -130.4841
11.385140 93.489 -130.7554
11.467641 93.497 -131.0255
11.550741 93.506 -131.2947
11.634442 93.514 -131.5633
11.718750 93.523 -131.8317
11.803669 93.531 -132.1001
11.889203 93.540 -132.3685
11.975357 93.548 -132.6369
12.062136 93.557 -132.9054
12.149543 93.565 -133.1738
12.237583 93.572 -133.4421
12.326262 93.580 -133.7099
12.415583 93.587 -133.9772
12.505552 93.593 -134.2438
12.596172 93.599 -134.5096
12.687449 93.604 -134.7745
12.779387 93.608 -135.0386
12.871992 93.613 -135.3018
12.965268 93.617 -135.5644
13.059220 93.620 -135.8264
13.153852 93.624 -136.0882
13.249170 93.627 -136.3498
13.345179 93.631 -136.6117
13.441884 93.634 -136.8740
13.539289 93.638 -137.1370
13.637401 93.642 -137.4009
13.736223 93.645 -137.6658
13.835761 93.649 -137.9318
13.936021 93.652 -138.1989
14.037007 93.655 -138.4673
14.138725 93.657 -138.7367
14.241180 93.660 -139.0073
14.344377 93.662 -139.2788
14.448323 93.664 -139.5512
14.553021 93.665 -139.8245
14.658478 93.667 -140.0986
14.764700 93.668 -140.3735
14.871691 93.670 -140.6492
14.979457 93.672 -140.9257
15.088005 93.673 -141.2031
15.197339 93.675 -141.4815
15.307465 93.677 -141.7608
15.418389 93.680 -142.0410
15.530117 93.682 -142.3221
15.642655 93.684 -142.6040
15.756008 93.686 -142.8864
15.870182 93.689 -143.1693
15.985184 93.691 -143.4523
16.101019 93.693 -143.7351
16.217694 93.696 -144.0176
16.335214 93.698 -144.2995
16.453586 93.701 -144.5806
16.572815 93.704 -144.8607
16.692909 93.707 -145.1398
16.813872 93.711 -145.4178
16.935713 93.715 -145.6946
17.058436 93.719 -145.9704
17.182048 93.725 -146.2450
17.306556 93.730 -146.5183
17.431967 93.735 -146.7902
17.558286 93.740 -147.0602
17.685521 93.746 -147.3279
17.813677 93.750 -147.5928
17.942762 93.755 -147.8540
18.072783 93.759 -148.1109
18.203746 93.764 -148.3628
18.335658 93.767 -148.6089
18.468526 93.771 -148.8487
18.602356 93.775 -149.0818
18.737156 93.780 -149.3082
18.872934 93.784 -149.5280
19.009695 93.790 -149.7415
19.147447 93.796 -149.9496
19.286197 93.803 -150.1529
19.425953 93.810 -150.3525
19.566721 93.818 -150.5494
19.708510 93.826 -150.7445
19.851326 93.835 -150.9388
19.995177 93.844 -151.1330
20.140070 93.853 -151.3276
20.286013 93.862 -151.5231
20.433014 93.871 -151.7197
20.581080 93.879 -151.9175
20.730219 93.888 -152.1167
20.880439 93.896 -152.3172
21.031747 93.904 -152.5191
21.184152 93.911 -152.7222
21.337661 93.919 -152.9268
21.492282 93.926 -153.1327
21.648024 93.932 -153.3398
21.804895 93.939 -153.5482
21.962902 93.944 -153.7576
22.122054 93.950 -153.9678
22.282360 93.954 -154.1788
22.443827 93.959 -154.3902
22.606464 93.962 -154.6021
22.770280 93.965 -154.8142
22.935283 93.968 -155.0266
23.101481 93.971 -155.2394
23.268884 93.973 -155.4528
23.437500 93.975 -155.6668
23.607338 93.977 -155.8815
23.778406 93.978 -156.0969
23.950714 93.979 -156.3129
24.124271 93.980 -156.5290
24.299086 93.981 -156.7451
24.475167 93.981 -156.9608
24.652524 93.982 -157.1759
24.831166 93.982 -157.3901
25.011103 93.983 -157.6035
25.192344 93.984 -157.8164
25.374898 93.985 -158.0290
25.558775 93.987 -158.2417
25.743984 93.988 -158.4548
25.930536 93.990 -158.6684
26.118439 93.992 -158.8823
26.307704 93.994 -159.0960
26.498341 93.996 -159.3088
26.690359 93.997 -159.5199
26.883768 93.998 -159.7284
27.078579 93.999 -159.9334
27.274801 94.000 -160.1345
27.472446 94.001 -160.3314
27.671522 94.001 -160.5242
27.872042 94.002 -160.7133
28.074014 94.003 -160.8994
28.277450 94.004 -161.0830
28.482360 94.005 -161.2648
28.688755 94.006 -161.4453
28.896645 94.007 -161.6247
29.106042 94.007 -161.8032
29.316957 94.008 -161.9807
29.529400 94.008 -162.1572
29.743382 94.008 -162.3326
29.958915 94.008 -162.5071
30.176009 94.008 -162.6808
30.394677 94.008 -162.8543
30.614929 94.007 -163.0280
30.836778 94.007 -163.2024
31.060234 94.007 -163.3782
31.285309 94.007 -163.5556
31.512015 94.006 -163.7347
31.740364 94.005 -163.9154
31.970368 94.004 -164.0972
32.202039 94.003 -164.2797
32.435388 94.001 -164.4623
32.670428 93.999 -164.6446
32.907171 93.997 -164.8265
33.145630 93.996 -165.0079
33.385817 93.994 -165.1893
33.627745 93.993 -165.3710
33.871425 93.991 -165.5533
34.116871 93.990 -165.7363
34.364096 93.989 -165.9198
34.613113 93.988 -166.1032
34.863934 93.987 -166.2859
35.116572 93.985 -166.4672
35.371041 93.984 -166.6467
35.627354 93.982 -166.8242
35.885525 93.981 -167.0000
36.145566 93.979 -167.1743
36.407492 93.978 -167.3474
36.671316 93.976 -167.5195
36.937051 93.974 -167.6903
37.204712 93.971 -167.8592
37.474313 93.968 -168.0255
37.745867 93.965 -168.1887
38.019389 93.961 -168.3484
38.294893 93.958 -168.5049
38.572394 93.954 -168.6588
38.851905 93.951 -168.8109
39.133442 93.947 -168.9621
39.417019 93.943 -169.1129
39.702651 93.940 -169.2634
39.990353 93.936 -169.4135
40.280140 93.932 -169.5630
40.572026 93.928 -169.7121
40.866028 93.924 -169.8611
41.162160 93.921 -170.0109
41.460438 93.917 -170.1620
41.760877 93.913 -170.3152
42.063494 93.909 -170.4701
42.368303 93.905 -170.6262
42.675322 93.900 -170.7822
42.984565 93.895 -170.9369
43.296048 93.889 -171.0894
43.609789 93.883 -171.2395
43.925804 93.877 -171.3875
44.244108 93.871 -171.5339
44.564719 93.866 -171.6796
44.887654 93.860 -171.8248
45.212928 93.854 -171.9698
45.540560 93.848 -172.1144
45.870565 93.842 -172.2583
46.202962 93.836 -172.4014
46.537768 93.831 -172.5438
46.875000 93.825 -172.6854
47.214676 93.819 -172.8267
47.556813 93.813 -172.9677
47.901429 93.808 -173.1086
48.248542 93.803 -173.2494
48.598171 93.798 -173.3902
48.950334 93.792 -173.5310
49.305048 93.787 -173.6719
49.662333 93.782 -173.8128
50.022206 93.777 -173.9533
50.384688 93.771 -174.0926
50.749796 93.765 -174.2296
51.117550 93.758 -174.3633
51.487969 93.752 -174.4932
51.861072 93.746 -174.6194
52.236879 93.739 -174.7429
52.615409 93.733 -174.8649
52.996681 93.728 -174.9866
53.380717 93.722 -175.1086
53.767536 93.716 -175.2309
54.157158 93.711 -175.3529
54.549603 93.705 -175.4742
54.944892 93.699 -175.5951
55.343045 93.694 -175.7168
55.744084 93.689 -175.8409
56.148028 93.685 -175.9684
56.554900 93.680 -176.1000
56.964720 93.676 -176.2359
57.377510 93.672 -176.3758
57.793291 93.667 -176.5197
58.212085 93.662 -176.6668
58.633914 93.656 -176.8160
59.058799 93.650 -176.9653
59.486764 93.643 -177.1127
59.917829 93.636 -177.2568
60.352019 93.629 -177.3978
60.789354 93.621 -177.5365
61.229859 93.614 -177.6738
61.673556 93.606 -177.8101
62.120468 93.597 -177.9449
62.570618 93.588 -178.0778
63.024031 93.579 -178.2086
63.480729 93.569 -178.3374
63.940736 93.559 -178.4644
64.404077 93.548 -178.5893
64.870776 93.536 -178.7121
65.340856 93.525 -178.8331
65.814343 93.514 -178.9532
66.291261 93.502 -179.0733
66.771635 93.491 -179.1940
67.255489 93.479 -179.3153
67.742850 93.468 -179.4372
68.233743 93.456 -179.5598
68.728193 93.445 -179.6832
69.226226 93.434 -179.8067
69.727867 93.422 -179.9292
70.233144 93.411 179.9509
70.742083 93.400 179.8343
71.254709 93.389 179.7209
71.771050 93.378 179.6098
72.291132 93.368 179.4994
72.814984 93.357 179.3882
73.342631 93.347 179.2760
73.874102 93.336 179.1636
74.409424 93.325 179.0526
74.948626 93.313 178.9441
75.491734 93.301 178.8384
76.038779 93.290 178.7343
76.589787 93.279 178.6302
77.144788 93.268 178.5245
77.703811 93.258 178.4155
78.266885 93.248 178.3018
78.834039 93.238 178.1812
79.405303 93.229 178.0518
79.980706 93.218 177.9128
80.560280 93.207 177.7661
81.144053 93.193 177.6151
81.732056 93.179 177.4631
82.324320 93.162 177.3119
82.920876 93.145 177.1620
83.521755 93.126 177.0143
84.126988 93.106 176.8696
