* Measurement data measured by REW V5.31.3
* Source: EXCL: Microphone (USB Sound Device        ), MICROPHONE (Master Volume), R, volume: 0.390
* Format: 256k Log Swept Sine, 1 sweep at -17.0 dBFS with no timing reference
* Dated: Jun 30, 2025 12:24:30 AM
* REW Settings:
*  C-weighting compensation: Off
*  Target level: 75.0 dB
* Note: Twistura Woodnote L
* Measurement: L Twistura Woodnote
* Smoothing: 1/12 octave
* Frequency Step: 96 ppo
* Start Frequency: 0.36621094 Hz
*
* Freq(Hz) SPL(dB) Phase(degrees)
0.366211 94.411 157.1488
0.368865 94.405 157.1251
0.371538 94.396 157.0896
0.374230 94.385 157.0449
0.376942 94.372 156.9934
0.379673 94.359 156.9367
0.382424 94.345 156.8761
0.385196 94.330 156.8121
0.387987 94.315 156.7451
0.390798 94.300 156.6755
0.393630 94.285 156.6031
0.396483 94.270 156.5282
0.399356 94.255 156.4507
0.402250 94.239 156.3705
0.405165 94.224 156.2877
0.408101 94.208 156.2023
0.411058 94.192 156.1142
0.414037 94.177 156.0234
0.417037 94.161 155.9298
0.420059 94.144 155.8335
0.423103 94.128 155.7345
0.426169 94.112 155.6326
0.429257 94.095 155.5279
0.432368 94.079 155.4203
0.435501 94.062 155.3099
0.438656 94.045 155.1966
0.441835 94.028 155.0803
0.445037 94.011 154.9611
0.448262 93.994 154.8389
0.451510 93.977 154.7137
0.454782 93.959 154.5855
0.458077 93.942 154.4543
0.461397 93.924 154.3200
0.464740 93.906 154.1826
0.468108 93.888 154.0421
0.471500 93.870 153.8985
0.474917 93.852 153.7518
0.478358 93.833 153.6020
0.481825 93.815 153.4489
0.485316 93.796 153.2927
0.488833 93.778 153.1333
0.492375 93.759 152.9707
0.495943 93.740 152.8050
0.499537 93.720 152.6360
0.503157 93.701 152.4637
0.506803 93.682 152.2883
0.510475 93.662 152.1096
0.514175 93.642 151.9277
0.517900 93.623 151.7425
0.521653 93.603 151.5541
0.525434 93.582 151.3625
0.529241 93.562 151.1677
0.533076 93.542 150.9697
0.536939 93.521 150.7684
0.540830 93.500 150.5640
0.544749 93.479 150.3565
0.548696 93.458 150.1458
0.552673 93.437 149.9319
0.556677 93.416 149.7150
0.560711 93.394 149.4950
0.564774 93.373 149.2720
0.568867 93.351 149.0460
0.572989 93.329 148.8170
0.577141 93.307 148.5852
0.581324 93.284 148.3504
0.585536 93.262 148.1129
0.589779 93.239 147.8727
0.594053 93.216 147.6297
0.598358 93.193 147.3841
0.602694 93.170 147.1360
0.607061 93.147 146.8854
0.611460 93.124 146.6325
0.615891 93.100 146.3772
0.620354 93.076 146.1198
0.624849 93.052 145.8603
0.629377 93.028 145.5988
0.633938 93.004 145.3355
0.638532 92.979 145.0704
0.643159 92.954 144.8037
0.647819 92.930 144.5355
0.652514 92.905 144.2661
0.657242 92.879 143.9954
0.662005 92.854 143.7238
0.666802 92.828 143.4514
0.671634 92.803 143.1783
0.676501 92.777 142.9047
0.681403 92.750 142.6310
0.686341 92.724 142.3572
0.691314 92.697 142.0835
0.696324 92.671 141.8103
0.701370 92.643 141.5376
0.706452 92.616 141.2656
0.711571 92.588 140.9945
0.716728 92.559 140.7241
0.721921 92.529 140.4543
0.727153 92.497 140.1845
0.732422 92.463 139.9140
0.737729 92.428 139.6416
0.743075 92.389 139.3664
0.748460 92.350 139.0873
0.753883 92.308 138.8036
0.759346 92.266 138.5147
0.764849 92.223 138.2203
0.770391 92.180 137.9201
0.775974 92.135 137.6140
0.781597 92.091 137.3018
0.787261 92.045 136.9834
0.792966 92.000 136.6588
0.798712 91.953 136.3278
0.804500 91.906 135.9905
0.810329 91.858 135.6467
0.816201 91.810 135.2963
0.822116 91.761 134.9395
0.828073 91.711 134.5759
0.834074 91.661 134.2058
0.840118 91.610 133.8289
0.846206 91.558 133.4454
0.852338 91.505 133.0551
0.858514 91.451 132.6580
0.864735 91.396 132.2542
0.871001 91.340 131.8437
0.877313 91.284 131.4264
0.883670 91.226 131.0025
0.890074 91.167 130.5719
0.896524 91.107 130.1347
0.903020 91.046 129.6910
0.909564 90.983 129.2408
0.916155 90.920 128.7844
0.922794 90.855 128.3217
0.929481 90.788 127.8530
0.936216 90.720 127.3784
0.943000 90.651 126.8981
0.949834 90.580 126.4124
0.956717 90.507 125.9214
0.963649 90.433 125.4255
0.970632 90.357 124.9249
0.977666 90.279 124.4201
0.984750 90.199 123.9113
0.991886 90.117 123.3990
0.999074 90.033 122.8837
1.006314 89.947 122.3658
1.013606 89.859 121.8458
1.020951 89.769 121.3245
1.028349 89.676 120.8024
1.035801 89.580 120.2802
1.043307 89.483 119.7586
1.050867 89.382 119.2384
1.058482 89.279 118.7205
1.066152 89.173 118.2055
1.073878 89.065 117.6941
1.081660 88.953 117.1870
1.089498 88.839 116.6843
1.097393 88.721 116.1860
1.105345 88.601 115.6916
1.113355 88.478 115.2004
1.121423 88.352 114.7115
1.129549 88.223 114.2241
1.137734 88.091 113.7376
1.145979 87.957 113.2512
1.154283 87.819 112.7645
1.162647 87.679 112.2769
1.171072 87.536 111.7879
1.179558 87.390 111.2970
1.188106 87.241 110.8036
1.196715 87.089 110.3073
1.205387 86.933 109.8073
1.214122 86.775 109.3032
1.222920 86.614 108.7943
1.231782 86.449 108.2799
1.240708 86.281 107.7594
1.249699 86.109 107.2319
1.258754 85.935 106.6967
1.267876 85.757 106.1530
1.277063 85.575 105.5998
1.286318 85.390 105.0363
1.295639 85.201 104.4614
1.305027 85.009 103.8741
1.314484 84.812 103.2733
1.324009 84.613 102.6578
1.333604 84.409 102.0264
1.343268 84.202 101.3778
1.353002 83.990 100.7107
1.362806 83.775 100.0236
1.372681 83.555 99.3152
1.382628 83.332 98.5840
1.392647 83.104 97.8286
1.402739 82.872 97.0474
1.412904 82.635 96.2391
1.423142 82.394 95.4025
1.433455 82.147 94.5365
1.443843 81.893 93.6404
1.454305 81.632 92.7134
1.464844 81.362 91.7552
1.475459 81.079 90.7648
1.486150 80.783 89.7409
1.496920 80.470 88.6807
1.507767 80.141 87.5804
1.518693 79.796 86.4347
1.529698 79.433 85.2369
1.540783 79.055 83.9789
1.551948 78.662 82.6506
1.563194 78.256 81.2403
1.574521 77.838 79.7332
1.585931 77.411 78.1121
1.597423 76.975 76.3552
1.608999 76.534 74.4362
1.620658 76.088 72.3222
1.632402 75.641 69.9725
1.644232 75.195 67.3357
1.656146 74.752 64.3477
1.668147 74.315 60.9279
1.680235 73.888 56.9761
1.692411 73.472 52.3713
1.704675 73.071 46.9730
1.717028 72.689 40.6343
1.729470 72.330 33.2326
1.742003 71.997 24.7282
1.754626 71.694 15.2435
1.767341 71.426 5.1202
1.780147 71.198 -5.1171
1.793047 71.014 -14.9132
1.806040 70.879 -23.8571
1.819128 70.797 -31.7638
1.832310 70.773 -38.6396
1.845587 70.807 -44.5993
1.858961 70.903 -49.7921
1.872432 71.058 -54.3585
1.886001 71.271 -58.4154
1.899667 71.538 -62.0540
1.913433 71.855 -65.3449
1.927299 72.219 -68.3427
1.941265 72.623 -71.0896
1.955332 73.062 -73.6189
1.969501 73.532 -75.9574
1.983773 74.027 -78.1263
1.998148 74.541 -80.1431
2.012627 75.069 -82.0221
2.027212 75.605 -83.7752
2.041902 76.144 -85.4122
2.056698 76.680 -86.9412
2.071602 77.207 -88.3693
2.086614 77.720 -89.7023
2.101734 78.214 -90.9457
2.116964 78.683 -92.1046
2.132304 79.124 -93.1841
2.147756 79.532 -94.1904
2.163320 79.905 -95.1311
2.178996 80.243 -96.0158
2.194786 80.545 -96.8567
2.210690 80.816 -97.6676
2.226710 81.057 -98.4614
2.242845 81.273 -99.2485
2.259098 81.466 -100.0352
2.275468 81.638 -100.8247
2.291957 81.792 -101.6175
2.308566 81.929 -102.4123
2.325295 82.049 -103.2069
2.342145 82.155 -103.9981
2.359117 82.247 -104.7823
2.376212 82.327 -105.5557
2.393431 82.396 -106.3140
2.410775 82.455 -107.0527
2.428244 82.506 -107.7674
2.445840 82.550 -108.4532
2.463564 82.588 -109.1056
2.481416 82.622 -109.7203
2.499397 82.652 -110.2935
2.517509 82.680 -110.8226
2.535752 82.706 -111.3070
2.554127 82.729 -111.7483
2.572635 82.747 -112.1505
2.591277 82.761 -112.5192
2.610055 82.766 -112.8599
2.628968 82.764 -113.1766
2.648019 82.754 -113.4719
2.667208 82.735 -113.7463
2.686535 82.708 -113.9994
2.706003 82.674 -114.2297
2.725612 82.633 -114.4348
2.745363 82.586 -114.6119
2.765257 82.536 -114.7574
2.785295 82.482 -114.8676
2.805478 82.425 -114.9379
2.825808 82.368 -114.9639
2.846285 82.310 -114.9404
2.866910 82.253 -114.8624
2.887685 82.197 -114.7248
2.908611 82.143 -114.5227
2.929688 82.088 -114.2516
2.950917 82.033 -113.9080
2.972301 81.977 -113.4892
2.993839 81.918 -112.9940
3.015534 81.857 -112.4223
3.037386 81.794 -111.7753
3.059396 81.731 -111.0549
3.081565 81.668 -110.2646
3.103896 81.607 -109.4084
3.126388 81.549 -108.4916
3.149043 81.498 -107.5205
3.171862 81.454 -106.5022
3.194847 81.419 -105.4443
3.217998 81.397 -104.3543
3.241317 81.388 -103.2387
3.264805 81.394 -102.1023
3.288463 81.416 -100.9472
3.312293 81.455 -99.7731
3.336295 81.511 -98.5795
3.360471 81.584 -97.3685
3.384822 81.672 -96.1458
3.409350 81.774 -94.9208
3.434056 81.889 -93.7053
3.458940 82.014 -92.5128
3.484005 82.149 -91.3572
3.509252 82.291 -90.2517
3.534681 82.439 -89.2088
3.560295 82.592 -88.2390
3.586094 82.747 -87.3509
3.612081 82.904 -86.5503
3.638255 83.064 -85.8395
3.664620 83.226 -85.2177
3.691175 83.391 -84.6812
3.717923 83.560 -84.2247
3.744864 83.733 -83.8426
3.772001 83.910 -83.5298
3.799335 84.089 -83.2819
3.826866 84.270 -83.0950
3.854597 84.451 -82.9654
3.882529 84.631 -82.8902
3.910664 84.806 -82.8669
3.939002 84.977 -82.8938
3.967546 85.141 -82.9698
3.996296 85.298 -83.0947
4.025255 85.448 -83.2689
4.054423 85.590 -83.4931
4.083804 85.724 -83.7667
4.113396 85.852 -84.0874
4.143204 85.972 -84.4512
4.173227 86.087 -84.8524
4.203468 86.194 -85.2847
4.233928 86.296 -85.7416
4.264609 86.390 -86.2168
4.295512 86.478 -86.7053
4.326639 86.558 -87.2036
4.357992 86.631 -87.7101
4.389572 86.697 -88.2258
4.421380 86.755 -88.7531
4.453419 86.805 -89.2948
4.485691 86.846 -89.8518
4.518196 86.880 -90.4224
4.550936 86.907 -91.0028
4.583914 86.926 -91.5873
4.617131 86.938 -92.1692
4.650589 86.944 -92.7418
4.684289 86.944 -93.2987
4.718233 86.938 -93.8355
4.752424 86.925 -94.3496
4.786862 86.906 -94.8411
4.821549 86.881 -95.3112
4.856488 86.849 -95.7615
4.891680 86.811 -96.1920
4.927127 86.768 -96.6018
4.962831 86.720 -96.9882
4.998794 86.669 -97.3478
5.035017 86.615 -97.6763
5.071503 86.559 -97.9693
5.108253 86.502 -98.2228
5.145270 86.443 -98.4337
5.182555 86.383 -98.6006
5.220110 86.322 -98.7238
5.257937 86.261 -98.8053
5.296038 86.200 -98.8485
5.334415 86.140 -98.8574
5.373071 86.083 -98.8360
5.412006 86.030 -98.7878
5.451224 85.982 -98.7150
5.490725 85.941 -98.6189
5.530514 85.906 -98.4994
5.570590 85.878 -98.3578
5.610957 85.856 -98.1975
5.651616 85.841 -98.0251
5.692570 85.832 -97.8494
5.733821 85.829 -97.6803
5.775370 85.834 -97.5276
5.817221 85.845 -97.3993
5.859375 85.863 -97.3009
5.901834 85.888 -97.2353
5.944602 85.920 -97.2041
5.987679 85.959 -97.2089
6.031068 86.003 -97.2528
6.074771 86.051 -97.3397
6.118792 86.101 -97.4739
6.163131 86.154 -97.6598
6.207792 86.207 -97.9008
6.252776 86.260 -98.1986
6.298086 86.314 -98.5530
6.343725 86.368 -98.9614
6.389694 86.420 -99.4203
6.435996 86.471 -99.9252
6.482634 86.520 -100.4722
6.529610 86.565 -101.0582
6.576926 86.606 -101.6813
6.624585 86.642 -102.3408
6.672590 86.674 -103.0352
6.720942 86.701 -103.7613
6.769645 86.723 -104.5137
6.818700 86.741 -105.2857
6.868111 86.754 -106.0703
6.917881 86.762 -106.8616
6.968010 86.765 -107.6559
7.018504 86.763 -108.4511
7.069362 86.757 -109.2453
7.120590 86.747 -110.0353
7.172189 86.733 -110.8164
7.224161 86.716 -111.5830
7.276511 86.698 -112.3297
7.329239 86.677 -113.0520
7.382350 86.656 -113.7475
7.435845 86.634 -114.4151
7.489729 86.611 -115.0548
7.544002 86.590 -115.6662
7.598669 86.571 -116.2491
7.653732 86.555 -116.8025
7.709194 86.543 -117.3260
7.765058 86.535 -117.8200
7.821327 86.532 -118.2863
7.878004 86.534 -118.7287
7.935091 86.542 -119.1520
7.992592 86.556 -119.5610
8.050510 86.577 -119.9598
8.108847 86.605 -120.3512
8.167607 86.639 -120.7384
8.226793 86.680 -121.1247
8.286408 86.726 -121.5148
8.346454 86.778 -121.9133
8.406936 86.835 -122.3242
8.467856 86.896 -122.7500
8.529218 86.961 -123.1917
8.591024 87.029 -123.6494
8.653278 87.100 -124.1230
8.715983 87.172 -124.6123
8.779143 87.244 -125.1168
8.842760 87.316 -125.6357
8.906839 87.387 -126.1668
8.971381 87.458 -126.7070
9.036392 87.527 -127.2526
9.101873 87.593 -127.7995
9.167829 87.658 -128.3446
9.234263 87.720 -128.8848
9.301178 87.779 -129.4172
9.368578 87.836 -129.9381
9.436467 87.890 -130.4438
9.504847 87.942 -130.9309
9.573723 87.992 -131.3968
9.643099 88.041 -131.8399
9.712976 88.087 -132.2591
9.783361 88.133 -132.6535
9.854255 88.178 -133.0223
9.925663 88.223 -133.3655
9.997588 88.268 -133.6836
10.070035 88.313 -133.9780
10.143007 88.359 -134.2507
10.216507 88.406 -134.5038
10.290540 88.453 -134.7395
10.365109 88.501 -134.9597
10.440219 88.550 -135.1669
10.515873 88.599 -135.3634
10.592076 88.649 -135.5519
10.668830 88.699 -135.7342
10.746141 88.748 -135.9117
10.824012 88.798 -136.0856
10.902447 88.846 -136.2566
10.981451 88.893 -136.4254
11.061027 88.939 -136.5920
11.141180 88.984 -136.7565
11.221913 89.026 -136.9182
11.303232 89.067 -137.0767
11.385140 89.105 -137.2312
11.467641 89.141 -137.3814
11.550741 89.176 -137.5267
11.634442 89.208 -137.6671
11.718750 89.239 -137.8023
11.803669 89.267 -137.9325
11.889203 89.294 -138.0584
11.975357 89.320 -138.1808
12.062136 89.344 -138.3008
12.149543 89.366 -138.4194
12.237583 89.388 -138.5381
12.326262 89.408 -138.6580
12.415583 89.426 -138.7806
12.505552 89.442 -138.9069
12.596172 89.457 -139.0377
12.687449 89.470 -139.1734
12.779387 89.481 -139.3144
12.871992 89.490 -139.4606
12.965268 89.497 -139.6115
13.059220 89.501 -139.7665
13.153852 89.503 -139.9247
13.249170 89.503 -140.0853
13.345179 89.500 -140.2475
13.441884 89.497 -140.4107
13.539289 89.491 -140.5745
13.637401 89.485 -140.7388
13.736223 89.478 -140.9043
13.835761 89.470 -141.0718
13.936021 89.463 -141.2427
14.037007 89.456 -141.4188
14.138725 89.450 -141.6021
14.241180 89.444 -141.7949
14.344377 89.440 -141.9994
14.448323 89.436 -142.2175
14.553021 89.433 -142.4509
14.658478 89.430 -142.7007
14.764700 89.428 -142.9675
14.871691 89.426 -143.2511
14.979457 89.424 -143.5507
15.088005 89.422 -143.8649
15.197339 89.420 -144.1919
15.307465 89.417 -144.5292
15.418389 89.414 -144.8743
15.530117 89.411 -145.2249
15.642655 89.409 -145.5786
15.756008 89.407 -145.9336
15.870182 89.406 -146.2883
15.985184 89.407 -146.6419
16.101019 89.410 -146.9940
16.217694 89.415 -147.3448
16.335214 89.422 -147.6949
16.453586 89.432 -148.0451
16.572815 89.445 -148.3962
16.692909 89.460 -148.7488
16.813872 89.477 -149.1033
16.935713 89.496 -149.4596
17.058436 89.516 -149.8172
17.182048 89.538 -150.1749
17.306556 89.561 -150.5312
17.431967 89.585 -150.8841
17.558286 89.609 -151.2314
17.685521 89.633 -151.5711
17.813677 89.658 -151.9009
17.942762 89.682 -152.2193
18.072783 89.707 -152.5247
18.203746 89.732 -152.8162
18.335658 89.757 -153.0933
18.468526 89.782 -153.3559
18.602356 89.808 -153.6039
18.737156 89.833 -153.8380
18.872934 89.859 -154.0585
19.009695 89.884 -154.2661
19.147447 89.908 -154.4613
19.286197 89.932 -154.6448
19.425953 89.956 -154.8172
19.566721 89.978 -154.9792
19.708510 90.000 -155.1318
19.851326 90.020 -155.2759
19.995177 90.039 -155.4129
20.140070 90.057 -155.5441
20.286013 90.074 -155.6709
20.433014 90.089 -155.7946
20.581080 90.103 -155.9165
20.730219 90.114 -156.0374
20.880439 90.124 -156.1581
21.031747 90.131 -156.2789
21.184152 90.137 -156.4000
21.337661 90.140 -156.5215
21.492282 90.141 -156.6435
21.648024 90.140 -156.7666
21.804895 90.138 -156.8914
21.962902 90.135 -157.0192
22.122054 90.131 -157.1516
22.282360 90.125 -157.2903
22.443827 90.120 -157.4371
22.606464 90.113 -157.5937
22.770280 90.107 -157.7612
22.935283 90.099 -157.9401
23.101481 90.091 -158.1301
23.268884 90.082 -158.3306
23.437500 90.073 -158.5399
23.607338 90.064 -158.7567
23.778406 90.055 -158.9794
23.950714 90.046 -159.2065
24.124271 90.039 -159.4374
24.299086 90.033 -159.6718
24.475167 90.028 -159.9097
24.652524 90.026 -160.1517
24.831166 90.025 -160.3983
25.011103 90.027 -160.6497
25.192344 90.030 -160.9058
25.374898 90.035 -161.1660
25.558775 90.042 -161.4291
25.743984 90.050 -161.6934
25.930536 90.059 -161.9571
26.118439 90.069 -162.2181
26.307704 90.080 -162.4743
26.498341 90.092 -162.7239
26.690359 90.104 -162.9652
26.883768 90.116 -163.1967
27.078579 90.128 -163.4174
27.274801 90.141 -163.6265
27.472446 90.154 -163.8237
27.671522 90.166 -164.0090
27.872042 90.179 -164.1829
28.074014 90.191 -164.3463
28.277450 90.203 -164.5002
28.482360 90.214 -164.6457
28.688755 90.224 -164.7841
28.896645 90.233 -164.9162
29.106042 90.241 -165.0427
29.316957 90.247 -165.1644
29.529400 90.252 -165.2819
29.743382 90.256 -165.3965
29.958915 90.259 -165.5097
30.176009 90.261 -165.6234
30.394677 90.262 -165.7399
30.614929 90.262 -165.8615
30.836778 90.261 -165.9899
31.060234 90.259 -166.1263
31.285309 90.256 -166.2710
31.512015 90.251 -166.4234
31.740364 90.246 -166.5828
31.970368 90.241 -166.7481
32.202039 90.235 -166.9188
32.435388 90.229 -167.0945
32.670428 90.223 -167.2755
32.907171 90.219 -167.4620
33.145630 90.214 -167.6544
33.385817 90.211 -167.8522
33.627745 90.208 -168.0546
33.871425 90.206 -168.2602
34.116871 90.205 -168.4671
34.364096 90.204 -168.6734
34.613113 90.204 -168.8774
34.863934 90.205 -169.0776
35.116572 90.206 -169.2731
35.371041 90.208 -169.4631
35.627354 90.210 -169.6471
35.885525 90.213 -169.8250
36.145566 90.216 -169.9964
36.407492 90.219 -170.1615
36.671316 90.222 -170.3203
36.937051 90.225 -170.4732
37.204712 90.228 -170.6208
37.474313 90.230 -170.7638
37.745867 90.231 -170.9029
38.019389 90.232 -171.0388
38.294893 90.232 -171.1722
38.572394 90.232 -171.3037
38.851905 90.231 -171.4343
39.133442 90.229 -171.5650
39.417019 90.227 -171.6969
39.702651 90.224 -171.8316
39.990353 90.221 -171.9703
40.280140 90.218 -172.1138
40.572026 90.214 -172.2619
40.866028 90.209 -172.4138
41.162160 90.204 -172.5675
41.460438 90.199 -172.7212
41.760877 90.194 -172.8732
42.063494 90.189 -173.0229
42.368303 90.185 -173.1705
42.675322 90.181 -173.3176
42.984565 90.179 -173.4653
43.296048 90.177 -173.6148
43.609789 90.175 -173.7662
43.925804 90.174 -173.9190
44.244108 90.173 -174.0720
44.564719 90.171 -174.2242
44.887654 90.169 -174.3747
45.212928 90.166 -174.5229
45.540560 90.163 -174.6686
45.870565 90.160 -174.8116
46.202962 90.157 -174.9518
46.537768 90.153 -175.0896
46.875000 90.149 -175.2256
47.214676 90.145 -175.3603
47.556813 90.140 -175.4946
47.901429 90.136 -175.6287
48.248542 90.132 -175.7628
48.598171 90.128 -175.8965
48.950334 90.123 -176.0294
49.305048 90.119 -176.1614
49.662333 90.115 -176.2926
50.022206 90.112 -176.4235
50.384688 90.108 -176.5547
50.749796 90.105 -176.6863
51.117550 90.101 -176.8176
51.487969 90.097 -176.9476
51.861072 90.092 -177.0751
52.236879 90.087 -177.1994
52.615409 90.082 -177.3206
52.996681 90.076 -177.4395
53.380717 90.071 -177.5568
53.767536 90.065 -177.6730
54.157158 90.059 -177.7885
54.549603 90.053 -177.9035
54.944892 90.047 -178.0191
55.343045 90.042 -178.1370
55.744084 90.038 -178.2585
56.148028 90.034 -178.3850
56.554900 90.030 -178.5166
56.964720 90.026 -178.6530
57.377510 90.023 -178.7937
57.793291 90.020 -178.9378
58.212085 90.017 -179.0841
58.633914 90.013 -179.2311
59.058799 90.009 -179.3773
59.486764 90.005 -179.5220
59.917829 90.000 -179.6649
60.352019 89.995 -179.8063
60.789354 89.989 -179.9462
61.229859 89.982 179.9162
61.673556 89.974 179.7817
62.120468 89.965 179.6510
62.570618 89.956 179.5238
63.024031 89.947 179.3991
63.480729 89.938 179.2756
63.940736 89.929 179.1523
64.404077 89.920 179.0282
64.870776 89.911 178.9026
65.340856 89.903 178.7750
65.814343 89.896 178.6449
66.291261 89.888 178.5126
66.771635 89.881 178.3788
67.255489 89.874 178.2450
67.742850 89.866 178.1134
68.233743 89.858 177.9855
68.728193 89.851 177.8620
69.226226 89.843 177.7421
69.727867 89.835 177.6245
70.233144 89.826 177.5075
70.742083 89.817 177.3904
71.254709 89.808 177.2729
71.771050 89.798 177.1556
72.291132 89.787 177.0390
72.814984 89.776 176.9238
73.342631 89.765 176.8102
73.874102 89.754 176.6980
74.409424 89.743 176.5862
74.948626 89.733 176.4734
75.491734 89.724 176.3582
76.038779 89.715 176.2399
76.589787 89.706 176.1187
77.144788 89.698 175.9949
77.703811 89.690 175.8691
78.266885 89.682 175.7408
78.834039 89.675 175.6096
79.405303 89.667 175.4749
79.980706 89.660 175.3363
80.560280 89.652 175.1931
81.144053 89.644 175.0434
81.732056 89.635 174.8860
82.324320 89.624 174.7220
82.920876 89.611 174.5554
83.521755 89.595 174.3917
84.126988 89.577 174.2360
