* Measurement data measured by REW V5.31.3
* Source: EXCL: Microphone (USB Sound Device        ), MICROPHONE (Master Volume), R, volume: 0.390
* Format: 256k Log Swept Sine, 1 sweep at -12.0 dBFS with no timing reference
* Dated: Apr 8, 2025 11:58:41 PM
* REW Settings:
*  C-weighting compensation: Off
*  Target level: 75.0 dB
* Note: Ziigaat Lush R
* Measurement: R Ziigaat Lush
* Smoothing: 1/12 octave
* Frequency Step: 96 ppo
* Start Frequency: 0.36621094 Hz
*
* Freq(Hz) SPL(dB) Phase(degrees)
0.366211 90.533 175.7479
0.368865 90.534 175.7388
0.371538 90.535 175.7251
0.374230 90.537 175.7082
0.376942 90.539 175.6888
0.379673 90.541 175.6677
0.382424 90.543 175.6454
0.385196 90.545 175.6221
0.387987 90.547 175.5981
0.390798 90.549 175.5734
0.393630 90.552 175.5480
0.396483 90.554 175.5220
0.399356 90.556 175.4954
0.402250 90.559 175.4681
0.405165 90.561 175.4402
0.408101 90.564 175.4117
0.411058 90.566 175.3826
0.414037 90.568 175.3528
0.417037 90.571 175.3224
0.420059 90.573 175.2913
0.423103 90.576 175.2595
0.426169 90.578 175.2271
0.429257 90.581 175.1939
0.432368 90.583 175.1601
0.435501 90.586 175.1256
0.438656 90.588 175.0904
0.441835 90.591 175.0545
0.445037 90.594 175.0179
0.448262 90.596 174.9805
0.451510 90.599 174.9424
0.454782 90.602 174.9036
0.458077 90.604 174.8640
0.461397 90.607 174.8237
0.464740 90.610 174.7826
0.468108 90.612 174.7408
0.471500 90.615 174.6981
0.474917 90.618 174.6547
0.478358 90.621 174.6105
0.481825 90.624 174.5655
0.485316 90.626 174.5197
0.488833 90.629 174.4731
0.492375 90.632 174.4256
0.495943 90.635 174.3774
0.499537 90.638 174.3283
0.503157 90.641 174.2784
0.506803 90.644 174.2276
0.510475 90.647 174.1759
0.514175 90.650 174.1235
0.517900 90.653 174.0701
0.521653 90.656 174.0159
0.525434 90.659 173.9608
0.529241 90.662 173.9048
0.533076 90.665 173.8479
0.536939 90.668 173.7901
0.540830 90.672 173.7314
0.544749 90.675 173.6718
0.548696 90.678 173.6112
0.552673 90.681 173.5498
0.556677 90.684 173.4874
0.560711 90.688 173.4240
0.564774 90.691 173.3598
0.568867 90.694 173.2945
0.572989 90.698 173.2284
0.577141 90.701 173.1612
0.581324 90.705 173.0931
0.585536 90.708 173.0240
0.589779 90.711 172.9539
0.594053 90.715 172.8829
0.598358 90.718 172.8109
0.602694 90.722 172.7378
0.607061 90.726 172.6638
0.611460 90.729 172.5887
0.615891 90.733 172.5126
0.620354 90.736 172.4356
0.624849 90.740 172.3575
0.629377 90.744 172.2783
0.633938 90.747 172.1981
0.638532 90.751 172.1169
0.643159 90.755 172.0347
0.647819 90.759 171.9514
0.652514 90.762 171.8670
0.657242 90.766 171.7816
0.662005 90.770 171.6951
0.666802 90.774 171.6076
0.671634 90.778 171.5189
0.676501 90.782 171.4292
0.681403 90.786 171.3385
0.686341 90.790 171.2466
0.691314 90.794 171.1536
0.696324 90.798 171.0596
0.701370 90.802 170.9644
0.706452 90.806 170.8681
0.711571 90.810 170.7706
0.716728 90.814 170.6719
0.721921 90.819 170.5720
0.727153 90.822 170.4707
0.732422 90.826 170.3679
0.737729 90.830 170.2635
0.743075 90.833 170.1573
0.748460 90.837 170.0492
0.753883 90.840 169.9391
0.759346 90.843 169.8270
0.764849 90.847 169.7127
0.770391 90.850 169.5964
0.775974 90.853 169.4779
0.781597 90.857 169.3573
0.787261 90.860 169.2346
0.792966 90.863 169.1097
0.798712 90.867 168.9827
0.804500 90.870 168.8537
0.810329 90.873 168.7225
0.816201 90.877 168.5892
0.822116 90.880 168.4538
0.828073 90.883 168.3164
0.834074 90.887 168.1769
0.840118 90.890 168.0354
0.846206 90.893 167.8918
0.852338 90.897 167.7462
0.858514 90.900 167.5986
0.864735 90.903 167.4490
0.871001 90.906 167.2975
0.877313 90.910 167.1440
0.883670 90.913 166.9886
0.890074 90.916 166.8313
0.896524 90.919 166.6721
0.903020 90.922 166.5110
0.909564 90.925 166.3481
0.916155 90.928 166.1834
0.922794 90.931 166.0170
0.929481 90.933 165.8488
0.936216 90.936 165.6788
0.943000 90.939 165.5072
0.949834 90.941 165.3340
0.956717 90.944 165.1591
0.963649 90.946 164.9827
0.970632 90.948 164.8047
0.977666 90.951 164.6252
0.984750 90.953 164.4443
0.991886 90.955 164.2619
0.999074 90.956 164.0782
1.006314 90.958 163.8931
1.013606 90.960 163.7067
1.020951 90.961 163.5191
1.028349 90.962 163.3303
1.035801 90.963 163.1403
1.043307 90.964 162.9492
1.050867 90.965 162.7571
1.058482 90.965 162.5639
1.066152 90.966 162.3696
1.073878 90.966 162.1742
1.081660 90.966 161.9777
1.089498 90.965 161.7798
1.097393 90.965 161.5804
1.105345 90.964 161.3790
1.113355 90.963 161.1753
1.121423 90.962 160.9691
1.129549 90.961 160.7602
1.137734 90.960 160.5483
1.145979 90.958 160.3335
1.154283 90.956 160.1157
1.162647 90.954 159.8948
1.171072 90.952 159.6710
1.179558 90.949 159.4442
1.188106 90.947 159.2145
1.196715 90.944 158.9819
1.205387 90.941 158.7465
1.214122 90.937 158.5082
1.222920 90.934 158.2673
1.231782 90.930 158.0236
1.240708 90.926 157.7773
1.249699 90.922 157.5285
1.258754 90.918 157.2772
1.267876 90.913 157.0235
1.277063 90.908 156.7675
1.286318 90.903 156.5093
1.295639 90.898 156.2490
1.305027 90.892 155.9866
1.314484 90.886 155.7223
1.324009 90.880 155.4561
1.333604 90.873 155.1883
1.343268 90.867 154.9189
1.353002 90.860 154.6481
1.362806 90.852 154.3759
1.372681 90.845 154.1026
1.382628 90.837 153.8282
1.392647 90.829 153.5530
1.402739 90.820 153.2771
1.412904 90.811 153.0005
1.423142 90.802 152.7234
1.433455 90.793 152.4459
1.443843 90.783 152.1678
1.454305 90.773 151.8890
1.464844 90.762 151.6092
1.475459 90.751 151.3279
1.486150 90.740 151.0447
1.496920 90.728 150.7592
1.507767 90.716 150.4713
1.518693 90.703 150.1805
1.529698 90.689 149.8871
1.540783 90.675 149.5908
1.551948 90.661 149.2918
1.563194 90.646 148.9902
1.574521 90.631 148.6859
1.585931 90.615 148.3793
1.597423 90.599 148.0702
1.608999 90.583 147.7590
1.620658 90.566 147.4457
1.632402 90.548 147.1306
1.644232 90.531 146.8137
1.656146 90.513 146.4952
1.668147 90.494 146.1755
1.680235 90.475 145.8546
1.692411 90.456 145.5329
1.704675 90.437 145.2106
1.717028 90.417 144.8878
1.729470 90.398 144.5651
1.742003 90.377 144.2425
1.754626 90.357 143.9204
1.767341 90.337 143.5991
1.780147 90.316 143.2790
1.793047 90.295 142.9601
1.806040 90.274 142.6427
1.819128 90.253 142.3269
1.832310 90.231 142.0125
1.845587 90.209 141.6993
1.858961 90.186 141.3871
1.872432 90.163 141.0756
1.886001 90.140 140.7646
1.899667 90.115 140.4540
1.913433 90.091 140.1437
1.927299 90.065 139.8336
1.941265 90.040 139.5238
1.955332 90.014 139.2142
1.969501 89.987 138.9050
1.983773 89.960 138.5961
1.998148 89.934 138.2877
2.012627 89.907 137.9799
2.027212 89.880 137.6727
2.041902 89.853 137.3664
2.056698 89.826 137.0611
2.071602 89.799 136.7570
2.086614 89.773 136.4543
2.101734 89.747 136.1532
2.116964 89.722 135.8542
2.132304 89.697 135.5574
2.147756 89.673 135.2634
2.163320 89.650 134.9726
2.178996 89.627 134.6855
2.194786 89.605 134.4028
2.210690 89.583 134.1252
2.226710 89.562 133.8530
2.242845 89.541 133.5867
2.259098 89.520 133.3264
2.275468 89.500 133.0719
2.291957 89.479 132.8229
2.308566 89.460 132.5790
2.325295 89.440 132.3399
2.342145 89.422 132.1050
2.359117 89.404 131.8738
2.376212 89.387 131.6457
2.393431 89.371 131.4200
2.410775 89.356 131.1963
2.428244 89.342 130.9738
2.445840 89.330 130.7520
2.463564 89.319 130.5302
2.481416 89.310 130.3081
2.499397 89.303 130.0854
2.517509 89.298 129.8620
2.535752 89.295 129.6382
2.554127 89.294 129.4150
2.572635 89.295 129.1935
2.591277 89.299 128.9751
2.610055 89.304 128.7610
2.628968 89.312 128.5516
2.648019 89.322 128.3468
2.667208 89.334 128.1461
2.686535 89.348 127.9487
2.706003 89.364 127.7531
2.725612 89.382 127.5582
2.745363 89.402 127.3624
2.765257 89.424 127.1641
2.785295 89.449 126.9617
2.805478 89.475 126.7536
2.825808 89.504 126.5383
2.846285 89.534 126.3143
2.866910 89.567 126.0807
2.887685 89.602 125.8367
2.908611 89.640 125.5823
2.929688 89.680 125.3181
2.950917 89.723 125.0455
2.972301 89.768 124.7658
2.993839 89.817 124.4799
3.015534 89.868 124.1884
3.037386 89.922 123.8912
3.059396 89.979 123.5877
3.081565 90.038 123.2773
3.103896 90.099 122.9588
3.126388 90.163 122.6312
3.149043 90.228 122.2932
3.171862 90.295 121.9436
3.194847 90.363 121.5812
3.217998 90.432 121.2049
3.241317 90.502 120.8138
3.264805 90.574 120.4071
3.288463 90.646 119.9848
3.312293 90.720 119.5471
3.336295 90.795 119.0947
3.360471 90.871 118.6285
3.384822 90.949 118.1494
3.409350 91.029 117.6583
3.434056 91.110 117.1560
3.458940 91.192 116.6430
3.484005 91.274 116.1200
3.509252 91.358 115.5872
3.534681 91.442 115.0450
3.560295 91.526 114.4933
3.586094 91.610 113.9320
3.612081 91.693 113.3608
3.638255 91.777 112.7790
3.664620 91.859 112.1861
3.691175 91.942 111.5815
3.717923 92.024 110.9651
3.744864 92.107 110.3372
3.772001 92.189 109.6989
3.799335 92.270 109.0517
3.826866 92.352 108.3971
3.854597 92.433 107.7369
3.882529 92.513 107.0727
3.910664 92.593 106.4061
3.939002 92.672 105.7383
3.967546 92.750 105.0698
3.996296 92.827 104.4007
4.025255 92.903 103.7304
4.054423 92.978 103.0581
4.083804 93.051 102.3827
4.113396 93.123 101.7041
4.143204 93.194 101.0227
4.173227 93.265 100.3399
4.203468 93.334 99.6573
4.233928 93.401 98.9771
4.264609 93.468 98.3012
4.295512 93.534 97.6317
4.326639 93.599 96.9699
4.357992 93.663 96.3167
4.389572 93.726 95.6723
4.421380 93.787 95.0361
4.453419 93.848 94.4072
4.485691 93.907 93.7851
4.518196 93.965 93.1698
4.550936 94.022 92.5620
4.583914 94.078 91.9625
4.617131 94.133 91.3728
4.650589 94.188 90.7943
4.684289 94.243 90.2283
4.718233 94.297 89.6759
4.752424 94.351 89.1378
4.786862 94.405 88.6140
4.821549 94.458 88.1043
4.856488 94.511 87.6081
4.891680 94.564 87.1248
4.927127 94.616 86.6539
4.962831 94.669 86.1951
4.998794 94.722 85.7483
5.035017 94.776 85.3133
5.071503 94.830 84.8903
5.108253 94.886 84.4796
5.145270 94.942 84.0814
5.182555 94.999 83.6957
5.220110 95.056 83.3222
5.257937 95.115 82.9599
5.296038 95.175 82.6076
5.334415 95.235 82.2637
5.373071 95.297 81.9266
5.412006 95.360 81.5951
5.451224 95.423 81.2682
5.490725 95.488 80.9453
5.530514 95.555 80.6264
5.570590 95.622 80.3113
5.610957 95.691 79.9995
5.651616 95.761 79.6903
5.692570 95.831 79.3822
5.733821 95.903 79.0739
5.775370 95.975 78.7639
5.817221 96.047 78.4511
5.859375 96.120 78.1347
5.901834 96.193 77.8144
5.944602 96.266 77.4903
5.987679 96.339 77.1625
6.031068 96.413 76.8310
6.074771 96.486 76.4958
6.118792 96.558 76.1566
6.163131 96.630 75.8131
6.207792 96.701 75.4651
6.252776 96.771 75.1124
6.298086 96.840 74.7551
6.343725 96.907 74.3937
6.389694 96.974 74.0289
6.435996 97.039 73.6618
6.482634 97.102 73.2933
6.529610 97.164 72.9245
6.576926 97.224 72.5557
6.624585 97.283 72.1872
6.672590 97.339 71.8195
6.720942 97.394 71.4528
6.769645 97.447 71.0882
6.818700 97.498 70.7267
6.868111 97.548 70.3696
6.917881 97.595 70.0178
6.968010 97.642 69.6719
7.018504 97.686 69.3323
7.069362 97.730 68.9991
7.120590 97.772 68.6723
7.172189 97.812 68.3523
7.224161 97.852 68.0394
7.276511 97.890 67.7339
7.329239 97.928 67.4360
7.382350 97.966 67.1457
7.435845 98.002 66.8626
7.489729 98.038 66.5861
7.544002 98.074 66.3154
7.598669 98.110 66.0497
7.653732 98.145 65.7883
7.709194 98.181 65.5306
7.765058 98.216 65.2759
7.821327 98.252 65.0236
7.878004 98.287 64.7726
7.935091 98.323 64.5217
7.992592 98.358 64.2698
8.050510 98.394 64.0157
8.108847 98.429 63.7587
8.167607 98.465 63.4984
8.226793 98.500 63.2342
8.286408 98.534 62.9654
8.346454 98.569 62.6916
8.406936 98.602 62.4121
8.467856 98.635 62.1268
8.529218 98.667 61.8354
8.591024 98.698 61.5382
8.653278 98.728 61.2355
8.715983 98.757 60.9276
8.779143 98.784 60.6149
8.842760 98.811 60.2976
8.906839 98.836 59.9763
8.971381 98.859 59.6514
9.036392 98.882 59.3237
9.101873 98.903 58.9940
9.167829 98.922 58.6628
9.234263 98.941 58.3306
9.301178 98.958 57.9978
9.368578 98.974 57.6646
9.436467 98.990 57.3316
9.504847 99.004 56.9988
9.573723 99.018 56.6666
9.643099 99.032 56.3348
9.712976 99.045 56.0031
9.783361 99.058 55.6713
9.854255 99.070 55.3390
9.925663 99.083 55.0058
9.997588 99.095 54.6712
10.070035 99.108 54.3346
10.143007 99.120 53.9955
10.216507 99.133 53.6532
10.290540 99.146 53.3072
10.365109 99.159 52.9570
10.440219 99.172 52.6022
10.515873 99.185 52.2427
10.592076 99.198 51.8781
10.668830 99.211 51.5084
10.746141 99.224 51.1335
10.824012 99.237 50.7538
10.902447 99.250 50.3695
10.981451 99.263 49.9812
11.061027 99.275 49.5891
11.141180 99.287 49.1938
11.221913 99.299 48.7960
11.303232 99.310 48.3963
11.385140 99.322 47.9951
11.467641 99.333 47.5932
11.550741 99.345 47.1908
11.634442 99.356 46.7885
11.718750 99.368 46.3865
11.803669 99.380 45.9851
11.889203 99.392 45.5845
11.975357 99.405 45.1847
12.062136 99.418 44.7857
12.149543 99.432 44.3874
12.237583 99.446 43.9897
12.326262 99.460 43.5927
12.415583 99.475 43.1962
12.505552 99.491 42.8003
12.596172 99.506 42.4049
12.687449 99.522 42.0103
12.779387 99.539 41.6166
12.871992 99.555 41.2242
12.965268 99.572 40.8334
13.059220 99.589 40.4448
13.153852 99.606 40.0587
13.249170 99.622 39.6758
13.345179 99.639 39.2965
13.441884 99.656 38.9213
13.539289 99.673 38.5505
13.637401 99.689 38.1846
13.736223 99.706 37.8238
13.835761 99.723 37.4681
13.936021 99.740 37.1175
14.037007 99.756 36.7719
14.138725 99.773 36.4313
14.241180 99.790 36.0953
14.344377 99.807 35.7636
14.448323 99.823 35.4360
14.553021 99.839 35.1123
14.658478 99.856 34.7922
14.764700 99.871 34.4756
14.871691 99.886 34.1625
14.979457 99.901 33.8530
15.088005 99.915 33.5470
15.197339 99.928 33.2447
15.307465 99.941 32.9462
15.418389 99.952 32.6517
15.530117 99.963 32.3612
15.642655 99.973 32.0747
15.756008 99.983 31.7920
15.870182 99.991 31.5130
15.985184 99.999 31.2373
16.101019 100.007 30.9644
16.217694 100.013 30.6937
16.335214 100.019 30.4247
16.453586 100.024 30.1568
16.572815 100.029 29.8894
16.692909 100.033 29.6219
16.813872 100.036 29.3538
16.935713 100.038 29.0849
17.058436 100.040 28.8149
17.182048 100.040 28.5435
17.306556 100.040 28.2707
17.431967 100.039 27.9964
17.558286 100.037 27.7206
17.685521 100.035 27.4432
17.813677 100.031 27.1640
17.942762 100.028 26.8828
18.072783 100.023 26.5995
18.203746 100.019 26.3135
18.335658 100.014 26.0247
18.468526 100.008 25.7328
18.602356 100.003 25.4373
18.737156 99.997 25.1383
18.872934 99.991 24.8355
19.009695 99.984 24.5292
19.147447 99.978 24.2193
19.286197 99.972 23.9063
19.425953 99.965 23.5906
19.566721 99.959 23.2724
19.708510 99.952 22.9523
19.851326 99.946 22.6306
19.995177 99.940 22.3076
20.140070 99.935 21.9836
20.286013 99.930 21.6587
20.433014 99.925 21.3333
20.581080 99.921 21.0073
20.730219 99.917 20.6812
20.880439 99.914 20.3551
21.031747 99.911 20.0295
21.184152 99.909 19.7047
21.337661 99.907 19.3814
21.492282 99.906 19.0601
21.648024 99.905 18.7414
21.804895 99.904 18.4256
21.962902 99.903 18.1134
22.122054 99.903 17.8048
22.282360 99.903 17.5003
22.443827 99.903 17.1999
22.606464 99.903 16.9037
22.770280 99.904 16.6117
22.935283 99.904 16.3240
23.101481 99.904 16.0408
23.268884 99.904 15.7620
23.437500 99.903 15.4879
23.607338 99.902 15.2184
23.778406 99.901 14.9536
23.950714 99.899 14.6933
24.124271 99.897 14.4373
24.299086 99.894 14.1850
24.475167 99.891 13.9360
24.652524 99.887 13.6898
24.831166 99.882 13.4455
25.011103 99.877 13.2027
25.192344 99.871 12.9609
25.374898 99.865 12.7195
25.558775 99.857 12.4782
25.743984 99.849 12.2366
25.930536 99.840 11.9944
26.118439 99.831 11.7512
26.307704 99.821 11.5067
26.498341 99.810 11.2604
26.690359 99.799 11.0122
26.883768 99.788 10.7615
27.078579 99.776 10.5083
27.274801 99.763 10.2524
27.472446 99.751 9.9937
27.671522 99.738 9.7323
27.872042 99.726 9.4684
28.074014 99.713 9.2020
28.277450 99.701 8.9334
28.482360 99.688 8.6627
28.688755 99.676 8.3902
28.896645 99.664 8.1162
29.106042 99.653 7.8412
29.316957 99.642 7.5655
29.529400 99.631 7.2896
29.743382 99.620 7.0142
29.958915 99.610 6.7396
30.176009 99.600 6.4664
30.394677 99.591 6.1951
30.614929 99.582 5.9260
30.836778 99.573 5.6596
31.060234 99.564 5.3962
31.285309 99.555 5.1362
31.512015 99.546 4.8800
31.740364 99.537 4.6275
31.970368 99.528 4.3788
32.202039 99.519 4.1338
32.435388 99.509 3.8920
32.670428 99.499 3.6531
32.907171 99.489 3.4167
33.145630 99.479 3.1823
33.385817 99.467 2.9498
33.627745 99.455 2.7190
33.871425 99.442 2.4896
34.116871 99.429 2.2617
34.364096 99.415 2.0348
34.613113 99.400 1.8086
34.863934 99.385 1.5826
35.116572 99.369 1.3566
35.371041 99.353 1.1303
35.627354 99.336 0.9035
35.885525 99.319 0.6763
36.145566 99.301 0.4491
36.407492 99.283 0.2222
36.671316 99.265 -0.0041
36.937051 99.247 -0.2296
37.204712 99.230 -0.4543
37.474313 99.212 -0.6780
37.745867 99.195 -0.9012
38.019389 99.178 -1.1240
38.294893 99.162 -1.3466
38.572394 99.146 -1.5691
38.851905 99.130 -1.7916
39.133442 99.115 -2.0140
39.417019 99.099 -2.2361
39.702651 99.084 -2.4576
39.990353 99.069 -2.6781
40.280140 99.053 -2.8975
40.572026 99.037 -3.1155
40.866028 99.021 -3.3318
41.162160 99.005 -3.5461
41.460438 98.988 -3.7582
41.760877 98.970 -3.9679
42.063494 98.952 -4.1751
42.368303 98.934 -4.3798
42.675322 98.915 -4.5823
42.984565 98.896 -4.7830
43.296048 98.877 -4.9823
43.609789 98.857 -5.1804
43.925804 98.838 -5.3777
44.244108 98.818 -5.5744
44.564719 98.797 -5.7704
44.887654 98.777 -5.9657
45.212928 98.756 -6.1601
45.540560 98.735 -6.3535
45.870565 98.714 -6.5456
46.202962 98.693 -6.7364
46.537768 98.672 -6.9259
46.875000 98.650 -7.1139
47.214676 98.629 -7.3004
47.556813 98.607 -7.4853
47.901429 98.586 -7.6682
48.248542 98.563 -7.8490
48.598171 98.541 -8.0275
48.950334 98.519 -8.2037
49.305048 98.496 -8.3778
49.662333 98.473 -8.5499
50.022206 98.450 -8.7201
50.384688 98.426 -8.8885
50.749796 98.402 -9.0551
51.117550 98.378 -9.2197
51.487969 98.354 -9.3819
51.861072 98.330 -9.5414
52.236879 98.306 -9.6979
52.615409 98.281 -9.8514
52.996681 98.257 -10.0020
53.380717 98.233 -10.1496
53.767536 98.210 -10.2946
54.157158 98.187 -10.4370
54.549603 98.164 -10.5770
54.944892 98.141 -10.7154
55.343045 98.119 -10.8527
55.744084 98.097 -10.9899
56.148028 98.076 -11.1279
56.554900 98.054 -11.2671
56.964720 98.032 -11.4078
57.377510 98.010 -11.5500
57.793291 97.987 -11.6937
58.212085 97.964 -11.8388
58.633914 97.940 -11.9849
59.058799 97.916 -12.1315
59.486764 97.891 -12.2779
59.917829 97.865 -12.4236
60.352019 97.840 -12.5683
60.789354 97.814 -12.7118
61.229859 97.787 -12.8540
61.673556 97.761 -12.9945
62.120468 97.734 -13.1329
62.570618 97.707 -13.2689
63.024031 97.680 -13.4025
63.480729 97.652 -13.5333
63.940736 97.624 -13.6613
64.404077 97.596 -13.7858
64.870776 97.567 -13.9065
65.340856 97.538 -14.0234
65.814343 97.509 -14.1365
66.291261 97.479 -14.2463
66.771635 97.449 -14.3532
67.255489 97.419 -14.4574
67.742850 97.389 -14.5592
68.233743 97.358 -14.6590
68.728193 97.328 -14.7568
69.226226 97.297 -14.8525
69.727867 97.267 -14.9458
70.233144 97.237 -15.0367
70.742083 97.206 -15.1249
71.254709 97.176 -15.2098
71.771050 97.145 -15.2911
72.291132 97.115 -15.3683
72.814984 97.084 -15.4414
73.342631 97.054 -15.5109
73.874102 97.024 -15.5772
74.409424 96.994 -15.6407
74.948626 96.964 -15.7018
75.491734 96.934 -15.7605
76.038779 96.904 -15.8170
76.589787 96.874 -15.8715
77.144788 96.845 -15.9245
77.703811 96.816 -15.9769
78.266885 96.787 -16.0295
78.834039 96.759 -16.0835
79.405303 96.731 -16.1396
79.980706 96.702 -16.1986
80.560280 96.674 -16.2610
81.144053 96.644 -16.3272
81.732056 96.614 -16.3971
82.324320 96.583 -16.4697
82.920876 96.551 -16.5433
83.521755 96.517 -16.6154
84.126988 96.481 -16.6834
84.736607 96.444 -16.7442
85.350643 96.407 -16.7957
85.969129 96.368 -16.8363
86.592097 96.329 -16.8655
87.219579 96.290 -16.8835
87.851608 96.251 -16.8914
88.488217 96.212 -16.8902
89.129439 96.174 -16.8813
89.775308 96.137 -16.8659
90.425856 96.100 -16.8452
91.081119 96.063 -16.8205
91.741131 96.027 -16.7929
92.405925 95.992 -16.7629
93.075536 95.957 -16.7309
93.750000 95.922 -16.6966
94.429351 95.888 -16.6599
95.113625 95.853 -16.6204
95.802858 95.819 -16.5781
96.497085 95.785 -16.5326
97.196342 95.751 -16.4839
97.900667 95.717 -16.4317
98.610096 95.684 -16.3758
99.324665 95.650 -16.3156
100.044413 95.616 -16.2501
100.769376 95.583 -16.1785
101.499592 95.550 -16.1006
102.235100 95.518 -16.0172
