* Measurement data measured by REW V5.30 beta 5
* Source: EXCL: Microphone (Realtek(R) Audio), MICROPHONE (Master Volume), L, volume: 1.000
* Format: 256k Log Swept Sine, 1 sweep at -33.0 dBFS with no timing reference
* Dated: Dec 19, 2023 12:12:47 AM
* REW Settings:
*  C-weighting compensation: Off
*  Target level: 75.0 dB
* Note: 
* Measurement: R Ziigaat Cinno
* Smoothing: 1/12 octave
* Frequency Step: 96 ppo
* Start Frequency: 0.36621094 Hz
*
* Freq(Hz) SPL(dB) Phase(degrees)
0.366211 86.174 -9.1362
0.368865 86.172 -9.1436
0.371538 86.170 -9.1548
0.374230 86.167 -9.1688
0.376942 86.164 -9.1849
0.379673 86.160 -9.2027
0.382424 86.156 -9.2216
0.385196 86.153 -9.2416
0.387987 86.149 -9.2625
0.390798 86.145 -9.2842
0.393630 86.141 -9.3067
0.396483 86.137 -9.3300
0.399356 86.133 -9.3541
0.402250 86.129 -9.3789
0.405165 86.125 -9.4045
0.408101 86.121 -9.4309
0.411058 86.117 -9.4581
0.414037 86.113 -9.4860
0.417037 86.108 -9.5148
0.420059 86.104 -9.5443
0.423103 86.100 -9.5747
0.426169 86.096 -9.6058
0.429257 86.091 -9.6377
0.432367 86.087 -9.6705
0.435501 86.083 -9.7041
0.438656 86.078 -9.7385
0.441835 86.074 -9.7737
0.445037 86.069 -9.8097
0.448262 86.065 -9.8465
0.451510 86.060 -9.8842
0.454782 86.056 -9.9226
0.458077 86.051 -9.9619
0.461397 86.046 -10.0021
0.464740 86.042 -10.0430
0.468108 86.037 -10.0848
0.471500 86.032 -10.1273
0.474917 86.028 -10.1707
0.478358 86.023 -10.2149
0.481825 86.018 -10.2599
0.485316 86.013 -10.3058
0.488833 86.008 -10.3524
0.492375 86.003 -10.3998
0.495943 85.998 -10.4480
0.499537 85.993 -10.4970
0.503157 85.988 -10.5468
0.506803 85.983 -10.5973
0.510475 85.978 -10.6486
0.514174 85.973 -10.7007
0.517900 85.968 -10.7535
0.521653 85.962 -10.8071
0.525433 85.957 -10.8613
0.529241 85.952 -10.9163
0.533076 85.947 -10.9720
0.536939 85.941 -11.0284
0.540830 85.936 -11.0854
0.544749 85.930 -11.1431
0.548696 85.925 -11.2014
0.552673 85.919 -11.2603
0.556677 85.914 -11.3198
0.560711 85.908 -11.3799
0.564774 85.902 -11.4406
0.568867 85.897 -11.5018
0.572989 85.891 -11.5634
0.577141 85.885 -11.6256
0.581324 85.879 -11.6882
0.585536 85.873 -11.7512
0.589779 85.867 -11.8147
0.594053 85.862 -11.8784
0.598358 85.855 -11.9425
0.602694 85.849 -12.0069
0.607061 85.843 -12.0716
0.611460 85.837 -12.1364
0.615891 85.831 -12.2014
0.620354 85.825 -12.2665
0.624849 85.819 -12.3318
0.629377 85.812 -12.3970
0.633938 85.806 -12.4622
0.638532 85.799 -12.5274
0.643159 85.793 -12.5924
0.647819 85.787 -12.6573
0.652514 85.780 -12.7219
0.657242 85.773 -12.7862
0.662005 85.767 -12.8501
0.666802 85.760 -12.9136
0.671634 85.753 -12.9766
0.676501 85.747 -13.0390
0.681403 85.740 -13.1008
0.686341 85.733 -13.1618
0.691314 85.726 -13.2221
0.696324 85.719 -13.2814
0.701369 85.712 -13.3398
0.706452 85.705 -13.3972
0.711571 85.698 -13.4535
0.716727 85.691 -13.5086
0.721921 85.684 -13.5627
0.727153 85.677 -13.6157
0.732422 85.670 -13.6679
0.737729 85.663 -13.7193
0.743075 85.656 -13.7702
0.748460 85.649 -13.8207
0.753883 85.642 -13.8710
0.759346 85.635 -13.9212
0.764849 85.628 -13.9712
0.770391 85.621 -14.0212
0.775974 85.614 -14.0710
0.781597 85.607 -14.1208
0.787261 85.599 -14.1705
0.792965 85.592 -14.2201
0.798712 85.584 -14.2695
0.804499 85.576 -14.3189
0.810329 85.569 -14.3680
0.816201 85.561 -14.4170
0.822116 85.553 -14.4658
0.828073 85.545 -14.5144
0.834073 85.537 -14.5627
0.840118 85.529 -14.6108
0.846205 85.521 -14.6585
0.852337 85.512 -14.7060
0.858514 85.504 -14.7531
0.864735 85.496 -14.7999
0.871001 85.488 -14.8462
0.877313 85.480 -14.8922
0.883670 85.472 -14.9376
0.890074 85.464 -14.9826
0.896523 85.456 -15.0271
0.903020 85.448 -15.0710
0.909564 85.440 -15.1143
0.916155 85.432 -15.1570
0.922793 85.424 -15.1990
0.929480 85.417 -15.2403
0.936216 85.409 -15.2808
0.943000 85.402 -15.3206
0.949833 85.395 -15.3595
0.956716 85.388 -15.3975
0.963649 85.381 -15.4346
0.970632 85.374 -15.4707
0.977666 85.368 -15.5057
0.984750 85.362 -15.5397
0.991886 85.356 -15.5725
0.999074 85.350 -15.6041
1.006313 85.345 -15.6344
1.013605 85.340 -15.6634
1.020950 85.336 -15.6911
1.028349 85.332 -15.7172
1.035801 85.328 -15.7419
1.043306 85.324 -15.7650
1.050867 85.322 -15.7864
1.058482 85.319 -15.8060
1.066152 85.317 -15.8237
1.073878 85.316 -15.8394
1.081659 85.315 -15.8529
1.089498 85.315 -15.8639
1.097393 85.315 -15.8721
1.105345 85.316 -15.8772
1.113355 85.317 -15.8789
1.121422 85.318 -15.8768
1.129549 85.320 -15.8708
1.137734 85.323 -15.8610
1.145978 85.325 -15.8472
1.154283 85.329 -15.8296
1.162647 85.332 -15.8083
1.171072 85.336 -15.7833
1.179558 85.340 -15.7549
1.188106 85.345 -15.7232
1.196715 85.351 -15.6884
1.205387 85.356 -15.6507
1.214122 85.363 -15.6102
1.222920 85.369 -15.5672
1.231781 85.377 -15.5219
1.240708 85.384 -15.4745
1.249698 85.393 -15.4253
1.258754 85.402 -15.3745
1.267875 85.411 -15.3225
1.277063 85.421 -15.2693
1.286317 85.432 -15.2154
1.295638 85.443 -15.1611
1.305027 85.455 -15.1066
1.314484 85.467 -15.0524
1.324009 85.481 -14.9986
1.333603 85.495 -14.9457
1.343267 85.509 -14.8940
1.353001 85.525 -14.8440
1.362805 85.541 -14.7959
1.372681 85.558 -14.7501
1.382628 85.575 -14.7072
1.392647 85.594 -14.6673
1.402739 85.613 -14.6310
1.412904 85.633 -14.5985
1.423142 85.654 -14.5702
1.433455 85.676 -14.5461
1.443842 85.699 -14.5262
1.454305 85.723 -14.5103
1.464843 85.748 -14.4977
1.475458 85.775 -14.4878
1.486150 85.802 -14.4796
1.496919 85.831 -14.4727
1.507766 85.861 -14.4665
1.518692 85.892 -14.4611
1.529697 85.924 -14.4563
1.540782 85.958 -14.4523
1.551947 85.993 -14.4493
1.563193 86.029 -14.4477
1.574521 86.066 -14.4477
1.585931 86.105 -14.4496
1.597423 86.145 -14.4539
1.608998 86.185 -14.4608
1.620658 86.227 -14.4707
1.632402 86.270 -14.4840
1.644231 86.314 -14.5010
1.656146 86.359 -14.5222
1.668147 86.405 -14.5480
1.680235 86.451 -14.5787
1.692410 86.499 -14.6148
1.704674 86.547 -14.6566
1.717027 86.596 -14.7046
1.729469 86.646 -14.7591
1.742002 86.697 -14.8207
1.754625 86.748 -14.8896
1.767340 86.799 -14.9663
1.780147 86.852 -15.0510
1.793046 86.904 -15.1438
1.806040 86.958 -15.2449
1.819127 87.012 -15.3541
1.832309 87.066 -15.4708
1.845587 87.122 -15.5947
1.858961 87.178 -15.7250
1.872431 87.236 -15.8613
1.886000 87.294 -16.0033
1.899666 87.354 -16.1508
1.913432 87.415 -16.3039
1.927298 87.477 -16.4625
1.941264 87.540 -16.6269
1.955331 87.604 -16.7971
1.969500 87.669 -16.9734
1.983772 87.735 -17.1560
1.998147 87.801 -17.3451
2.012626 87.869 -17.5409
2.027211 87.937 -17.7436
2.041901 88.005 -17.9536
2.056697 88.075 -18.1711
2.071601 88.144 -18.3962
2.086613 88.214 -18.6295
2.101733 88.285 -18.8710
2.116963 88.355 -19.1211
2.132303 88.426 -19.3800
2.147755 88.496 -19.6481
2.163318 88.567 -19.9256
2.178995 88.637 -20.2125
2.194785 88.708 -20.5091
2.210689 88.779 -20.8151
2.226709 88.850 -21.1305
2.242844 88.921 -21.4549
2.259097 88.993 -21.7880
2.275467 89.065 -22.1297
2.291956 89.138 -22.4795
2.308565 89.211 -22.8372
2.325294 89.284 -23.2025
2.342144 89.357 -23.5751
2.359116 89.431 -23.9547
2.376211 89.505 -24.3412
2.393430 89.579 -24.7343
2.410774 89.653 -25.1339
2.428243 89.727 -25.5398
2.445839 89.802 -25.9517
2.463562 89.876 -26.3698
2.481415 89.950 -26.7939
2.499396 90.024 -27.2241
2.517508 90.097 -27.6605
2.535750 90.171 -28.1034
2.554126 90.244 -28.5533
2.572634 90.317 -29.0107
2.591276 90.390 -29.4759
2.610054 90.462 -29.9493
2.628967 90.535 -30.4308
2.648018 90.607 -30.9203
2.667206 90.679 -31.4173
2.686534 90.751 -31.9212
2.706002 90.822 -32.4315
2.725610 90.894 -32.9475
2.745361 90.965 -33.4685
2.765255 91.036 -33.9940
2.785294 91.107 -34.5232
2.805477 91.177 -35.0556
2.825807 91.248 -35.5908
2.846284 91.318 -36.1282
2.866909 91.388 -36.6676
2.887684 91.457 -37.2091
2.908609 91.526 -37.7528
2.929686 91.595 -38.2993
2.950916 91.664 -38.8494
2.972299 91.732 -39.4036
2.993838 91.799 -39.9625
3.015532 91.867 -40.5261
3.037384 91.934 -41.0941
3.059394 92.000 -41.6662
3.081564 92.066 -42.2416
3.103894 92.132 -42.8199
3.126386 92.197 -43.4001
3.149041 92.263 -43.9815
3.171861 92.327 -44.5635
3.194845 92.392 -45.1454
3.217996 92.457 -45.7267
3.241315 92.521 -46.3070
3.264803 92.585 -46.8863
3.288461 92.649 -47.4649
3.312291 92.712 -48.0432
3.336293 92.775 -48.6220
3.360469 92.838 -49.2017
3.384820 92.900 -49.7826
3.409348 92.963 -50.3645
3.434054 93.024 -50.9472
3.458938 93.086 -51.5301
3.484003 93.147 -52.1127
3.509250 93.208 -52.6943
3.534679 93.269 -53.2743
3.560293 93.330 -53.8520
3.586092 93.391 -54.4269
3.612079 93.452 -54.9986
3.638253 93.513 -55.5669
3.664618 93.574 -56.1319
3.691173 93.635 -56.6939
3.717921 93.696 -57.2533
3.744862 93.756 -57.8103
3.771999 93.817 -58.3653
3.799332 93.878 -58.9182
3.826864 93.938 -59.4691
3.854595 93.999 -60.0176
3.882527 94.060 -60.5637
3.910661 94.120 -61.1072
3.938999 94.182 -61.6477
3.967543 94.243 -62.1851
3.996294 94.304 -62.7193
4.025252 94.366 -63.2500
4.054421 94.428 -63.7775
4.083801 94.491 -64.3017
4.113394 94.554 -64.8228
4.143201 94.616 -65.3410
4.173225 94.679 -65.8565
4.203466 94.743 -66.3694
4.233926 94.806 -66.8798
4.264606 94.870 -67.3879
4.295509 94.935 -67.8938
4.326636 94.999 -68.3974
4.357989 95.064 -68.8989
4.389569 95.129 -69.3982
4.421378 95.195 -69.8954
4.453417 95.261 -70.3904
4.485688 95.327 -70.8832
4.518193 95.394 -71.3739
4.550934 95.461 -71.8628
4.583912 95.528 -72.3499
4.617129 95.595 -72.8355
4.650587 95.663 -73.3197
4.684287 95.731 -73.8028
4.718231 95.799 -74.2849
4.752421 95.867 -74.7661
4.786859 95.936 -75.2466
4.821547 96.004 -75.7262
4.856485 96.073 -76.2050
4.891677 96.142 -76.6830
4.927125 96.211 -77.1599
4.962829 96.280 -77.6358
4.998791 96.349 -78.1106
5.035015 96.418 -78.5844
5.071500 96.486 -79.0571
5.108251 96.555 -79.5288
5.145267 96.624 -79.9997
5.182552 96.692 -80.4698
5.220107 96.760 -80.9391
5.257934 96.828 -81.4074
5.296035 96.896 -81.8745
5.334412 96.964 -82.3401
5.373067 97.031 -82.8039
5.412003 97.099 -83.2657
5.451221 97.165 -83.7253
5.490722 97.232 -84.1827
5.530510 97.298 -84.6379
5.570587 97.364 -85.0910
5.610953 97.429 -85.5419
5.651613 97.494 -85.9905
5.692567 97.559 -86.4366
5.733818 97.624 -86.8798
5.775367 97.688 -87.3199
5.817218 97.752 -87.7566
5.859372 97.816 -88.1899
5.901831 97.879 -88.6197
5.944598 97.942 -89.0462
5.987675 98.005 -89.4694
6.031065 98.068 -89.8893
6.074768 98.130 -90.3060
6.118788 98.193 -90.7195
6.163127 98.255 -91.1297
6.207788 98.317 -91.5366
6.252772 98.380 -91.9402
6.298082 98.442 -92.3407
6.343721 98.504 -92.7382
6.389690 98.566 -93.1330
6.435992 98.628 -93.5255
6.482630 98.690 -93.9161
6.529606 98.752 -94.3050
6.576922 98.814 -94.6925
6.624581 98.877 -95.0787
6.672585 98.939 -95.4639
6.720938 99.001 -95.8483
6.769640 99.064 -96.2324
6.818696 99.126 -96.6164
6.868107 99.189 -97.0011
6.917876 99.251 -97.3867
6.968006 99.314 -97.7736
7.018499 99.376 -98.1620
7.069358 99.438 -98.5521
7.120586 99.500 -98.9440
7.172184 99.562 -99.3380
7.224157 99.623 -99.7343
7.276506 99.684 -100.1333
7.329235 99.744 -100.5351
7.382345 99.804 -100.9399
7.435841 99.864 -101.3476
7.489724 99.923 -101.7582
7.543997 99.981 -102.1716
7.598664 100.038 -102.5875
7.653728 100.094 -103.0059
7.709189 100.150 -103.4267
7.765053 100.205 -103.8498
7.821322 100.258 -104.2750
7.877998 100.311 -104.7020
7.935086 100.363 -105.1302
7.992587 100.413 -105.5593
8.050504 100.462 -105.9888
8.108841 100.511 -106.4186
8.167601 100.558 -106.8483
8.226787 100.604 -107.2777
8.286402 100.648 -107.7061
8.346449 100.692 -108.1332
8.406931 100.735 -108.5584
8.467851 100.777 -108.9814
8.529212 100.817 -109.4022
8.591018 100.857 -109.8203
8.653272 100.896 -110.2357
8.715977 100.934 -110.6480
8.779137 100.971 -111.0569
8.842754 101.008 -111.4623
8.906833 101.044 -111.8643
8.971375 101.080 -112.2629
9.036386 101.115 -112.6582
9.101867 101.150 -113.0502
9.167823 101.184 -113.4390
9.234257 101.218 -113.8249
9.301172 101.253 -114.2081
9.368572 101.287 -114.5889
9.436460 101.321 -114.9677
9.504841 101.355 -115.3448
9.573717 101.389 -115.7208
9.643092 101.423 -116.0957
9.712970 101.457 -116.4703
9.783354 101.492 -116.8447
9.854248 101.526 -117.2197
9.925656 101.561 -117.5954
9.997581 101.596 -117.9724
10.070028 101.631 -118.3508
10.143000 101.666 -118.7311
10.216500 101.701 -119.1136
10.290533 101.736 -119.4984
10.365103 101.771 -119.8859
10.440212 101.806 -120.2760
10.515866 101.841 -120.6690
10.592069 101.876 -121.0646
10.668823 101.910 -121.4631
10.746134 101.945 -121.8642
10.824005 101.979 -122.2678
10.902440 102.013 -122.6736
10.981443 102.046 -123.0815
11.061020 102.079 -123.4912
11.141172 102.112 -123.9023
11.221906 102.145 -124.3145
11.303225 102.177 -124.7275
11.385133 102.209 -125.1409
11.467634 102.240 -125.5544
11.550734 102.271 -125.9678
11.634435 102.302 -126.3806
11.718742 102.333 -126.7927
11.803661 102.363 -127.2039
11.889195 102.394 -127.6142
11.975349 102.424 -128.0234
12.062128 102.454 -128.4316
12.149535 102.485 -128.8390
12.237576 102.515 -129.2455
12.326254 102.545 -129.6516
12.415575 102.576 -130.0573
12.505544 102.606 -130.4629
12.596164 102.637 -130.8688
12.687441 102.667 -131.2752
12.779379 102.698 -131.6821
12.871984 102.728 -132.0900
12.965260 102.758 -132.4986
13.059211 102.788 -132.9080
13.153843 102.817 -133.3180
13.249161 102.845 -133.7283
13.345170 102.873 -134.1384
13.441875 102.901 -134.5477
13.539280 102.927 -134.9556
13.637391 102.953 -135.3612
13.736214 102.978 -135.7637
13.835752 103.002 -136.1623
13.936011 103.025 -136.5561
14.036998 103.047 -136.9444
14.138716 103.069 -137.3263
14.241171 103.090 -137.7016
14.344368 103.110 -138.0697
14.448313 103.131 -138.4307
14.553011 103.151 -138.7846
14.658468 103.171 -139.1319
14.764689 103.191 -139.4732
14.871680 103.211 -139.8091
14.979446 103.232 -140.1408
15.087994 103.253 -140.4692
15.197328 103.273 -140.7952
15.307454 103.294 -141.1199
15.418378 103.315 -141.4440
15.530106 103.336 -141.7681
15.642643 103.357 -142.0924
15.755996 103.377 -142.4171
15.870171 103.396 -142.7418
15.985172 103.415 -143.0660
16.101007 103.433 -143.3890
16.217682 103.450 -143.7097
16.335201 103.466 -144.0274
16.453573 103.481 -144.3411
16.572803 103.496 -144.6502
16.692898 103.510 -144.9543
16.813862 103.524 -145.2535
16.935701 103.539 -145.5482
17.058424 103.554 -145.8397
17.182035 103.569 -146.1292
17.306543 103.585 -146.4188
17.431953 103.602 -146.7106
17.558273 103.620 -147.0069
17.685509 103.638 -147.3100
17.813665 103.657 -147.6219
17.942751 103.676 -147.9442
18.072771 103.694 -148.2777
18.203733 103.712 -148.6229
18.335646 103.729 -148.9790
18.468513 103.744 -149.3450
18.602345 103.757 -149.7188
18.737144 103.769 -150.0979
18.872921 103.778 -150.4798
19.009682 103.786 -150.8615
19.147434 103.792 -151.2405
19.286184 103.796 -151.6146
19.425940 103.799 -151.9822
19.566708 103.802 -152.3427
19.708496 103.804 -152.6962
19.851313 103.807 -153.0438
19.995163 103.810 -153.3871
20.140057 103.815 -153.7285
20.285999 103.820 -154.0705
20.433001 103.826 -154.4154
20.581066 103.832 -154.7652
20.730206 103.839 -155.1213
20.880424 103.845 -155.4839
21.031733 103.850 -155.8523
21.184137 103.855 -156.2247
21.337646 103.857 -156.5986
21.492268 103.859 -156.9708
21.648010 103.858 -157.3375
21.804880 103.857 -157.6956
21.962887 103.854 -158.0423
22.122040 103.851 -158.3755
22.282345 103.848 -158.6948
22.443811 103.846 -159.0008
22.606449 103.845 -159.2956
22.770266 103.846 -159.5822
22.935268 103.849 -159.8645
23.101467 103.854 -160.1464
23.268869 103.860 -160.4315
23.437485 103.867 -160.7225
23.607323 103.874 -161.0208
23.778391 103.882 -161.3262
23.950699 103.888 -161.6370
24.124256 103.893 -161.9505
24.299070 103.897 -162.2632
24.475151 103.899 -162.5717
24.652508 103.900 -162.8730
24.831150 103.901 -163.1658
25.011087 103.901 -163.4499
25.192327 103.903 -163.7271
25.374882 103.905 -164.0005
25.558758 103.908 -164.2741
25.743967 103.912 -164.5518
25.930519 103.917 -164.8366
26.118422 103.920 -165.1298
26.307686 103.923 -165.4306
26.498322 103.924 -165.7359
26.690340 103.923 -166.0413
26.883749 103.919 -166.3414
27.078560 103.914 -166.6315
27.274782 103.909 -166.9083
27.472427 103.903 -167.1713
27.671503 103.899 -167.4230
27.872023 103.897 -167.6690
28.073996 103.898 -167.9164
28.277431 103.900 -168.1729
28.482342 103.904 -168.4450
28.688736 103.908 -168.7362
28.896626 103.911 -169.0462
29.106022 103.912 -169.3708
29.316936 103.909 -169.7027
29.529379 103.903 -170.0331
29.743361 103.894 -170.3533
29.958893 103.882 -170.6572
30.175987 103.871 -170.9420
30.394655 103.860 -171.2096
30.614908 103.851 -171.4655
30.836756 103.844 -171.7175
31.060211 103.840 -171.9738
31.285286 103.837 -172.2406
31.511992 103.835 -172.5207
31.740341 103.831 -172.8133
31.970345 103.826 -173.1136
32.202015 103.818 -173.4154
32.435364 103.808 -173.7118
32.670403 103.797 -173.9982
32.907146 103.785 -174.2723
33.145607 103.773 -174.5354
33.385796 103.762 -174.7907
33.627724 103.752 -175.0421
33.871403 103.742 -175.2928
34.116848 103.732 -175.5435
34.364071 103.722 -175.7925
34.613087 103.711 -176.0362
34.863907 103.700 -176.2709
35.116547 103.689 -176.4943
35.371017 103.679 -176.7073
35.627331 103.672 -176.9143
35.885502 103.667 -177.1225
36.145542 103.664 -177.3400
36.407467 103.662 -177.5733
36.671291 103.660 -177.8254
36.937027 103.657 -178.0947
37.204689 103.651 -178.3756
37.474289 103.641 -178.6604
37.745842 103.629 -178.9411
38.019363 103.614 -179.2120
38.294868 103.598 -179.4703
38.572369 103.581 -179.7162
38.851879 103.565 -179.9521
39.133415 103.549 179.8195
39.416992 103.533 179.5959
39.702625 103.519 179.3748
39.990326 103.505 179.1536
40.280113 103.493 178.9282
40.571999 103.481 178.6943
40.866001 103.470 178.4479
41.162132 103.458 178.1881
41.460411 103.445 177.9187
41.760849 103.429 177.6479
42.063465 103.410 177.3867
42.368275 103.391 177.1439
42.675293 103.373 176.9223
42.984535 103.357 176.7159
43.296021 103.347 176.5109
43.609760 103.340 176.2899
43.925774 103.335 176.0386
44.244080 103.329 175.7521
44.564690 103.318 175.4384
44.887623 103.299 175.1169
45.212898 103.272 174.8146
45.540531 103.237 174.5584
45.870537 103.199 174.3680
46.202934 103.162 174.2495
46.537739 103.131 174.1920
46.874969 103.108 174.1702
47.214645 103.095 174.1503
47.556782 103.090 174.1007
47.901398 103.090 174.0007
48.248512 103.089 173.8449
48.598141 103.085 173.6417
48.950302 103.075 173.4068
49.305016 103.060 173.1556
49.662300 103.041 172.8982
50.022175 103.017 172.6390
50.384655 102.991 172.3788
50.749763 102.962 172.1180
51.117516 102.931 171.8576
51.487934 102.899 171.5977
51.861038 102.866 171.3376
52.236843 102.831 171.0775
52.615372 102.793 170.8228
52.996643 102.753 170.5872
53.380680 102.710 170.3888
53.767498 102.669 170.2415
54.157120 102.633 170.1451
54.549564 102.606 170.0815
54.944855 102.589 170.0224
55.343006 102.579 169.9420
55.744045 102.573 169.8298
56.147991 102.567 169.6924
56.554863 102.560 169.5449
56.964684 102.551 169.3999
57.377472 102.541 169.2624
57.793251 102.531 169.1329
58.212044 102.518 169.0153
58.633873 102.503 168.9195
59.058758 102.488 168.8555
59.486721 102.474 168.8239
59.917786 102.466 168.8091
60.351974 102.462 168.7852
60.789310 102.461 168.7280
61.229816 102.460 168.6267
61.673512 102.455 168.4849
62.120422 102.445 168.3142
62.570572 102.429 168.1254
63.023983 102.408 167.9244
63.480682 102.382 167.7136
63.940689 102.353 167.4937
64.404030 102.321 167.2647
64.870728 102.288 167.0262
65.340805 102.253 166.7779
65.814293 102.218 166.5201
66.291214 102.185 166.2505
66.771591 102.155 165.9614
67.255447 102.126 165.6431
67.742805 102.097 165.2963
68.233696 102.064 164.9420
68.728142 102.028 164.6154
69.226173 101.992 164.3409
69.727814 101.962 164.1105
70.233093 101.937 163.8923
70.742035 101.913 163.6662
71.254662 101.883 163.4541
71.771004 101.846 163.3081
72.291084 101.808 163.2652
72.814934 101.777 163.3128
73.342583 101.758 163.3976
73.874054 101.749 163.4676
74.409378 101.744 163.5013
74.948578 101.738 163.5038
75.491684 101.731 163.4865
76.038727 101.722 163.4554
76.589737 101.710 163.4130
77.144737 101.694 163.3609
77.703758 101.673 163.3010
78.266830 101.647 163.2345
78.833984 101.615 163.1616
79.405251 101.576 163.0806
79.980652 101.533 162.9861
