* Measurement data measured by REW V5.31.3
* Source: EXCL: Microphone (USB Sound Device        ), MICROPHONE (Master Volume), R, volume: 0.390
* Format: 256k Log Swept Sine, 1 sweep at -12.0 dBFS with no timing reference
* Dated: Jul 13, 2025 6:25:57 PM
* REW Settings:
*  C-weighting compensation: Off
*  Target level: 75.0 dB
* Note: Ziigaat Luna L
* Measurement: L Ziigaat Luna
* Smoothing: 1/12 octave
* Frequency Step: 96 ppo
* Start Frequency: 0.36621094 Hz
*
* Freq(Hz) SPL(dB) Phase(degrees)
0.366211 89.808 177.7427
0.368865 89.811 177.7312
0.371538 89.816 177.7140
0.374230 89.822 177.6928
0.376942 89.828 177.6686
0.379673 89.835 177.6425
0.382424 89.842 177.6150
0.385196 89.850 177.5865
0.387987 89.858 177.5571
0.390798 89.865 177.5271
0.393630 89.873 177.4965
0.396483 89.881 177.4653
0.399356 89.889 177.4335
0.402250 89.897 177.4012
0.405165 89.905 177.3682
0.408101 89.913 177.3346
0.411058 89.921 177.3004
0.414037 89.929 177.2656
0.417037 89.937 177.2302
0.420059 89.946 177.1942
0.423103 89.954 177.1575
0.426169 89.963 177.1201
0.429257 89.971 177.0821
0.432368 89.980 177.0434
0.435501 89.988 177.0040
0.438656 89.997 176.9639
0.441835 90.006 176.9231
0.445037 90.014 176.8816
0.448262 90.023 176.8393
0.451510 90.032 176.7963
0.454782 90.041 176.7525
0.458077 90.050 176.7080
0.461397 90.059 176.6627
0.464740 90.069 176.6165
0.468108 90.078 176.5696
0.471500 90.087 176.5219
0.474917 90.097 176.4733
0.478358 90.106 176.4238
0.481825 90.116 176.3735
0.485316 90.125 176.3223
0.488833 90.135 176.2703
0.492375 90.145 176.2173
0.495943 90.155 176.1634
0.499537 90.164 176.1086
0.503157 90.174 176.0528
0.506803 90.184 175.9960
0.510475 90.195 175.9383
0.514175 90.205 175.8795
0.517900 90.215 175.8198
0.521653 90.225 175.7590
0.525434 90.236 175.6971
0.529241 90.246 175.6342
0.533076 90.257 175.5702
0.536939 90.267 175.5051
0.540830 90.278 175.4388
0.544749 90.289 175.3714
0.548696 90.300 175.3029
0.552673 90.311 175.2332
0.556677 90.322 175.1622
0.560711 90.333 175.0900
0.564774 90.344 175.0166
0.568867 90.355 174.9419
0.572989 90.367 174.8659
0.577141 90.378 174.7886
0.581324 90.390 174.7100
0.585536 90.401 174.6300
0.589779 90.413 174.5486
0.594053 90.425 174.4658
0.598358 90.436 174.3815
0.602694 90.448 174.2958
0.607061 90.460 174.2086
0.611460 90.472 174.1198
0.615891 90.485 174.0295
0.620354 90.497 173.9376
0.624849 90.509 173.8441
0.629377 90.522 173.7490
0.633938 90.534 173.6522
0.638532 90.547 173.5536
0.643159 90.560 173.4534
0.647819 90.573 173.3513
0.652514 90.585 173.2475
0.657242 90.598 173.1417
0.662005 90.612 173.0341
0.666802 90.625 172.9246
0.671634 90.638 172.8131
0.676501 90.651 172.6995
0.681403 90.665 172.5840
0.686341 90.679 172.4663
0.691314 90.692 172.3465
0.696324 90.706 172.2244
0.701370 90.720 172.1002
0.706452 90.734 171.9736
0.711571 90.748 171.8447
0.716728 90.762 171.7133
0.721921 90.776 171.5795
0.727153 90.790 171.4432
0.732422 90.805 171.3042
0.737729 90.819 171.1626
0.743075 90.833 171.0182
0.748460 90.847 170.8710
0.753883 90.862 170.7211
0.759346 90.876 170.5682
0.764849 90.891 170.4126
0.770391 90.906 170.2541
0.775974 90.921 170.0927
0.781597 90.935 169.9285
0.787261 90.951 169.7614
0.792966 90.966 169.5916
0.798712 90.981 169.4189
0.804500 90.997 169.2433
0.810329 91.012 169.0650
0.816201 91.028 168.8838
0.822116 91.043 168.6998
0.828073 91.059 168.5131
0.834074 91.075 168.3236
0.840118 91.091 168.1312
0.846206 91.108 167.9362
0.852338 91.124 167.7383
0.858514 91.140 167.5378
0.864735 91.157 167.3344
0.871001 91.173 167.1284
0.877313 91.190 166.9196
0.883670 91.206 166.7081
0.890074 91.223 166.4939
0.896524 91.240 166.2771
0.903020 91.257 166.0575
0.909564 91.274 165.8352
0.916155 91.291 165.6103
0.922794 91.308 165.3828
0.929481 91.325 165.1525
0.936216 91.342 164.9196
0.943000 91.359 164.6841
0.949834 91.377 164.4459
0.956717 91.394 164.2050
0.963649 91.411 163.9615
0.970632 91.428 163.7154
0.977666 91.445 163.4666
0.984750 91.463 163.2151
0.991886 91.480 162.9609
0.999074 91.497 162.7041
1.006314 91.514 162.4446
1.013606 91.531 162.1824
1.020951 91.548 161.9174
1.028349 91.565 161.6497
1.035801 91.582 161.3793
1.043307 91.599 161.1060
1.050867 91.616 160.8298
1.058482 91.633 160.5507
1.066152 91.649 160.2686
1.073878 91.666 159.9834
1.081660 91.682 159.6947
1.089498 91.698 159.4024
1.097393 91.715 159.1061
1.105345 91.731 158.8053
1.113355 91.747 158.4997
1.121423 91.763 158.1888
1.129549 91.778 157.8725
1.137734 91.794 157.5506
1.145979 91.810 157.2230
1.154283 91.825 156.8899
1.162647 91.841 156.5511
1.171072 91.856 156.2068
1.179558 91.872 155.8570
1.188106 91.887 155.5019
1.196715 91.902 155.1415
1.205387 91.918 154.7759
1.214122 91.933 154.4052
1.222920 91.948 154.0296
1.231782 91.962 153.6491
1.240708 91.977 153.2639
1.249699 91.992 152.8741
1.258754 92.006 152.4798
1.267876 92.021 152.0812
1.277063 92.035 151.6784
1.286318 92.050 151.2715
1.295639 92.064 150.8606
1.305027 92.078 150.4460
1.314484 92.091 150.0278
1.324009 92.105 149.6061
1.333604 92.119 149.1811
1.343268 92.132 148.7530
1.353002 92.145 148.3219
1.362806 92.158 147.8880
1.372681 92.171 147.4514
1.382628 92.184 147.0124
1.392647 92.197 146.5710
1.402739 92.209 146.1275
1.412904 92.221 145.6819
1.423142 92.233 145.2343
1.433455 92.245 144.7845
1.443843 92.257 144.3324
1.454305 92.268 143.8776
1.464844 92.280 143.4194
1.475459 92.290 142.9570
1.486150 92.301 142.4896
1.496920 92.312 142.0166
1.507767 92.322 141.5376
1.518693 92.331 141.0523
1.529698 92.341 140.5606
1.540783 92.350 140.0626
1.551948 92.359 139.5583
1.563194 92.368 139.0478
1.574521 92.376 138.5313
1.585931 92.384 138.0091
1.597423 92.392 137.4812
1.608999 92.400 136.9480
1.620658 92.407 136.4095
1.632402 92.414 135.8662
1.644232 92.420 135.3181
1.656146 92.427 134.7655
1.668147 92.433 134.2088
1.680235 92.439 133.6481
1.692411 92.444 133.0838
1.704675 92.450 132.5160
1.717028 92.455 131.9452
1.729470 92.460 131.3716
1.742003 92.464 130.7953
1.754626 92.468 130.2168
1.767341 92.472 129.6362
1.780147 92.476 129.0535
1.793047 92.480 128.4688
1.806040 92.483 127.8818
1.819128 92.486 127.2918
1.832310 92.489 126.6980
1.845587 92.491 126.0993
1.858961 92.493 125.4947
1.872432 92.494 124.8832
1.886001 92.496 124.2643
1.899667 92.496 123.6378
1.913433 92.497 123.0036
1.927299 92.496 122.3620
1.941265 92.496 121.7132
1.955332 92.495 121.0575
1.969501 92.493 120.3953
1.983773 92.492 119.7273
1.998148 92.490 119.0538
2.012627 92.487 118.3755
2.027212 92.484 117.6930
2.041902 92.481 117.0070
2.056698 92.478 116.3180
2.071602 92.474 115.6270
2.086614 92.470 114.9346
2.101734 92.466 114.2416
2.116964 92.462 113.5488
2.132304 92.457 112.8567
2.147756 92.453 112.1660
2.163320 92.448 111.4769
2.178996 92.442 110.7892
2.194786 92.437 110.1025
2.210690 92.431 109.4157
2.226710 92.425 108.7277
2.242845 92.419 108.0375
2.259098 92.412 107.3443
2.275468 92.404 106.6476
2.291957 92.397 105.9474
2.308566 92.389 105.2438
2.325295 92.380 104.5369
2.342145 92.371 103.8273
2.359117 92.362 103.1153
2.376212 92.353 102.4015
2.393431 92.344 101.6867
2.410775 92.334 100.9715
2.428244 92.324 100.2566
2.445840 92.314 99.5431
2.463564 92.305 98.8317
2.481416 92.295 98.1234
2.499397 92.285 97.4190
2.517509 92.276 96.7193
2.535752 92.266 96.0249
2.554127 92.257 95.3360
2.572635 92.248 94.6526
2.591277 92.238 93.9742
2.610055 92.229 93.3002
2.628968 92.219 92.6302
2.648019 92.210 91.9638
2.667208 92.200 91.3006
2.686535 92.190 90.6406
2.706003 92.180 89.9837
2.725612 92.170 89.3300
2.745363 92.161 88.6796
2.765257 92.152 88.0328
2.785295 92.143 87.3898
2.805478 92.135 86.7511
2.825808 92.127 86.1170
2.846285 92.120 85.4882
2.866910 92.113 84.8653
2.887685 92.108 84.2490
2.908611 92.103 83.6400
2.929688 92.099 83.0391
2.950917 92.095 82.4469
2.972301 92.092 81.8638
2.993839 92.090 81.2899
3.015534 92.089 80.7250
3.037386 92.088 80.1689
3.059396 92.089 79.6211
3.081565 92.089 79.0811
3.103896 92.091 78.5483
3.126388 92.094 78.0222
3.149043 92.098 77.5022
3.171862 92.103 76.9879
3.194847 92.109 76.4790
3.217998 92.117 75.9752
3.241317 92.126 75.4767
3.264805 92.136 74.9838
3.288463 92.148 74.4973
3.312293 92.162 74.0182
3.336295 92.177 73.5474
3.360471 92.194 73.0856
3.384822 92.213 72.6330
3.409350 92.233 72.1891
3.434056 92.255 71.7532
3.458940 92.278 71.3243
3.484005 92.303 70.9011
3.509252 92.329 70.4823
3.534681 92.357 70.0667
3.560295 92.386 69.6529
3.586094 92.416 69.2401
3.612081 92.448 68.8274
3.638255 92.482 68.4146
3.664620 92.517 68.0021
3.691175 92.553 67.5906
3.717923 92.592 67.1807
3.744864 92.632 66.7731
3.772001 92.674 66.3680
3.799335 92.717 65.9651
3.826866 92.762 65.5639
3.854597 92.808 65.1637
3.882529 92.854 64.7638
3.910664 92.902 64.3631
3.939002 92.951 63.9608
3.967546 93.000 63.5561
3.996296 93.049 63.1485
4.025255 93.099 62.7376
4.054423 93.150 62.3234
4.083804 93.201 61.9063
4.113396 93.253 61.4867
4.143204 93.305 61.0650
4.173227 93.358 60.6418
4.203468 93.411 60.2175
4.233928 93.465 59.7923
4.264609 93.518 59.3665
4.295512 93.571 58.9403
4.326639 93.624 58.5135
4.357992 93.676 58.0860
4.389572 93.727 57.6574
4.421380 93.777 57.2275
4.453419 93.827 56.7959
4.485691 93.877 56.3630
4.518196 93.925 55.9294
4.550936 93.973 55.4959
4.583914 94.020 55.0637
4.617131 94.067 54.6340
4.650589 94.112 54.2079
4.684289 94.156 53.7863
4.718233 94.200 53.3699
4.752424 94.242 52.9587
4.786862 94.283 52.5527
4.821549 94.322 52.1516
4.856488 94.360 51.7552
4.891680 94.398 51.3641
4.927127 94.434 50.9788
4.962831 94.469 50.6003
4.998794 94.503 50.2298
5.035017 94.536 49.8684
5.071503 94.568 49.5170
5.108253 94.600 49.1764
5.145270 94.630 48.8467
5.182555 94.660 48.5281
5.220110 94.689 48.2202
5.257937 94.717 47.9230
5.296038 94.744 47.6364
5.334415 94.771 47.3603
5.373071 94.798 47.0948
5.412006 94.825 46.8404
5.451224 94.851 46.5971
5.490725 94.878 46.3654
5.530514 94.904 46.1454
5.570590 94.931 45.9370
5.610957 94.958 45.7397
5.651616 94.986 45.5528
5.692570 95.013 45.3752
5.733821 95.041 45.2059
5.775370 95.070 45.0438
5.817221 95.099 44.8883
5.859375 95.129 44.7390
5.901834 95.160 44.5957
5.944602 95.191 44.4581
5.987679 95.223 44.3256
6.031068 95.256 44.1971
6.074771 95.290 44.0715
6.118792 95.324 43.9471
6.163131 95.358 43.8228
6.207792 95.393 43.6976
6.252776 95.429 43.5709
6.298086 95.464 43.4425
6.343725 95.500 43.3121
6.389694 95.537 43.1795
6.435996 95.573 43.0442
6.482634 95.609 42.9055
6.529610 95.645 42.7630
6.576926 95.680 42.6160
6.624585 95.714 42.4645
6.672590 95.748 42.3083
6.720942 95.781 42.1477
6.769645 95.813 41.9832
6.818700 95.844 41.8153
6.868111 95.874 41.6444
6.917881 95.902 41.4710
6.968010 95.930 41.2954
7.018504 95.955 41.1177
7.069362 95.979 40.9384
7.120590 96.002 40.7580
7.172189 96.023 40.5776
7.224161 96.043 40.3979
7.276511 96.061 40.2199
7.329239 96.078 40.0443
7.382350 96.093 39.8714
7.435845 96.106 39.7015
7.489729 96.119 39.5349
7.544002 96.130 39.3722
7.598669 96.140 39.2136
7.653732 96.149 39.0597
7.709194 96.157 38.9108
7.765058 96.164 38.7669
7.821327 96.170 38.6279
7.878004 96.176 38.4934
7.935091 96.181 38.3631
7.992592 96.186 38.2364
8.050510 96.191 38.1131
8.108847 96.196 37.9928
8.167607 96.200 37.8749
8.226793 96.205 37.7588
8.286408 96.210 37.6437
8.346454 96.214 37.5284
8.406936 96.219 37.4123
8.467856 96.224 37.2947
8.529218 96.229 37.1749
8.591024 96.234 37.0524
8.653278 96.239 36.9265
8.715983 96.243 36.7966
8.779143 96.248 36.6621
8.842760 96.253 36.5224
8.906839 96.258 36.3776
8.971381 96.262 36.2273
9.036392 96.266 36.0716
9.101873 96.269 35.9106
9.167829 96.272 35.7441
9.234263 96.275 35.5724
9.301178 96.277 35.3956
9.368578 96.279 35.2140
9.436467 96.280 35.0282
9.504847 96.281 34.8384
9.573723 96.281 34.6450
9.643099 96.281 34.4482
9.712976 96.280 34.2484
9.783361 96.279 34.0458
9.854255 96.278 33.8409
9.925663 96.277 33.6336
9.997588 96.276 33.4242
10.070035 96.275 33.2127
10.143007 96.274 32.9991
10.216507 96.274 32.7832
10.290540 96.273 32.5650
10.365109 96.274 32.3444
10.440219 96.274 32.1210
10.515873 96.275 31.8949
10.592076 96.277 31.6655
10.668830 96.280 31.4329
10.746141 96.283 31.1968
10.824012 96.286 30.9571
10.902447 96.291 30.7136
10.981451 96.296 30.4664
11.061027 96.301 30.2155
11.141180 96.307 29.9609
11.221913 96.314 29.7027
11.303232 96.322 29.4412
11.385140 96.330 29.1766
11.467641 96.338 28.9091
11.550741 96.347 28.6391
11.634442 96.357 28.3669
11.718750 96.367 28.0929
11.803669 96.378 27.8174
11.889203 96.389 27.5407
11.975357 96.401 27.2632
12.062136 96.413 26.9852
12.149543 96.426 26.7071
12.237583 96.440 26.4291
12.326262 96.453 26.1517
12.415583 96.467 25.8751
12.505552 96.482 25.5997
12.596172 96.497 25.3258
12.687449 96.512 25.0539
12.779387 96.527 24.7844
12.871992 96.543 24.5176
12.965268 96.559 24.2542
13.059220 96.574 23.9944
13.153852 96.590 23.7388
13.249170 96.606 23.4878
13.345179 96.622 23.2419
13.441884 96.638 23.0013
13.539289 96.654 22.7665
13.637401 96.670 22.5375
13.736223 96.686 22.3146
13.835761 96.702 22.0977
13.936021 96.718 21.8867
14.037007 96.734 21.6816
14.138725 96.750 21.4819
14.241180 96.765 21.2875
14.344377 96.781 21.0979
14.448323 96.796 20.9127
14.553021 96.812 20.7316
14.658478 96.826 20.5543
14.764700 96.841 20.3803
14.871691 96.854 20.2096
14.979457 96.868 20.0420
15.088005 96.880 19.8774
15.197339 96.891 19.7158
15.307465 96.902 19.5572
15.418389 96.912 19.4017
15.530117 96.921 19.2494
15.642655 96.928 19.1003
15.756008 96.935 18.9544
15.870182 96.941 18.8115
15.985184 96.946 18.6713
16.101019 96.950 18.5336
16.217694 96.954 18.3977
16.335214 96.957 18.2631
16.453586 96.959 18.1290
16.572815 96.961 17.9946
16.692909 96.962 17.8591
16.813872 96.962 17.7216
16.935713 96.962 17.5813
17.058436 96.961 17.4374
17.182048 96.960 17.2894
17.306556 96.958 17.1365
17.431967 96.956 16.9785
17.558286 96.953 16.8150
17.685521 96.949 16.6460
17.813677 96.944 16.4713
17.942762 96.939 16.2911
18.072783 96.933 16.1056
18.203746 96.927 15.9151
18.335658 96.920 15.7200
18.468526 96.912 15.5207
18.602356 96.904 15.3175
18.737156 96.896 15.1110
18.872934 96.888 14.9014
19.009695 96.880 14.6892
19.147447 96.872 14.4745
19.286197 96.865 14.2575
19.425953 96.858 14.0384
19.566721 96.851 13.8169
19.708510 96.846 13.5931
19.851326 96.841 13.3668
19.995177 96.838 13.1378
20.140070 96.835 12.9061
20.286013 96.833 12.6715
20.433014 96.832 12.4343
20.581080 96.832 12.1948
20.730219 96.833 11.9535
20.880439 96.834 11.7112
21.031747 96.835 11.4689
21.184152 96.837 11.2274
21.337661 96.840 10.9878
21.492282 96.843 10.7511
21.648024 96.846 10.5182
21.804895 96.850 10.2898
21.962902 96.854 10.0663
22.122054 96.858 9.8482
22.282360 96.863 9.6355
22.443827 96.867 9.4283
22.606464 96.872 9.2266
22.770280 96.877 9.0306
22.935283 96.882 8.8404
23.101481 96.887 8.6560
23.268884 96.891 8.4778
23.437500 96.895 8.3058
23.607338 96.899 8.1400
23.778406 96.902 7.9801
23.950714 96.905 7.8255
24.124271 96.908 7.6753
24.299086 96.910 7.5283
24.475167 96.912 7.3833
24.652524 96.914 7.2387
24.831166 96.915 7.0934
25.011103 96.916 6.9462
25.192344 96.915 6.7967
25.374898 96.914 6.6444
25.558775 96.912 6.4896
25.743984 96.908 6.3325
25.930536 96.903 6.1735
26.118439 96.898 6.0130
26.307704 96.891 5.8512
26.498341 96.885 5.6879
26.690359 96.877 5.5226
26.883768 96.870 5.3547
27.078579 96.862 5.1833
27.274801 96.855 5.0079
27.472446 96.848 4.8277
27.671522 96.841 4.6424
27.872042 96.834 4.4521
28.074014 96.827 4.2572
28.277450 96.821 4.0581
28.482360 96.814 3.8556
28.688755 96.808 3.6504
28.896645 96.803 3.4434
29.106042 96.798 3.2350
29.316957 96.794 3.0261
29.529400 96.790 2.8171
29.743382 96.786 2.6087
29.958915 96.783 2.4014
30.176009 96.781 2.1960
30.394677 96.778 1.9931
30.614929 96.776 1.7935
30.836778 96.775 1.5978
31.060234 96.773 1.4068
31.285309 96.772 1.2207
31.512015 96.770 1.0399
31.740364 96.769 0.8643
31.970368 96.768 0.6936
32.202039 96.767 0.5272
32.435388 96.765 0.3643
32.670428 96.764 0.2040
32.907171 96.763 0.0455
33.145630 96.761 -0.1124
33.385817 96.759 -0.2702
33.627745 96.756 -0.4289
33.871425 96.752 -0.5888
34.116871 96.748 -0.7506
34.364096 96.744 -0.9147
34.613113 96.738 -1.0815
34.863934 96.732 -1.2513
35.116572 96.726 -1.4245
35.371041 96.719 -1.6011
35.627354 96.711 -1.7812
35.885525 96.703 -1.9643
36.145566 96.694 -2.1502
36.407492 96.685 -2.3383
36.671316 96.676 -2.5281
36.937051 96.667 -2.7192
37.204712 96.658 -2.9113
37.474313 96.649 -3.1041
37.745867 96.640 -3.2978
38.019389 96.632 -3.4920
38.294893 96.624 -3.6867
38.572394 96.616 -3.8815
38.851905 96.608 -4.0760
39.133442 96.601 -4.2696
39.417019 96.593 -4.4619
39.702651 96.585 -4.6522
39.990353 96.577 -4.8402
40.280140 96.569 -5.0255
40.572026 96.560 -5.2079
40.866028 96.551 -5.3871
41.162160 96.542 -5.5629
41.460438 96.532 -5.7354
41.760877 96.522 -5.9051
42.063494 96.512 -6.0724
42.368303 96.501 -6.2385
42.675322 96.490 -6.4041
42.984565 96.479 -6.5700
43.296048 96.467 -6.7364
43.609789 96.455 -6.9035
43.925804 96.443 -7.0710
44.244108 96.430 -7.2386
44.564719 96.417 -7.4063
44.887654 96.404 -7.5740
45.212928 96.390 -7.7413
45.540560 96.376 -7.9074
45.870565 96.362 -8.0712
46.202962 96.348 -8.2318
46.537768 96.334 -8.3886
46.875000 96.321 -8.5421
47.214676 96.308 -8.6938
47.556813 96.296 -8.8456
47.901429 96.285 -8.9993
48.248542 96.274 -9.1556
48.598171 96.263 -9.3143
48.950334 96.252 -9.4741
49.305048 96.241 -9.6338
49.662333 96.229 -9.7924
50.022206 96.217 -9.9496
50.384688 96.206 -10.1057
50.749796 96.195 -10.2614
51.117550 96.183 -10.4173
51.487969 96.172 -10.5737
51.861072 96.161 -10.7308
52.236879 96.150 -10.8884
52.615409 96.139 -11.0461
52.996681 96.128 -11.2031
53.380717 96.116 -11.3586
53.767536 96.105 -11.5121
54.157158 96.093 -11.6634
54.549603 96.082 -11.8125
54.944892 96.070 -11.9602
55.343045 96.059 -12.1072
55.744084 96.047 -12.2541
56.148028 96.036 -12.4021
56.554900 96.025 -12.5523
56.964720 96.013 -12.7063
57.377510 96.001 -12.8658
57.793291 95.989 -13.0323
58.212085 95.976 -13.2063
58.633914 95.962 -13.3870
59.058799 95.947 -13.5722
59.486764 95.930 -13.7595
59.917829 95.913 -13.9462
60.352019 95.894 -14.1306
60.789354 95.876 -14.3119
61.229859 95.857 -14.4901
61.673556 95.839 -14.6650
62.120468 95.821 -14.8365
62.570618 95.803 -15.0046
63.024031 95.785 -15.1694
63.480729 95.767 -15.3310
63.940736 95.749 -15.4898
64.404077 95.732 -15.6458
64.870776 95.714 -15.7991
65.340856 95.695 -15.9495
65.814343 95.677 -16.0972
66.291261 95.658 -16.2425
66.771635 95.639 -16.3855
67.255489 95.620 -16.5266
67.742850 95.600 -16.6660
68.233743 95.581 -16.8037
68.728193 95.561 -16.9404
69.226226 95.542 -17.0766
69.727867 95.523 -17.2131
70.233144 95.504 -17.3500
70.742083 95.485 -17.4872
71.254709 95.466 -17.6241
71.771050 95.447 -17.7599
72.291132 95.428 -17.8937
72.814984 95.409 -18.0248
73.342631 95.389 -18.1524
73.874102 95.369 -18.2766
74.409424 95.350 -18.3978
74.948626 95.330 -18.5168
75.491734 95.310 -18.6346
76.038779 95.291 -18.7513
76.589787 95.271 -18.8672
77.144788 95.252 -18.9826
77.703811 95.233 -19.0981
78.266885 95.214 -19.2149
78.834039 95.195 -19.3345
79.405303 95.176 -19.4585
79.980706 95.156 -19.5881
80.560280 95.137 -19.7240
81.144053 95.116 -19.8666
81.732056 95.095 -20.0156
82.324320 95.072 -20.1696
82.920876 95.047 -20.3267
83.521755 95.021 -20.4837
84.126988 94.993 -20.6369
84.736607 94.964 -20.7828
85.350643 94.933 -20.9188
85.969129 94.902 -21.0438
86.592097 94.870 -21.1574
87.219579 94.838 -21.2597
87.851608 94.806 -21.3509
88.488217 94.773 -21.4323
89.129439 94.741 -21.5055
89.775308 94.709 -21.5722
90.425856 94.678 -21.6342
91.081119 94.647 -21.6935
91.741131 94.618 -21.7528
92.405925 94.589 -21.8150
93.075536 94.560 -21.8828
93.750000 94.532 -21.9570
94.429351 94.503 -22.0354
95.113625 94.473 -22.1128
95.802858 94.442 -22.1843
96.497085 94.411 -22.2470
97.196342 94.379 -22.3009
97.900667 94.347 -22.3476
98.610096 94.315 -22.3886
99.324665 94.283 -22.4250
100.044413 94.251 -22.4568
100.769376 94.218 -22.4837
101.499592 94.185 -22.5057
102.235100 94.153 -22.5233
102.975938 94.121 -22.5370
103.722144 94.090 -22.5477
104.473757 94.060 -22.5565
105.230817 94.030 -22.5644
