* Measurement data measured by REW V5.31
* Source: EXCL: Microphone (USB Sound Device        ), MICROPHONE (Master Volume), L, volume: 0.390
* Format: 256k Log Swept Sine, 1 sweep at -10.0 dBFS with no timing reference
* Dated: Aug 28, 2024 12:04:40 AM
* REW Settings:
*  C-weighting compensation: Off
*  Target level: 75.0 dB
* Note: Ziigaat x Jay Estrella MP L
* Measurement: Ziigaat x Jay Estrella MT
* Smoothing: 1/12 octave
* Frequency Step: 96 ppo
* Start Frequency: 0.36621094 Hz
*
* Freq(Hz) SPL(dB) Phase(degrees)
0.366211 97.222 -50.9573
0.368865 97.222 -51.0194
0.371538 97.222 -51.1123
0.374230 97.222 -51.2290
0.376942 97.223 -51.3633
0.379673 97.223 -51.5107
0.382424 97.224 -51.6683
0.385196 97.224 -51.8343
0.387987 97.225 -52.0077
0.390798 97.225 -52.1878
0.393630 97.226 -52.3745
0.396483 97.226 -52.5676
0.399356 97.226 -52.7671
0.402250 97.227 -52.9731
0.405165 97.227 -53.1854
0.408101 97.228 -53.4043
0.411058 97.228 -53.6297
0.414037 97.229 -53.8617
0.417037 97.229 -54.1004
0.420059 97.230 -54.3458
0.423103 97.230 -54.5979
0.426169 97.231 -54.8569
0.429257 97.231 -55.1227
0.432368 97.232 -55.3955
0.435501 97.232 -55.6752
0.438656 97.233 -55.9619
0.441835 97.233 -56.2556
0.445037 97.234 -56.5564
0.448262 97.234 -56.8643
0.451510 97.235 -57.1794
0.454782 97.235 -57.5016
0.458077 97.236 -57.8310
0.461397 97.236 -58.1676
0.464740 97.237 -58.5115
0.468108 97.238 -58.8625
0.471500 97.238 -59.2209
0.474917 97.239 -59.5864
0.478358 97.239 -59.9592
0.481825 97.240 -60.3393
0.485316 97.240 -60.7266
0.488833 97.241 -61.1211
0.492375 97.241 -61.5229
0.495943 97.242 -61.9318
0.499537 97.243 -62.3478
0.503157 97.243 -62.7710
0.506803 97.244 -63.2012
0.510475 97.244 -63.6384
0.514175 97.245 -64.0826
0.517900 97.246 -64.5337
0.521653 97.246 -64.9916
0.525434 97.247 -65.4563
0.529241 97.247 -65.9277
0.533076 97.248 -66.4057
0.536939 97.249 -66.8902
0.540830 97.249 -67.3811
0.544749 97.250 -67.8782
0.548696 97.251 -68.3816
0.552673 97.251 -68.8911
0.556677 97.252 -69.4064
0.560711 97.253 -69.9277
0.564774 97.253 -70.4545
0.568867 97.254 -70.9869
0.572989 97.254 -71.5248
0.577141 97.255 -72.0678
0.581324 97.256 -72.6159
0.585536 97.257 -73.1689
0.589779 97.257 -73.7267
0.594053 97.258 -74.2890
0.598358 97.259 -74.8557
0.602694 97.259 -75.4267
0.607061 97.260 -76.0016
0.611460 97.261 -76.5804
0.615891 97.261 -77.1628
0.620354 97.262 -77.7486
0.624849 97.263 -78.3377
0.629377 97.264 -78.9299
0.633938 97.264 -79.5249
0.638532 97.265 -80.1226
0.643159 97.266 -80.7227
0.647819 97.267 -81.3251
0.652514 97.267 -81.9296
0.657242 97.268 -82.5359
0.662005 97.269 -83.1440
0.666802 97.270 -83.7535
0.671634 97.270 -84.3644
0.676501 97.271 -84.9764
0.681403 97.272 -85.5894
0.686341 97.273 -86.2032
0.691314 97.274 -86.8177
0.696324 97.274 -87.4328
0.701370 97.275 -88.0485
0.706452 97.276 -88.6648
0.711571 97.277 -89.2818
0.716728 97.278 -89.9000
0.721921 97.280 -90.5201
0.727153 97.281 -91.1433
0.732422 97.283 -91.7710
0.737729 97.286 -92.4053
0.743075 97.289 -93.0478
0.748460 97.292 -93.7003
0.753883 97.295 -94.3637
0.759346 97.299 -95.0388
0.764849 97.303 -95.7259
0.770391 97.307 -96.4252
0.775974 97.311 -97.1367
0.781597 97.316 -97.8603
0.787261 97.320 -98.5957
0.792966 97.325 -99.3429
0.798712 97.330 -100.1016
0.804500 97.335 -100.8715
0.810329 97.340 -101.6524
0.816201 97.345 -102.4439
0.822116 97.350 -103.2457
0.828073 97.356 -104.0575
0.834074 97.361 -104.8788
0.840118 97.367 -105.7093
0.846206 97.373 -106.5486
0.852338 97.379 -107.3963
0.858514 97.385 -108.2518
0.864735 97.391 -109.1148
0.871001 97.398 -109.9848
0.877313 97.404 -110.8612
0.883670 97.411 -111.7436
0.890074 97.418 -112.6314
0.896524 97.425 -113.5242
0.903020 97.432 -114.4213
0.909564 97.439 -115.3224
0.916155 97.447 -116.2267
0.922794 97.454 -117.1339
0.929481 97.462 -118.0433
0.936216 97.470 -118.9545
0.943000 97.478 -119.8669
0.949834 97.486 -120.7799
0.956717 97.494 -121.6932
0.963649 97.503 -122.6061
0.970632 97.512 -123.5183
0.977666 97.520 -124.4292
0.984750 97.529 -125.3385
0.991886 97.538 -126.2456
0.999074 97.548 -127.1502
1.006314 97.557 -128.0520
1.013606 97.567 -128.9506
1.020951 97.576 -129.8456
1.028349 97.586 -130.7368
1.035801 97.596 -131.6239
1.043307 97.606 -132.5069
1.050867 97.616 -133.3856
1.058482 97.627 -134.2601
1.066152 97.637 -135.1306
1.073878 97.648 -135.9978
1.081660 97.659 -136.8626
1.089498 97.670 -137.7268
1.097393 97.681 -138.5926
1.105345 97.693 -139.4627
1.113355 97.705 -140.3401
1.121423 97.717 -141.2274
1.129549 97.729 -142.1263
1.137734 97.742 -143.0383
1.145979 97.755 -143.9641
1.154283 97.769 -144.9042
1.162647 97.783 -145.8590
1.171072 97.797 -146.8283
1.179558 97.811 -147.8123
1.188106 97.826 -148.8107
1.196715 97.841 -149.8233
1.205387 97.856 -150.8498
1.214122 97.872 -151.8899
1.222920 97.888 -152.9430
1.231782 97.904 -154.0087
1.240708 97.920 -155.0863
1.249699 97.937 -156.1751
1.258754 97.954 -157.2744
1.267876 97.971 -158.3833
1.277063 97.988 -159.5009
1.286318 98.005 -160.6261
1.295639 98.022 -161.7578
1.305027 98.040 -162.8950
1.314484 98.057 -164.0362
1.324009 98.075 -165.1802
1.333604 98.092 -166.3257
1.343268 98.110 -167.4710
1.353002 98.128 -168.6148
1.362806 98.145 -169.7555
1.372681 98.163 -170.8914
1.382628 98.180 -172.0211
1.392647 98.197 -173.1428
1.402739 98.214 -174.2552
1.412904 98.231 -175.3568
1.423142 98.248 -176.4467
1.433455 98.264 -177.5244
1.443843 98.281 -178.5902
1.454305 98.297 -179.6455
1.464844 98.313 179.3073
1.475459 98.329 178.2643
1.486150 98.345 177.2222
1.496920 98.361 176.1774
1.507767 98.377 175.1277
1.518693 98.393 174.0715
1.529698 98.410 173.0081
1.540783 98.426 171.9371
1.551948 98.442 170.8585
1.563194 98.459 169.7726
1.574521 98.475 168.6797
1.585931 98.492 167.5805
1.597423 98.508 166.4755
1.608999 98.524 165.3653
1.620658 98.540 164.2509
1.632402 98.556 163.1329
1.644232 98.571 162.0123
1.656146 98.587 160.8900
1.668147 98.602 159.7672
1.680235 98.616 158.6447
1.692411 98.630 157.5237
1.704675 98.644 156.4055
1.717028 98.657 155.2911
1.729470 98.670 154.1818
1.742003 98.682 153.0788
1.754626 98.693 151.9832
1.767341 98.703 150.8958
1.780147 98.713 149.8175
1.793047 98.722 148.7481
1.806040 98.730 147.6872
1.819128 98.737 146.6328
1.832310 98.743 145.5822
1.845587 98.749 144.5316
1.858961 98.754 143.4770
1.872432 98.758 142.4152
1.886001 98.761 141.3441
1.899667 98.764 140.2622
1.913433 98.766 139.1691
1.927299 98.767 138.0648
1.941265 98.767 136.9497
1.955332 98.767 135.8248
1.969501 98.766 134.6911
1.983773 98.764 133.5500
1.998148 98.761 132.4032
2.012627 98.757 131.2523
2.027212 98.751 130.0994
2.041902 98.745 128.9466
2.056698 98.738 127.7964
2.071602 98.729 126.6514
2.086614 98.720 125.5141
2.101734 98.709 124.3875
2.116964 98.696 123.2742
2.132304 98.682 122.1769
2.147756 98.667 121.0975
2.163320 98.650 120.0375
2.178996 98.632 118.9967
2.194786 98.611 117.9737
2.210690 98.590 116.9654
2.226710 98.566 115.9679
2.242845 98.540 114.9775
2.259098 98.513 113.9913
2.275468 98.484 113.0073
2.291957 98.453 112.0244
2.308566 98.420 111.0421
2.325295 98.385 110.0607
2.342145 98.349 109.0807
2.359117 98.311 108.1033
2.376212 98.272 107.1297
2.393431 98.231 106.1617
2.410775 98.188 105.2014
2.428244 98.144 104.2512
2.445840 98.099 103.3140
2.463564 98.052 102.3927
2.481416 98.003 101.4905
2.499397 97.954 100.6110
2.517509 97.903 99.7572
2.535752 97.850 98.9318
2.554127 97.795 98.1369
2.572635 97.739 97.3732
2.591277 97.680 96.6404
2.610055 97.618 95.9376
2.628968 97.554 95.2632
2.648019 97.487 94.6159
2.667208 97.417 93.9945
2.686535 97.346 93.3981
2.706003 97.273 92.8258
2.725612 97.199 92.2773
2.745363 97.124 91.7523
2.765257 97.049 91.2508
2.785295 96.974 90.7731
2.805478 96.900 90.3197
2.825808 96.828 89.8915
2.846285 96.757 89.4899
2.866910 96.689 89.1169
2.887685 96.623 88.7752
2.908611 96.561 88.4685
2.929688 96.500 88.2012
2.950917 96.442 87.9778
2.972301 96.385 87.8024
2.993839 96.331 87.6772
3.015534 96.277 87.6024
3.037386 96.226 87.5768
3.059396 96.176 87.5975
3.081565 96.130 87.6608
3.103896 96.087 87.7620
3.126388 96.047 87.8958
3.149043 96.013 88.0565
3.171862 95.985 88.2381
3.194847 95.962 88.4350
3.217998 95.948 88.6421
3.241317 95.941 88.8557
3.264805 95.943 89.0740
3.288463 95.954 89.2981
3.312293 95.976 89.5309
3.336295 96.007 89.7762
3.360471 96.048 90.0361
3.384822 96.099 90.3098
3.409350 96.158 90.5938
3.434056 96.226 90.8823
3.458940 96.301 91.1680
3.484005 96.382 91.4427
3.509252 96.469 91.6979
3.534681 96.561 91.9254
3.560295 96.657 92.1174
3.586094 96.757 92.2675
3.612081 96.859 92.3705
3.638255 96.965 92.4240
3.664620 97.074 92.4277
3.691175 97.187 92.3838
3.717923 97.304 92.2957
3.744864 97.425 92.1670
3.772001 97.550 92.0005
3.799335 97.679 91.7984
3.826866 97.811 91.5622
3.854597 97.944 91.2929
3.882529 98.077 90.9909
3.910664 98.209 90.6562
3.939002 98.340 90.2885
3.967546 98.468 89.8866
3.996296 98.592 89.4493
4.025255 98.713 88.9755
4.054423 98.831 88.4639
4.083804 98.945 87.9150
4.113396 99.057 87.3304
4.143204 99.165 86.7134
4.173227 99.271 86.0684
4.203468 99.373 85.4002
4.233928 99.472 84.7137
4.264609 99.567 84.0132
4.295512 99.658 83.3024
4.326639 99.744 82.5833
4.357992 99.826 81.8564
4.389572 99.902 81.1204
4.421380 99.973 80.3729
4.453419 100.040 79.6116
4.485691 100.101 78.8361
4.518196 100.157 78.0479
4.550936 100.207 77.2508
4.583914 100.254 76.4498
4.617131 100.295 75.6507
4.650589 100.332 74.8591
4.684289 100.364 74.0798
4.718233 100.392 73.3161
4.752424 100.416 72.5692
4.786862 100.434 71.8381
4.821549 100.448 71.1211
4.856488 100.457 70.4168
4.891680 100.462 69.7252
4.927127 100.462 69.0479
4.962831 100.458 68.3879
4.998794 100.452 67.7493
5.035017 100.443 67.1361
5.071503 100.432 66.5526
5.108253 100.419 66.0018
5.145270 100.404 65.4857
5.182555 100.387 65.0048
5.220110 100.368 64.5582
5.257937 100.348 64.1447
5.296038 100.327 63.7627
5.334415 100.306 63.4109
5.373071 100.286 63.0884
5.412006 100.268 62.7950
5.451224 100.252 62.5309
5.490725 100.238 62.2972
5.530514 100.228 62.0947
5.570590 100.222 61.9232
5.610957 100.218 61.7806
5.651616 100.218 61.6629
5.692570 100.222 61.5644
5.733821 100.230 61.4791
5.775370 100.243 61.4011
5.817221 100.260 61.3259
5.859375 100.283 61.2506
5.901834 100.311 61.1737
5.944602 100.344 61.0941
5.987679 100.383 61.0097
6.031068 100.425 60.9168
6.074771 100.472 60.8108
6.118792 100.521 60.6863
6.163131 100.573 60.5387
6.207792 100.628 60.3643
6.252776 100.684 60.1611
6.298086 100.741 59.9289
6.343725 100.800 59.6683
6.389694 100.860 59.3804
6.435996 100.919 59.0661
6.482634 100.977 58.7261
6.529610 101.034 58.3605
6.576926 101.088 57.9692
6.624585 101.139 57.5524
6.672590 101.188 57.1109
6.720942 101.233 56.6469
6.769645 101.274 56.1643
6.818700 101.312 55.6672
6.868111 101.345 55.1600
6.917881 101.374 54.6462
6.968010 101.398 54.1280
7.018504 101.418 53.6068
7.069362 101.432 53.0842
7.120590 101.442 52.5632
7.172189 101.448 52.0474
7.224161 101.450 51.5415
7.276511 101.447 51.0494
7.329239 101.442 50.5745
7.382350 101.433 50.1184
7.435845 101.420 49.6822
7.489729 101.405 49.2667
7.544002 101.389 48.8727
7.598669 101.371 48.5015
7.653732 101.352 48.1545
7.709194 101.333 47.8326
7.765058 101.314 47.5358
7.821327 101.296 47.2629
7.878004 101.279 47.0116
7.935091 101.264 46.7789
7.992592 101.251 46.5619
8.050510 101.241 46.3579
8.108847 101.233 46.1647
8.167607 101.229 45.9799
8.226793 101.227 45.8002
8.286408 101.228 45.6213
8.346454 101.232 45.4391
8.406936 101.239 45.2495
8.467856 101.248 45.0496
8.529218 101.259 44.8377
8.591024 101.272 44.6121
8.653278 101.286 44.3713
8.715983 101.301 44.1138
8.779143 101.316 43.8385
8.842760 101.330 43.5448
8.906839 101.344 43.2333
8.971381 101.357 42.9052
9.036392 101.368 42.5626
9.101873 101.377 42.2073
9.167829 101.384 41.8414
9.234263 101.388 41.4666
9.301178 101.390 41.0851
9.368578 101.390 40.6996
9.436467 101.386 40.3131
9.504847 101.381 39.9286
9.573723 101.373 39.5481
9.643099 101.362 39.1733
9.712976 101.349 38.8058
9.783361 101.334 38.4467
9.854255 101.315 38.0972
9.925663 101.294 37.7580
9.997588 101.271 37.4293
10.070035 101.245 37.1104
10.143007 101.218 36.8002
10.216507 101.191 36.4974
10.290540 101.163 36.2007
10.365109 101.135 35.9084
10.440219 101.107 35.6190
10.515873 101.081 35.3302
10.592076 101.055 35.0401
10.668830 101.031 34.7469
10.746141 101.007 34.4493
10.824012 100.984 34.1463
10.902447 100.963 33.8370
10.981451 100.941 33.5210
11.061027 100.920 33.1979
11.141180 100.899 32.8681
11.221913 100.878 32.5322
11.303232 100.856 32.1912
11.385140 100.835 31.8459
11.467641 100.812 31.4975
11.550741 100.790 31.1469
11.634442 100.767 30.7955
11.718750 100.745 30.4441
11.803669 100.722 30.0938
11.889203 100.700 29.7448
11.975357 100.678 29.3977
12.062136 100.657 29.0525
12.149543 100.636 28.7091
12.237583 100.617 28.3672
12.326262 100.598 28.0264
12.415583 100.579 27.6861
12.505552 100.562 27.3458
12.596172 100.544 27.0052
12.687449 100.527 26.6639
12.779387 100.510 26.3221
12.871992 100.493 25.9796
12.965268 100.476 25.6371
13.059220 100.460 25.2950
13.153852 100.443 24.9545
13.249170 100.426 24.6163
13.345179 100.409 24.2815
13.441884 100.393 23.9509
13.539289 100.376 23.6256
13.637401 100.360 23.3060
13.736223 100.345 22.9926
13.835761 100.330 22.6849
13.936021 100.316 22.3828
14.037007 100.303 22.0853
14.138725 100.290 21.7914
14.241180 100.279 21.4996
14.344377 100.268 21.2084
14.448323 100.259 20.9164
14.553021 100.250 20.6221
14.658478 100.241 20.3246
14.764700 100.233 20.0232
14.871691 100.225 19.7177
14.979457 100.216 19.4084
15.088005 100.207 19.0963
15.197339 100.197 18.7824
15.307465 100.186 18.4684
15.418389 100.174 18.1559
15.530117 100.161 17.8468
15.642655 100.147 17.5425
15.756008 100.133 17.2443
15.870182 100.117 16.9530
15.985184 100.102 16.6688
16.101019 100.086 16.3914
16.217694 100.071 16.1197
16.335214 100.056 15.8524
16.453586 100.042 15.5879
16.572815 100.029 15.3240
16.692909 100.017 15.0592
16.813872 100.005 14.7916
16.935713 99.994 14.5201
17.058436 99.984 14.2439
17.182048 99.973 13.9629
17.306556 99.962 13.6774
17.431967 99.950 13.3881
17.558286 99.938 13.0962
17.685521 99.925 12.8029
17.813677 99.910 12.5095
17.942762 99.896 12.2169
18.072783 99.880 11.9260
18.203746 99.865 11.6370
18.335658 99.849 11.3500
18.468526 99.834 11.0643
18.602356 99.818 10.7794
18.737156 99.804 10.4945
18.872934 99.790 10.2086
19.009695 99.776 9.9213
19.147447 99.763 9.6320
19.286197 99.750 9.3405
19.425953 99.737 9.0471
19.566721 99.724 8.7520
19.708510 99.711 8.4557
19.851326 99.699 8.1588
19.995177 99.686 7.8615
20.140070 99.674 7.5642
20.286013 99.661 7.2668
20.433014 99.649 6.9695
20.581080 99.637 6.6719
20.730219 99.625 6.3739
20.880439 99.614 6.0754
21.031747 99.603 5.7768
21.184152 99.592 5.4781
21.337661 99.582 5.1802
21.492282 99.571 4.8833
21.648024 99.561 4.5884
21.804895 99.551 4.2958
21.962902 99.541 4.0059
22.122054 99.531 3.7188
22.282360 99.521 3.4342
22.443827 99.512 3.1518
22.606464 99.503 2.8712
22.770280 99.493 2.5919
22.935283 99.484 2.3140
23.101481 99.474 2.0375
23.268884 99.464 1.7628
23.437500 99.453 1.4907
23.607338 99.442 1.2218
23.778406 99.430 0.9569
23.950714 99.417 0.6963
24.124271 99.404 0.4399
24.299086 99.391 0.1876
24.475167 99.378 -0.0615
24.652524 99.365 -0.3085
24.831166 99.352 -0.5541
25.011103 99.338 -0.7992
25.192344 99.325 -1.0443
25.374898 99.311 -1.2894
25.558775 99.296 -1.5343
25.743984 99.281 -1.7785
25.930536 99.266 -2.0215
26.118439 99.250 -2.2631
26.307704 99.234 -2.5027
26.498341 99.218 -2.7407
26.690359 99.202 -2.9772
26.883768 99.186 -3.2124
27.078579 99.170 -3.4468
27.274801 99.154 -3.6805
27.472446 99.138 -3.9141
27.671522 99.123 -4.1475
27.872042 99.109 -4.3816
28.074014 99.094 -4.6169
28.277450 99.081 -4.8545
28.482360 99.068 -5.0955
28.688755 99.056 -5.3409
28.896645 99.044 -5.5914
29.106042 99.032 -5.8473
29.316957 99.020 -6.1080
29.529400 99.008 -6.3728
29.743382 98.996 -6.6404
29.958915 98.984 -6.9097
30.176009 98.971 -7.1797
30.394677 98.958 -7.4501
30.614929 98.946 -7.7206
30.836778 98.933 -7.9913
31.060234 98.920 -8.2623
31.285309 98.906 -8.5334
31.512015 98.892 -8.8038
31.740364 98.877 -9.0724
31.970368 98.861 -9.3383
32.202039 98.845 -9.6002
32.435388 98.828 -9.8580
32.670428 98.811 -10.1118
32.907171 98.793 -10.3623
33.145630 98.776 -10.6106
33.385817 98.758 -10.8578
33.627745 98.741 -11.1047
33.871425 98.722 -11.3516
34.116871 98.703 -11.5984
34.364096 98.684 -11.8447
34.613113 98.664 -12.0901
34.863934 98.643 -12.3344
35.116572 98.622 -12.5776
35.371041 98.600 -12.8202
35.627354 98.578 -13.0624
35.885525 98.556 -13.3044
36.145566 98.533 -13.5461
36.407492 98.509 -13.7872
36.671316 98.485 -14.0267
36.937051 98.461 -14.2640
37.204712 98.436 -14.4982
37.474313 98.411 -14.7288
37.745867 98.387 -14.9556
38.019389 98.362 -15.1793
38.294893 98.338 -15.4008
38.572394 98.315 -15.6206
38.851905 98.292 -15.8397
39.133442 98.269 -16.0586
39.417019 98.247 -16.2773
39.702651 98.224 -16.4958
39.990353 98.202 -16.7141
40.280140 98.179 -16.9320
40.572026 98.157 -17.1497
40.866028 98.134 -17.3671
41.162160 98.111 -17.5836
41.460438 98.088 -17.7987
41.760877 98.064 -18.0110
42.063494 98.039 -18.2196
42.368303 98.014 -18.4238
42.675322 97.989 -18.6234
42.984565 97.964 -18.8187
43.296048 97.939 -19.0104
43.609789 97.913 -19.1992
43.925804 97.888 -19.3864
44.244108 97.864 -19.5729
44.564719 97.839 -19.7601
44.887654 97.815 -19.9490
45.212928 97.790 -20.1401
45.540560 97.765 -20.3333
45.870565 97.739 -20.5269
46.202962 97.713 -20.7191
46.537768 97.685 -20.9083
46.875000 97.658 -21.0939
47.214676 97.631 -21.2764
47.556813 97.604 -21.4575
47.901429 97.578 -21.6394
48.248542 97.551 -21.8232
48.598171 97.525 -22.0089
48.950334 97.497 -22.1955
49.305048 97.469 -22.3812
49.662333 97.441 -22.5650
50.022206 97.412 -22.7462
50.384688 97.383 -22.9249
50.749796 97.353 -23.1014
51.117550 97.323 -23.2753
51.487969 97.293 -23.4460
51.861072 97.262 -23.6130
52.236879 97.231 -23.7759
52.615409 97.201 -23.9351
52.996681 97.170 -24.0909
53.380717 97.140 -24.2433
53.767536 97.110 -24.3922
54.157158 97.080 -24.5373
54.549603 97.050 -24.6794
54.944892 97.022 -24.8201
55.343045 96.993 -24.9616
55.744084 96.966 -25.1057
56.148028 96.938 -25.2533
56.554900 96.910 -25.4042
56.964720 96.881 -25.5573
57.377510 96.852 -25.7118
57.793291 96.822 -25.8671
58.212085 96.792 -26.0228
58.633914 96.761 -26.1788
59.058799 96.730 -26.3345
59.486764 96.698 -26.4891
59.917829 96.664 -26.6417
60.352019 96.631 -26.7913
60.789354 96.596 -26.9368
61.229859 96.562 -27.0774
61.673556 96.527 -27.2131
62.120468 96.492 -27.3444
62.570618 96.457 -27.4725
63.024031 96.423 -27.5989
63.480729 96.389 -27.7247
63.940736 96.354 -27.8500
64.404077 96.319 -27.9740
64.870776 96.284 -28.0959
65.340856 96.249 -28.2152
65.814343 96.213 -28.3312
66.291261 96.178 -28.4432
66.771635 96.142 -28.5510
67.255489 96.105 -28.6542
67.742850 96.070 -28.7535
68.233743 96.034 -28.8503
68.728193 95.999 -28.9462
69.226226 95.963 -29.0417
69.727867 95.928 -29.1369
70.233144 95.892 -29.2306
70.742083 95.856 -29.3217
71.254709 95.820 -29.4095
71.771050 95.783 -29.4943
72.291132 95.747 -29.5769
72.814984 95.711 -29.6582
73.342631 95.675 -29.7390
73.874102 95.638 -29.8188
74.409424 95.602 -29.8972
74.948626 95.565 -29.9735
75.491734 95.528 -30.0477
76.038779 95.492 -30.1204
76.589787 95.456 -30.1922
77.144788 95.420 -30.2637
77.703811 95.384 -30.3354
78.266885 95.348 -30.4080
78.834039 95.313 -30.4823
79.405303 95.277 -30.5592
79.980706 95.242 -30.6396
80.560280 95.206 -30.7244
81.144053 95.169 -30.8135
81.732056 95.132 -30.9068
82.324320 95.093 -31.0033
82.920876 95.053 -31.1014
83.521755 95.012 -31.1989
84.126988 94.969 -31.2925
84.736607 94.925 -31.3789
85.350643 94.880 -31.4553
85.969129 94.834 -31.5198
86.592097 94.788 -31.5718
87.219579 94.742 -31.6116
87.851608 94.697 -31.6407
88.488217 94.652 -31.6607
89.129439 94.607 -31.6727
89.775308 94.563 -31.6783
90.425856 94.519 -31.6790
91.081119 94.475 -31.6765
91.741131 94.432 -31.6729
92.405925 94.389 -31.6702
93.075536 94.346 -31.6688
93.750000 94.303 -31.6675
94.429351 94.259 -31.6635
95.113625 94.214 -31.6545
