* Measurement data measured by REW V5.31
* Source: EXCL: Microphone (USB Sound Device        ), MICROPHONE (Master Volume), L, volume: 0.390
* Format: 256k Log Swept Sine, 1 sweep at -10.0 dBFS with no timing reference
* Dated: Aug 27, 2024 11:47:59 PM
* REW Settings:
*  C-weighting compensation: Off
*  Target level: 75.0 dB
* Note: Ziigaat x Jay Estrella L
* Measurement: L Ziigaat x Jay Estrella
* Smoothing: 1/12 octave
* Frequency Step: 96 ppo
* Start Frequency: 0.36621094 Hz
*
* Freq(Hz) SPL(dB) Phase(degrees)
0.366211 97.134 -51.4437
0.368865 97.134 -51.5065
0.371538 97.135 -51.6004
0.374230 97.135 -51.7184
0.376942 97.136 -51.8542
0.379673 97.137 -52.0032
0.382424 97.137 -52.1626
0.385196 97.138 -52.3304
0.387987 97.139 -52.5057
0.390798 97.140 -52.6878
0.393630 97.140 -52.8766
0.396483 97.141 -53.0718
0.399356 97.142 -53.2735
0.402250 97.143 -53.4817
0.405165 97.144 -53.6964
0.408101 97.145 -53.9176
0.411058 97.145 -54.1455
0.414037 97.146 -54.3800
0.417037 97.147 -54.6213
0.420059 97.148 -54.8693
0.423103 97.149 -55.1242
0.426169 97.150 -55.3860
0.429257 97.150 -55.6547
0.432368 97.151 -55.9304
0.435501 97.152 -56.2131
0.438656 97.153 -56.5028
0.441835 97.154 -56.7997
0.445037 97.155 -57.1037
0.448262 97.156 -57.4149
0.451510 97.157 -57.7333
0.454782 97.158 -58.0589
0.458077 97.158 -58.3918
0.461397 97.159 -58.7319
0.464740 97.160 -59.0794
0.468108 97.161 -59.4341
0.471500 97.162 -59.7961
0.474917 97.163 -60.1655
0.478358 97.164 -60.5421
0.481825 97.165 -60.9261
0.485316 97.166 -61.3174
0.488833 97.167 -61.7159
0.492375 97.168 -62.1216
0.495943 97.169 -62.5346
0.499537 97.170 -62.9548
0.503157 97.171 -63.3822
0.506803 97.172 -63.8166
0.510475 97.173 -64.2581
0.514175 97.174 -64.7066
0.517900 97.175 -65.1621
0.521653 97.176 -65.6244
0.525434 97.177 -66.0935
0.529241 97.178 -66.5693
0.533076 97.179 -67.0518
0.536939 97.180 -67.5407
0.540830 97.181 -68.0361
0.544749 97.183 -68.5378
0.548696 97.184 -69.0457
0.552673 97.185 -69.5597
0.556677 97.186 -70.0797
0.560711 97.187 -70.6054
0.564774 97.188 -71.1369
0.568867 97.189 -71.6739
0.572989 97.190 -72.2162
0.577141 97.192 -72.7638
0.581324 97.193 -73.3165
0.585536 97.194 -73.8740
0.589779 97.195 -74.4363
0.594053 97.196 -75.0031
0.598358 97.197 -75.5743
0.602694 97.199 -76.1496
0.607061 97.200 -76.7290
0.611460 97.201 -77.3121
0.615891 97.202 -77.8989
0.620354 97.204 -78.4891
0.624849 97.205 -79.0825
0.629377 97.206 -79.6789
0.633938 97.207 -80.2782
0.638532 97.209 -80.8800
0.643159 97.210 -81.4843
0.647819 97.211 -82.0908
0.652514 97.213 -82.6994
0.657242 97.214 -83.3098
0.662005 97.215 -83.9219
0.666802 97.217 -84.5354
0.671634 97.218 -85.1503
0.676501 97.219 -85.7662
0.681403 97.221 -86.3831
0.686341 97.222 -87.0009
0.691314 97.223 -87.6193
0.696324 97.225 -88.2383
0.701370 97.226 -88.8578
0.706452 97.228 -89.4780
0.711571 97.229 -90.0989
0.716728 97.231 -90.7210
0.721921 97.233 -91.3450
0.727153 97.235 -91.9721
0.732422 97.238 -92.6038
0.737729 97.241 -93.2421
0.743075 97.245 -93.8887
0.748460 97.249 -94.5452
0.753883 97.253 -95.2128
0.759346 97.258 -95.8920
0.764849 97.262 -96.5833
0.770391 97.267 -97.2868
0.775974 97.272 -98.0024
0.781597 97.278 -98.7301
0.787261 97.283 -99.4698
0.792966 97.289 -100.2211
0.798712 97.294 -100.9839
0.804500 97.300 -101.7579
0.810329 97.306 -102.5427
0.816201 97.312 -103.3382
0.822116 97.319 -104.1438
0.828073 97.325 -104.9594
0.834074 97.332 -105.7844
0.840118 97.339 -106.6186
0.846206 97.345 -107.4614
0.852338 97.352 -108.3124
0.858514 97.360 -109.1712
0.864735 97.367 -110.0374
0.871001 97.375 -110.9103
0.877313 97.382 -111.7896
0.883670 97.390 -112.6747
0.890074 97.398 -113.5651
0.896524 97.406 -114.4603
0.903020 97.415 -115.3597
0.909564 97.423 -116.2628
0.916155 97.432 -117.1691
0.922794 97.440 -118.0780
0.929481 97.449 -118.9891
0.936216 97.458 -119.9016
0.943000 97.468 -120.8153
0.949834 97.477 -121.7295
0.956717 97.487 -122.6437
0.963649 97.496 -123.5574
0.970632 97.506 -124.4702
0.977666 97.516 -125.3817
0.984750 97.526 -126.2913
0.991886 97.537 -127.1987
0.999074 97.547 -128.1035
1.006314 97.558 -129.0053
1.013606 97.569 -129.9038
1.020951 97.580 -130.7987
1.028349 97.591 -131.6897
1.035801 97.602 -132.5766
1.043307 97.613 -133.4593
1.050867 97.625 -134.3376
1.058482 97.636 -135.2117
1.066152 97.648 -136.0819
1.073878 97.660 -136.9487
1.081660 97.672 -137.8133
1.089498 97.685 -138.6772
1.097393 97.697 -139.5427
1.105345 97.710 -140.4127
1.113355 97.723 -141.2901
1.121423 97.736 -142.1773
1.129549 97.750 -143.0762
1.137734 97.764 -143.9883
1.145979 97.779 -144.9142
1.154283 97.793 -145.8545
1.162647 97.809 -146.8094
1.171072 97.824 -147.7788
1.179558 97.840 -148.7629
1.188106 97.856 -149.7613
1.196715 97.872 -150.7739
1.205387 97.889 -151.8003
1.214122 97.906 -152.8401
1.222920 97.923 -153.8929
1.231782 97.940 -154.9581
1.240708 97.958 -156.0350
1.249699 97.976 -157.1230
1.258754 97.994 -158.2212
1.267876 98.012 -159.3289
1.277063 98.031 -160.4450
1.286318 98.049 -161.5685
1.295639 98.068 -162.6984
1.305027 98.087 -163.8333
1.314484 98.105 -164.9722
1.324009 98.124 -166.1136
1.333604 98.143 -167.2561
1.343268 98.162 -168.3983
1.353002 98.181 -169.5387
1.362806 98.200 -170.6758
1.372681 98.219 -171.8079
1.382628 98.237 -172.9335
1.392647 98.256 -174.0510
1.402739 98.274 -175.1590
1.412904 98.292 -176.2561
1.423142 98.310 -177.3413
1.433455 98.328 -178.4142
1.443843 98.345 -179.4752
1.454305 98.363 179.4745
1.464844 98.380 178.4321
1.475459 98.397 177.3942
1.486150 98.414 176.3570
1.496920 98.431 175.3172
1.507767 98.448 174.2726
1.518693 98.465 173.2215
1.529698 98.483 172.1632
1.540783 98.500 171.0974
1.551948 98.517 170.0240
1.563194 98.535 168.9434
1.574521 98.552 167.8559
1.585931 98.569 166.7621
1.597423 98.587 165.6626
1.608999 98.604 164.5581
1.620658 98.621 163.4494
1.632402 98.637 162.3372
1.644232 98.654 161.2225
1.656146 98.670 160.1063
1.668147 98.686 158.9894
1.680235 98.701 157.8732
1.692411 98.716 156.7585
1.704675 98.730 155.6466
1.717028 98.744 154.5386
1.729470 98.758 153.4359
1.742003 98.770 152.3394
1.754626 98.782 151.2505
1.767341 98.793 150.1698
1.780147 98.804 149.0982
1.793047 98.813 148.0356
1.806040 98.822 146.9815
1.819128 98.829 145.9340
1.832310 98.836 144.8903
1.845587 98.842 143.8465
1.858961 98.848 142.7989
1.872432 98.852 141.7441
1.886001 98.856 140.6801
1.899667 98.859 139.6053
1.913433 98.862 138.5193
1.927299 98.863 137.4223
1.941265 98.864 136.3146
1.955332 98.864 135.1971
1.969501 98.863 134.0711
1.983773 98.861 132.9377
1.998148 98.858 131.7986
2.012627 98.855 130.6557
2.027212 98.850 129.5108
2.041902 98.844 128.3662
2.056698 98.837 127.2242
2.071602 98.828 126.0875
2.086614 98.819 124.9587
2.101734 98.808 123.8405
2.116964 98.795 122.7358
2.132304 98.781 121.6470
2.147756 98.766 120.5763
2.163320 98.749 119.5249
2.178996 98.731 118.4928
2.194786 98.711 117.4785
2.210690 98.689 116.4789
2.226710 98.665 115.4902
2.242845 98.639 114.5086
2.259098 98.612 113.5314
2.275468 98.582 112.5565
2.291957 98.551 111.5828
2.308566 98.518 110.6099
2.325295 98.483 109.6379
2.342145 98.447 108.6677
2.359117 98.408 107.7000
2.376212 98.369 106.7364
2.393431 98.327 105.7786
2.410775 98.284 104.8286
2.428244 98.240 103.8890
2.445840 98.194 102.9624
2.463564 98.146 102.0520
2.481416 98.098 101.1609
2.499397 98.047 100.2926
2.517509 97.996 99.4502
2.535752 97.943 98.6364
2.554127 97.888 97.8533
2.572635 97.830 97.1017
2.591277 97.771 96.3813
2.610055 97.708 95.6911
2.628968 97.643 95.0298
2.648019 97.576 94.3961
2.667208 97.506 93.7886
2.686535 97.434 93.2066
2.706003 97.360 92.6494
2.725612 97.285 92.1163
2.745363 97.209 91.6072
2.765257 97.134 91.1222
2.785295 97.058 90.6614
2.805478 96.984 90.2255
2.825808 96.911 89.8152
2.846285 96.840 89.4321
2.866910 96.771 89.0779
2.887685 96.706 88.7555
2.908611 96.642 88.4685
2.929688 96.582 88.2213
2.950917 96.524 88.0186
2.972301 96.468 87.8644
2.993839 96.413 87.7608
3.015534 96.360 87.7083
3.037386 96.309 87.7056
3.059396 96.261 87.7496
3.081565 96.215 87.8367
3.103896 96.172 87.9619
3.126388 96.134 88.1199
3.149043 96.101 88.3049
3.171862 96.073 88.5107
3.194847 96.053 88.7316
3.217998 96.039 88.9622
3.241317 96.034 89.1988
3.264805 96.038 89.4394
3.288463 96.051 89.6849
3.312293 96.074 89.9384
3.336295 96.108 90.2033
3.360471 96.151 90.4819
3.384822 96.204 90.7732
3.409350 96.266 91.0737
3.434056 96.337 91.3776
3.458940 96.414 91.6776
3.484005 96.499 91.9654
3.509252 96.589 92.2327
3.534681 96.684 92.4712
3.560295 96.783 92.6733
3.586094 96.885 92.8324
3.612081 96.990 92.9437
3.638255 97.098 93.0045
3.664620 97.209 93.0148
3.691175 97.324 92.9767
3.717923 97.444 92.8936
3.744864 97.567 92.7691
3.772001 97.694 92.6062
3.799335 97.825 92.4070
3.826866 97.958 92.1734
3.854597 98.093 91.9063
3.882529 98.228 91.6064
3.910664 98.361 91.2738
3.939002 98.493 90.9080
3.967546 98.623 90.5083
3.996296 98.748 90.0735
4.025255 98.871 89.6022
4.054423 98.989 89.0935
4.083804 99.104 88.5475
4.113396 99.217 87.9660
4.143204 99.326 87.3523
4.173227 99.432 86.7107
4.203468 99.535 86.0461
4.233928 99.634 85.3634
4.264609 99.729 84.6671
4.295512 99.821 83.9608
4.326639 99.907 83.2466
4.357992 99.989 82.5250
4.389572 100.066 81.7949
4.421380 100.138 81.0537
4.453419 100.204 80.2993
4.485691 100.265 79.5311
4.518196 100.321 78.7507
4.550936 100.373 77.9618
4.583914 100.419 77.1694
4.617131 100.460 76.3793
4.650589 100.498 75.5971
4.684289 100.530 74.8276
4.718233 100.558 74.0742
4.752424 100.582 73.3379
4.786862 100.601 72.6180
4.821549 100.615 71.9128
4.856488 100.624 71.2207
4.891680 100.629 70.5419
4.927127 100.630 69.8780
4.962831 100.627 69.2318
4.998794 100.621 68.6071
5.035017 100.613 68.0084
5.071503 100.602 67.4394
5.108253 100.590 66.9035
5.145270 100.576 66.4025
5.182555 100.560 65.9368
5.220110 100.542 65.5057
5.257937 100.523 65.1079
5.296038 100.504 64.7417
5.334415 100.484 64.4058
5.373071 100.465 64.0991
5.412006 100.448 63.8212
5.451224 100.434 63.5724
5.490725 100.423 63.3534
5.530514 100.415 63.1651
5.570590 100.410 63.0072
5.610957 100.409 62.8777
5.651616 100.411 62.7723
5.692570 100.417 62.6856
5.733821 100.427 62.6113
5.775370 100.442 62.5436
5.817221 100.462 62.4778
5.859375 100.487 62.4110
5.901834 100.517 62.3418
5.944602 100.552 62.2690
5.987679 100.593 62.1906
6.031068 100.638 62.1029
6.074771 100.686 62.0014
6.118792 100.737 61.8811
6.163131 100.791 61.7372
6.207792 100.847 61.5661
6.252776 100.905 61.3661
6.298086 100.963 61.1367
6.343725 101.024 60.8789
6.389694 101.084 60.5937
6.435996 101.145 60.2821
6.482634 101.204 59.9449
6.529610 101.261 59.5824
6.576926 101.316 59.1947
6.624585 101.368 58.7817
6.672590 101.416 58.3446
6.720942 101.462 57.8854
6.769645 101.504 57.4080
6.818700 101.541 56.9167
6.868111 101.575 56.4158
6.917881 101.604 55.9088
6.968010 101.629 55.3979
7.018504 101.648 54.8846
7.069362 101.663 54.3707
7.120590 101.673 53.8587
7.172189 101.679 53.3526
7.224161 101.681 52.8567
7.276511 101.679 52.3752
7.329239 101.673 51.9113
7.382350 101.664 51.4666
7.435845 101.652 51.0423
7.489729 101.638 50.6389
7.544002 101.621 50.2575
7.598669 101.603 49.8992
7.653732 101.585 49.5652
7.709194 101.567 49.2564
7.765058 101.549 48.9729
7.821327 101.531 48.7133
7.878004 101.515 48.4756
7.935091 101.500 48.2564
7.992592 101.488 48.0530
8.050510 101.478 47.8626
8.108847 101.471 47.6829
8.167607 101.467 47.5116
8.226793 101.466 47.3454
8.286408 101.468 47.1801
8.346454 101.473 47.0113
8.406936 101.481 46.8353
8.467856 101.490 46.6490
8.529218 101.502 46.4508
8.591024 101.516 46.2389
8.653278 101.531 46.0118
8.715983 101.547 45.7682
8.779143 101.562 45.5068
8.842760 101.578 45.2271
8.906839 101.592 44.9296
8.971381 101.606 44.6155
9.036392 101.618 44.2868
9.101873 101.628 43.9454
9.167829 101.636 43.5931
9.234263 101.642 43.2317
9.301178 101.645 42.8633
9.368578 101.645 42.4904
9.436467 101.644 42.1161
9.504847 101.640 41.7431
9.573723 101.633 41.3735
9.643099 101.624 41.0089
9.712976 101.613 40.6505
9.783361 101.598 40.2999
9.854255 101.581 39.9579
9.925663 101.562 39.6253
9.997588 101.540 39.3023
10.070035 101.516 38.9883
10.143007 101.490 38.6823
10.216507 101.463 38.3830
10.290540 101.436 38.0892
10.365109 101.409 37.7997
10.440219 101.382 37.5128
10.515873 101.355 37.2266
10.592076 101.330 36.9394
10.668830 101.305 36.6496
10.746141 101.281 36.3560
10.824012 101.258 36.0579
10.902447 101.236 35.7546
10.981451 101.214 35.4456
11.061027 101.192 35.1308
11.141180 101.170 34.8105
11.221913 101.148 34.4854
11.303232 101.126 34.1564
11.385140 101.104 33.8243
11.467641 101.081 33.4901
11.550741 101.058 33.1548
11.634442 101.035 32.8192
11.718750 101.013 32.4842
11.803669 100.990 32.1505
11.889203 100.969 31.8185
11.975357 100.947 31.4880
12.062136 100.927 31.1592
12.149543 100.908 30.8317
12.237583 100.889 30.5050
12.326262 100.872 30.1788
12.415583 100.855 29.8522
12.505552 100.838 29.5248
12.596172 100.822 29.1961
12.687449 100.807 28.8661
12.779387 100.791 28.5348
12.871992 100.776 28.2022
12.965268 100.761 27.8690
13.059220 100.745 27.5360
13.153852 100.730 27.2042
13.249170 100.714 26.8748
13.345179 100.699 26.5485
13.441884 100.683 26.2267
13.539289 100.668 25.9103
13.637401 100.653 25.5999
13.736223 100.639 25.2957
13.835761 100.626 24.9976
13.936021 100.613 24.7053
14.037007 100.601 24.4180
14.138725 100.590 24.1343
14.241180 100.580 23.8529
14.344377 100.571 23.5723
14.448323 100.562 23.2909
14.553021 100.555 23.0075
14.658478 100.548 22.7210
14.764700 100.541 22.4308
14.871691 100.534 22.1367
14.979457 100.527 21.8390
15.088005 100.520 21.5387
15.197339 100.512 21.2368
15.307465 100.503 20.9351
15.418389 100.492 20.6351
15.530117 100.481 20.3386
15.642655 100.469 20.0471
15.756008 100.456 19.7617
15.870182 100.443 19.4832
15.985184 100.429 19.2117
16.101019 100.416 18.9467
16.217694 100.403 18.6873
16.335214 100.391 18.4321
16.453586 100.379 18.1792
16.572815 100.368 17.9268
16.692909 100.358 17.6730
16.813872 100.349 17.4163
16.935713 100.340 17.1555
17.058436 100.332 16.8899
17.182048 100.323 16.6194
17.306556 100.314 16.3443
17.431967 100.305 16.0656
17.558286 100.294 15.7844
17.685521 100.283 15.5020
17.813677 100.271 15.2195
17.942762 100.258 14.9382
18.072783 100.245 14.6586
18.203746 100.232 14.3812
18.335658 100.218 14.1060
18.468526 100.204 13.8323
18.602356 100.191 13.5596
18.737156 100.179 13.2871
18.872934 100.167 13.0138
19.009695 100.155 12.7391
19.147447 100.144 12.4626
19.286197 100.134 12.1838
19.425953 100.124 11.9030
19.566721 100.113 11.6202
19.708510 100.103 11.3358
19.851326 100.093 11.0500
19.995177 100.084 10.7634
20.140070 100.074 10.4759
20.286013 100.064 10.1877
20.433014 100.055 9.8988
20.581080 100.046 9.6091
20.730219 100.037 9.3188
20.880439 100.028 9.0280
21.031747 100.020 8.7369
21.184152 100.011 8.4462
21.337661 100.003 8.1567
21.492282 99.995 7.8690
21.648024 99.988 7.5837
21.804895 99.980 7.3015
21.962902 99.973 7.0223
22.122054 99.966 6.7460
22.282360 99.960 6.4719
22.443827 99.954 6.1996
22.606464 99.948 5.9280
22.770280 99.943 5.6566
22.935283 99.937 5.3849
23.101481 99.931 5.1132
23.268884 99.925 4.8418
23.437500 99.918 4.5715
23.607338 99.910 4.3035
23.778406 99.902 4.0385
23.950714 99.893 3.7774
24.124271 99.884 3.5204
24.299086 99.874 3.2673
24.475167 99.864 3.0176
24.652524 99.854 2.7699
24.831166 99.844 2.5234
25.011103 99.833 2.2767
25.192344 99.823 2.0293
25.374898 99.812 1.7805
25.558775 99.801 1.5305
25.743984 99.789 1.2798
25.930536 99.777 1.0288
26.118439 99.764 0.7783
26.307704 99.750 0.5288
26.498341 99.736 0.2806
26.690359 99.721 0.0338
26.883768 99.707 -0.2119
27.078579 99.692 -0.4570
27.274801 99.678 -0.7018
27.472446 99.663 -0.9467
27.671522 99.649 -1.1921
27.872042 99.634 -1.4381
28.074014 99.620 -1.6847
28.277450 99.605 -1.9316
28.482360 99.591 -2.1785
28.688755 99.577 -2.4248
28.896645 99.563 -2.6700
29.106042 99.549 -2.9138
29.316957 99.536 -3.1559
29.529400 99.523 -3.3964
29.743382 99.512 -3.6359
29.958915 99.501 -3.8757
30.176009 99.492 -4.1171
30.394677 99.483 -4.3617
30.614929 99.475 -4.6107
30.836778 99.468 -4.8647
31.060234 99.460 -5.1235
31.285309 99.452 -5.3859
31.512015 99.443 -5.6503
31.740364 99.434 -5.9145
31.970368 99.423 -6.1769
32.202039 99.412 -6.4362
32.435388 99.401 -6.6920
32.670428 99.389 -6.9447
32.907171 99.377 -7.1951
33.145630 99.365 -7.4440
33.385817 99.353 -7.6923
33.627745 99.340 -7.9404
33.871425 99.327 -8.1880
34.116871 99.313 -8.4348
34.364096 99.298 -8.6804
34.613113 99.283 -8.9244
34.863934 99.267 -9.1665
35.116572 99.251 -9.4069
35.371041 99.234 -9.6455
35.627354 99.217 -9.8828
35.885525 99.199 -10.1191
36.145566 99.182 -10.3552
36.407492 99.164 -10.5914
36.671316 99.146 -10.8285
36.937051 99.128 -11.0667
37.204712 99.110 -11.3062
37.474313 99.091 -11.5463
37.745867 99.072 -11.7864
38.019389 99.052 -12.0259
38.294893 99.033 -12.2640
38.572394 99.013 -12.5005
38.851905 98.993 -12.7357
39.133442 98.973 -12.9697
39.417019 98.954 -13.2029
39.702651 98.934 -13.4351
39.990353 98.913 -13.6656
40.280140 98.893 -13.8941
40.572026 98.873 -14.1198
40.866028 98.852 -14.3424
41.162160 98.831 -14.5620
41.460438 98.811 -14.7791
41.760877 98.790 -14.9938
42.063494 98.769 -15.2062
42.368303 98.748 -15.4160
42.675322 98.727 -15.6226
42.984565 98.706 -15.8251
43.296048 98.684 -16.0236
43.609789 98.663 -16.2184
43.925804 98.642 -16.4107
44.244108 98.622 -16.6022
44.564719 98.602 -16.7942
44.887654 98.582 -16.9875
45.212928 98.563 -17.1824
45.540560 98.543 -17.3782
45.870565 98.523 -17.5747
46.202962 98.504 -17.7719
46.537768 98.484 -17.9708
46.875000 98.464 -18.1724
47.214676 98.444 -18.3773
47.556813 98.424 -18.5853
47.901429 98.403 -18.7950
48.248542 98.382 -19.0046
48.598171 98.360 -19.2128
48.950334 98.337 -19.4188
49.305048 98.314 -19.6228
49.662333 98.291 -19.8253
50.022206 98.268 -20.0265
50.384688 98.244 -20.2264
50.749796 98.220 -20.4249
51.117550 98.196 -20.6216
51.487969 98.171 -20.8167
51.861072 98.146 -21.0099
52.236879 98.121 -21.2013
52.615409 98.096 -21.3902
52.996681 98.070 -21.5759
53.380717 98.045 -21.7577
53.767536 98.019 -21.9354
54.157158 97.994 -22.1099
54.549603 97.970 -22.2820
54.944892 97.945 -22.4532
55.343045 97.921 -22.6248
55.744084 97.897 -22.7972
56.148028 97.873 -22.9712
56.554900 97.849 -23.1473
56.964720 97.825 -23.3259
57.377510 97.800 -23.5072
57.793291 97.775 -23.6908
58.212085 97.749 -23.8759
58.633914 97.722 -24.0615
59.058799 97.695 -24.2469
59.486764 97.667 -24.4318
59.917829 97.638 -24.6155
60.352019 97.609 -24.7978
60.789354 97.580 -24.9778
61.229859 97.550 -25.1548
61.673556 97.519 -25.3281
62.120468 97.488 -25.4973
62.570618 97.458 -25.6621
63.024031 97.427 -25.8226
63.480729 97.396 -25.9792
63.940736 97.365 -26.1327
64.404077 97.334 -26.2834
64.870776 97.303 -26.4320
65.340856 97.272 -26.5784
65.814343 97.241 -26.7225
66.291261 97.209 -26.8649
66.771635 97.178 -27.0058
67.255489 97.147 -27.1463
67.742850 97.115 -27.2867
68.233743 97.083 -27.4269
68.728193 97.051 -27.5661
69.226226 97.019 -27.7037
69.727867 96.986 -27.8392
70.233144 96.954 -27.9727
70.742083 96.921 -28.1043
71.254709 96.889 -28.2345
71.771050 96.856 -28.3637
72.291132 96.824 -28.4919
72.814984 96.791 -28.6188
73.342631 96.758 -28.7438
73.874102 96.725 -28.8662
74.409424 96.691 -28.9862
74.948626 96.658 -29.1045
75.491734 96.625 -29.2222
76.038779 96.591 -29.3402
76.589787 96.558 -29.4584
77.144788 96.525 -29.5765
77.703811 96.492 -29.6946
78.266885 96.460 -29.8143
78.834039 96.428 -29.9385
79.405303 96.397 -30.0695
79.980706 96.366 -30.2079
80.560280 96.334 -30.3533
81.144053 96.302 -30.5042
81.732056 96.268 -30.6592
82.324320 96.233 -30.8163
82.920876 96.197 -30.9734
83.521755 96.159 -31.1278
84.126988 96.119 -31.2767
84.736607 96.078 -31.4174
85.350643 96.036 -31.5481
85.969129 95.992 -31.6678
86.592097 95.949 -31.7761
87.219579 95.905 -31.8734
87.851608 95.861 -31.9611
88.488217 95.818 -32.0410
89.129439 95.776 -32.1150
89.775308 95.733 -32.1849
90.425856 95.692 -32.2516
91.081119 95.650 -32.3151
91.741131 95.609 -32.3750
92.405925 95.568 -32.4313
93.075536 95.527 -32.4846
93.750000 95.487 -32.5358
94.429351 95.447 -32.5856
