* Measurement data measured by REW V5.31
* Source: EXCL: Microphone (USB Sound Device        ), MICROPHONE (Master Volume), L, volume: 0.250
* Format: 256k Log Swept Sine, 1 sweep at -4.0 dBFS with no timing reference
* Dated: Jul 6, 2024 12:15:35 AM
* REW Settings:
*  C-weighting compensation: Off
*  Target level: 75.0 dB
* Note: 7HZ FIVE L
* Measurement: L 7HZ FIVE
* Smoothing: 1/12 octave
* Frequency Step: 96 ppo
* Start Frequency: 0.36621094 Hz
*
* Freq(Hz) SPL(dB) Phase(degrees)
0.366211 82.960 166.0689
0.368865 82.956 166.0521
0.371538 82.950 166.0271
0.374230 82.942 165.9957
0.376942 82.933 165.9595
0.379673 82.924 165.9199
0.382424 82.914 165.8776
0.385196 82.904 165.8331
0.387987 82.894 165.7868
0.390798 82.884 165.7387
0.393630 82.873 165.6889
0.396483 82.863 165.6375
0.399356 82.852 165.5844
0.402250 82.841 165.5297
0.405165 82.831 165.4733
0.408101 82.820 165.4153
0.411058 82.809 165.3556
0.414037 82.798 165.2942
0.417037 82.787 165.2311
0.420059 82.776 165.1663
0.423103 82.764 165.0997
0.426169 82.753 165.0314
0.429257 82.742 164.9613
0.432368 82.730 164.8895
0.435501 82.719 164.8158
0.438656 82.707 164.7403
0.441835 82.695 164.6630
0.445037 82.683 164.5839
0.448262 82.671 164.5029
0.451510 82.659 164.4200
0.454782 82.647 164.3353
0.458077 82.635 164.2487
0.461397 82.623 164.1601
0.464740 82.611 164.0697
0.468108 82.598 163.9773
0.471500 82.586 163.8830
0.474917 82.573 163.7867
0.478358 82.560 163.6885
0.481825 82.547 163.5883
0.485316 82.535 163.4862
0.488833 82.522 163.3820
0.492375 82.508 163.2759
0.495943 82.495 163.1678
0.499537 82.482 163.0576
0.503157 82.469 162.9455
0.506803 82.455 162.8314
0.510475 82.442 162.7152
0.514175 82.428 162.5970
0.517900 82.414 162.4768
0.521653 82.400 162.3546
0.525434 82.386 162.2303
0.529241 82.372 162.1040
0.533076 82.358 161.9758
0.536939 82.344 161.8455
0.540830 82.330 161.7132
0.544749 82.315 161.5788
0.548696 82.300 161.4425
0.552673 82.286 161.3042
0.556677 82.271 161.1639
0.560711 82.256 161.0217
0.564774 82.241 160.8775
0.568867 82.226 160.7314
0.572989 82.211 160.5833
0.577141 82.195 160.4333
0.581324 82.180 160.2815
0.585536 82.164 160.1278
0.589779 82.149 159.9722
0.594053 82.133 159.8148
0.598358 82.117 159.6557
0.602694 82.101 159.4948
0.607061 82.085 159.3321
0.611460 82.069 159.1678
0.615891 82.052 159.0019
0.620354 82.036 158.8343
0.624849 82.019 158.6651
0.629377 82.003 158.4945
0.633938 81.986 158.3224
0.638532 81.969 158.1488
0.643159 81.952 157.9739
0.647819 81.934 157.7977
0.652514 81.917 157.6202
0.657242 81.900 157.4416
0.662005 81.882 157.2619
0.666802 81.864 157.0811
0.671634 81.846 156.8994
0.676501 81.829 156.7168
0.681403 81.810 156.5334
0.686341 81.792 156.3493
0.691314 81.774 156.1646
0.696324 81.755 155.9794
0.701370 81.736 155.7937
0.706452 81.717 155.6076
0.711571 81.698 155.4211
0.716728 81.678 155.2341
0.721921 81.657 155.0465
0.727153 81.635 154.8580
0.732422 81.611 154.6680
0.737729 81.586 154.4760
0.743075 81.559 154.2812
0.748460 81.532 154.0833
0.753883 81.503 153.8817
0.759346 81.473 153.6761
0.764849 81.443 153.4664
0.770391 81.412 153.2523
0.775974 81.381 153.0338
0.781597 81.349 152.8109
0.787261 81.317 152.5834
0.792966 81.284 152.3514
0.798712 81.251 152.1148
0.804500 81.218 151.8736
0.810329 81.184 151.6277
0.816201 81.149 151.3771
0.822116 81.114 151.1219
0.828073 81.079 150.8619
0.834074 81.043 150.5972
0.840118 81.006 150.3278
0.846206 80.969 150.0536
0.852338 80.931 149.7747
0.858514 80.893 149.4910
0.864735 80.853 149.2025
0.871001 80.814 148.9093
0.877313 80.773 148.6113
0.883670 80.732 148.3086
0.890074 80.690 148.0012
0.896524 80.647 147.6891
0.903020 80.604 147.3724
0.909564 80.559 147.0511
0.916155 80.514 146.7252
0.922794 80.468 146.3948
0.929481 80.421 146.0600
0.936216 80.372 145.7207
0.943000 80.323 145.3772
0.949834 80.273 145.0295
0.956717 80.222 144.6777
0.963649 80.170 144.3219
0.970632 80.116 143.9622
0.977666 80.062 143.5987
0.984750 80.006 143.2317
0.991886 79.949 142.8612
0.999074 79.890 142.4874
1.006314 79.831 142.1106
1.013606 79.770 141.7309
1.020951 79.707 141.3485
1.028349 79.643 140.9637
1.035801 79.577 140.5767
1.043307 79.510 140.1878
1.050867 79.441 139.7973
1.058482 79.371 139.4053
1.066152 79.299 139.0121
1.073878 79.225 138.6178
1.081660 79.149 138.2224
1.089498 79.071 137.8256
1.097393 78.992 137.4271
1.105345 78.910 137.0261
1.113355 78.826 136.6218
1.121423 78.740 136.2133
1.129549 78.652 135.7999
1.137734 78.562 135.3809
1.145979 78.469 134.9560
1.154283 78.375 134.5245
1.162647 78.278 134.0861
1.171072 78.179 133.6404
1.179558 78.078 133.1870
1.188106 77.975 132.7255
1.196715 77.870 132.2554
1.205387 77.762 131.7764
1.214122 77.653 131.2879
1.222920 77.541 130.7896
1.231782 77.427 130.2808
1.240708 77.311 129.7612
1.249699 77.194 129.2300
1.258754 77.074 128.6868
1.267876 76.952 128.1309
1.277063 76.828 127.5617
1.286318 76.703 126.9785
1.295639 76.575 126.3807
1.305027 76.446 125.7675
1.314484 76.314 125.1381
1.324009 76.181 124.4917
1.333604 76.046 123.8276
1.343268 75.910 123.1447
1.353002 75.772 122.4422
1.362806 75.632 121.7192
1.372681 75.491 120.9745
1.382628 75.348 120.2073
1.392647 75.203 119.4163
1.402739 75.057 118.6004
1.412904 74.910 117.7583
1.423142 74.761 116.8886
1.433455 74.610 115.9899
1.443843 74.456 115.0600
1.454305 74.300 114.0969
1.464844 74.139 113.0976
1.475459 73.973 112.0587
1.486150 73.800 110.9764
1.496920 73.619 109.8465
1.507767 73.430 108.6649
1.518693 73.233 107.4272
1.529698 73.028 106.1289
1.540783 72.816 104.7653
1.551948 72.597 103.3314
1.563194 72.372 101.8221
1.574521 72.142 100.2316
1.585931 71.907 98.5543
1.597423 71.670 96.7839
1.608999 71.431 94.9141
1.620658 71.191 92.9382
1.632402 70.951 90.8497
1.644232 70.714 88.6419
1.656146 70.479 86.3084
1.668147 70.249 83.8435
1.680235 70.025 81.2419
1.692411 69.809 78.4999
1.704675 69.602 75.6150
1.717028 69.406 72.5868
1.729470 69.224 69.4176
1.742003 69.056 66.1123
1.754626 68.905 62.6791
1.767341 68.774 59.1294
1.780147 68.663 55.4779
1.793047 68.576 51.7415
1.806040 68.514 47.9392
1.819128 68.480 44.0902
1.832310 68.474 40.2138
1.845587 68.498 36.3287
1.858961 68.551 32.4540
1.872432 68.634 28.6094
1.886001 68.746 24.8156
1.899667 68.885 21.0927
1.913433 69.050 17.4598
1.927299 69.240 13.9336
1.941265 69.451 10.5280
1.955332 69.682 7.2537
1.969501 69.932 4.1179
1.983773 70.198 1.1249
1.998148 70.476 -1.7235
2.012627 70.767 -4.4283
2.027212 71.065 -6.9919
2.041902 71.370 -9.4184
2.056698 71.679 -11.7128
2.071602 71.989 -13.8809
2.086614 72.297 -15.9291
2.101734 72.601 -17.8639
2.116964 72.899 -19.6922
2.132304 73.188 -21.4211
2.147756 73.467 -23.0580
2.163320 73.735 -24.6108
2.178996 73.991 -26.0879
2.194786 74.236 -27.4984
2.210690 74.472 -28.8511
2.226710 74.702 -30.1545
2.242845 74.927 -31.4151
2.259098 75.148 -32.6376
2.275468 75.366 -33.8252
2.291957 75.583 -34.9799
2.308566 75.797 -36.1030
2.325295 76.010 -37.1952
2.342145 76.220 -38.2569
2.359117 76.428 -39.2885
2.376212 76.634 -40.2901
2.393431 76.838 -41.2617
2.410775 77.038 -42.2035
2.428244 77.236 -43.1155
2.445840 77.430 -43.9978
2.463564 77.621 -44.8506
2.481416 77.809 -45.6741
2.499397 77.992 -46.4692
2.517509 78.171 -47.2370
2.535752 78.346 -47.9793
2.554127 78.516 -48.6987
2.572635 78.681 -49.3986
2.591277 78.840 -50.0826
2.610055 78.994 -50.7536
2.628968 79.143 -51.4137
2.648019 79.287 -52.0641
2.667208 79.426 -52.7053
2.686535 79.560 -53.3369
2.706003 79.689 -53.9585
2.725612 79.815 -54.5694
2.745363 79.937 -55.1684
2.765257 80.055 -55.7547
2.785295 80.170 -56.3271
2.805478 80.283 -56.8846
2.825808 80.394 -57.4262
2.846285 80.502 -57.9510
2.866910 80.609 -58.4586
2.887685 80.715 -58.9486
2.908611 80.818 -59.4217
2.929688 80.920 -59.8790
2.950917 81.020 -60.3222
2.972301 81.117 -60.7531
2.993839 81.212 -61.1731
3.015534 81.303 -61.5831
3.037386 81.391 -61.9836
3.059396 81.477 -62.3744
3.081565 81.560 -62.7552
3.103896 81.640 -63.1254
3.126388 81.719 -63.4843
3.149043 81.796 -63.8310
3.171862 81.872 -64.1645
3.194847 81.946 -64.4841
3.217998 82.020 -64.7887
3.241317 82.094 -65.0776
3.264805 82.166 -65.3503
3.288463 82.239 -65.6064
3.312293 82.310 -65.8461
3.336295 82.381 -66.0699
3.360471 82.450 -66.2784
3.384822 82.519 -66.4724
3.409350 82.586 -66.6530
3.434056 82.652 -66.8209
3.458940 82.717 -66.9771
3.484005 82.781 -67.1223
3.509252 82.846 -67.2575
3.534681 82.910 -67.3832
3.560295 82.975 -67.5000
3.586094 83.040 -67.6083
3.612081 83.106 -67.7083
3.638255 83.173 -67.7998
3.664620 83.241 -67.8823
3.691175 83.310 -67.9553
3.717923 83.379 -68.0185
3.744864 83.449 -68.0721
3.772001 83.520 -68.1168
3.799335 83.591 -68.1540
3.826866 83.663 -68.1851
3.854597 83.735 -68.2119
3.882529 83.809 -68.2361
3.910664 83.883 -68.2595
3.939002 83.958 -68.2836
3.967546 84.035 -68.3095
3.996296 84.112 -68.3378
4.025255 84.191 -68.3684
4.054423 84.271 -68.4009
4.083804 84.353 -68.4348
4.113396 84.435 -68.4700
4.143204 84.519 -68.5069
4.173227 84.604 -68.5464
4.203468 84.689 -68.5899
4.233928 84.775 -68.6388
4.264609 84.862 -68.6948
4.295512 84.949 -68.7593
4.326639 85.036 -68.8337
4.357992 85.124 -68.9189
4.389572 85.211 -69.0153
4.421380 85.299 -69.1229
4.453419 85.387 -69.2412
4.485691 85.475 -69.3697
4.518196 85.563 -69.5081
4.550936 85.651 -69.6560
4.583914 85.739 -69.8133
4.617131 85.826 -69.9800
4.650589 85.913 -70.1560
4.684289 85.998 -70.3417
4.718233 86.083 -70.5373
4.752424 86.166 -70.7430
4.786862 86.248 -70.9591
4.821549 86.329 -71.1854
4.856488 86.409 -71.4215
4.891680 86.488 -71.6668
4.927127 86.565 -71.9201
4.962831 86.641 -72.1802
4.998794 86.716 -72.4461
5.035017 86.789 -72.7167
5.071503 86.860 -72.9913
5.108253 86.930 -73.2696
5.145270 86.998 -73.5517
5.182555 87.065 -73.8376
5.220110 87.129 -74.1274
5.257937 87.192 -74.4205
5.296038 87.254 -74.7160
5.334415 87.314 -75.0126
5.373071 87.372 -75.3091
5.412006 87.429 -75.6043
5.451224 87.485 -75.8973
5.490725 87.540 -76.1876
5.530514 87.594 -76.4750
5.570590 87.646 -76.7597
5.610957 87.697 -77.0417
5.651616 87.747 -77.3210
5.692570 87.797 -77.5973
5.733821 87.845 -77.8701
5.775370 87.894 -78.1389
5.817221 87.942 -78.4034
5.859375 87.990 -78.6630
5.901834 88.037 -78.9178
5.944602 88.085 -79.1680
5.987679 88.133 -79.4141
6.031068 88.181 -79.6568
6.074771 88.229 -79.8968
6.118792 88.277 -80.1348
6.163131 88.326 -80.3714
6.207792 88.376 -80.6071
6.252776 88.426 -80.8420
6.298086 88.478 -81.0764
6.343725 88.530 -81.3109
6.389694 88.582 -81.5462
6.435996 88.636 -81.7833
6.482634 88.690 -82.0235
6.529610 88.745 -82.2677
6.576926 88.801 -82.5167
6.624585 88.858 -82.7710
6.672590 88.916 -83.0308
6.720942 88.974 -83.2963
6.769645 89.032 -83.5680
6.818700 89.092 -83.8462
6.868111 89.151 -84.1315
6.917881 89.211 -84.4244
6.968010 89.271 -84.7253
7.018504 89.331 -85.0341
7.069362 89.391 -85.3507
7.120590 89.450 -85.6747
7.172189 89.510 -86.0056
7.224161 89.570 -86.3430
7.276511 89.629 -86.6865
7.329239 89.687 -87.0358
7.382350 89.745 -87.3905
7.435845 89.803 -87.7504
7.489729 89.860 -88.1146
7.544002 89.916 -88.4823
7.598669 89.972 -88.8527
7.653732 90.027 -89.2250
7.709194 90.082 -89.5984
7.765058 90.137 -89.9728
7.821327 90.190 -90.3476
7.878004 90.244 -90.7224
7.935091 90.297 -91.0966
7.992592 90.350 -91.4697
8.050510 90.403 -91.8412
8.108847 90.456 -92.2108
8.167607 90.508 -92.5784
8.226793 90.561 -92.9441
8.286408 90.614 -93.3079
8.346454 90.668 -93.6700
8.406936 90.721 -94.0303
8.467856 90.775 -94.3890
8.529218 90.830 -94.7463
8.591024 90.885 -95.1024
8.653278 90.940 -95.4577
8.715983 90.996 -95.8126
8.779143 91.053 -96.1675
8.842760 91.110 -96.5225
8.906839 91.167 -96.8779
8.971381 91.225 -97.2338
9.036392 91.283 -97.5903
9.101873 91.341 -97.9476
9.167829 91.399 -98.3058
9.234263 91.458 -98.6648
9.301178 91.517 -99.0246
9.368578 91.575 -99.3848
9.436467 91.634 -99.7453
9.504847 91.693 -100.1057
9.573723 91.751 -100.4660
9.643099 91.808 -100.8258
9.712976 91.865 -101.1849
9.783361 91.920 -101.5429
9.854255 91.973 -101.8998
9.925663 92.024 -102.2552
9.997588 92.072 -102.6091
10.070035 92.119 -102.9615
10.143007 92.163 -103.3125
10.216507 92.206 -103.6623
10.290540 92.248 -104.0110
10.365109 92.288 -104.3588
10.440219 92.327 -104.7061
10.515873 92.366 -105.0532
10.592076 92.405 -105.4007
10.668830 92.443 -105.7487
10.746141 92.481 -106.0976
10.824012 92.519 -106.4475
10.902447 92.556 -106.7985
10.981451 92.593 -107.1508
11.061027 92.629 -107.5042
11.141180 92.664 -107.8583
11.221913 92.698 -108.2128
11.303232 92.731 -108.5668
11.385140 92.764 -108.9199
11.467641 92.795 -109.2711
11.550741 92.825 -109.6196
11.634442 92.854 -109.9643
11.718750 92.883 -110.3041
11.803669 92.911 -110.6382
11.889203 92.938 -110.9658
11.975357 92.965 -111.2864
12.062136 92.992 -111.5994
12.149543 93.019 -111.9046
12.237583 93.046 -112.2023
12.326262 93.074 -112.4930
12.415583 93.102 -112.7777
12.505552 93.131 -113.0574
12.596172 93.161 -113.3337
12.687449 93.192 -113.6084
12.779387 93.224 -113.8836
12.871992 93.256 -114.1615
12.965268 93.290 -114.4440
13.059220 93.325 -114.7334
13.153852 93.361 -115.0314
13.249170 93.397 -115.3398
13.345179 93.433 -115.6597
13.441884 93.470 -115.9919
13.539289 93.506 -116.3365
13.637401 93.541 -116.6934
13.736223 93.574 -117.0617
13.835761 93.607 -117.4399
13.936021 93.636 -117.8263
14.037007 93.664 -118.2186
14.138725 93.689 -118.6145
14.241180 93.712 -119.0110
14.344377 93.732 -119.4054
14.448323 93.749 -119.7951
14.553021 93.765 -120.1777
14.658478 93.779 -120.5509
14.764700 93.791 -120.9131
14.871691 93.803 -121.2632
14.979457 93.815 -121.6007
15.088005 93.827 -121.9256
15.197339 93.840 -122.2388
15.307465 93.854 -122.5417
15.418389 93.869 -122.8362
15.530117 93.886 -123.1246
15.642655 93.905 -123.4095
15.756008 93.926 -123.6938
15.870182 93.950 -123.9801
15.985184 93.974 -124.2712
16.101019 94.001 -124.5692
16.217694 94.029 -124.8761
16.335214 94.058 -125.1932
16.453586 94.088 -125.5214
16.572815 94.119 -125.8609
16.692909 94.149 -126.2116
16.813872 94.180 -126.5726
16.935713 94.211 -126.9430
17.058436 94.241 -127.3213
17.182048 94.271 -127.7061
17.306556 94.300 -128.0956
17.431967 94.328 -128.4882
17.558286 94.355 -128.8825
17.685521 94.381 -129.2770
17.813677 94.406 -129.6707
17.942762 94.430 -130.0627
18.072783 94.454 -130.4524
18.203746 94.478 -130.8396
18.335658 94.501 -131.2240
18.468526 94.523 -131.6059
18.602356 94.546 -131.9853
18.737156 94.569 -132.3627
18.872934 94.591 -132.7383
19.009695 94.614 -133.1125
19.147447 94.636 -133.4855
19.286197 94.658 -133.8576
19.425953 94.680 -134.2287
19.566721 94.702 -134.5989
19.708510 94.722 -134.9680
19.851326 94.743 -135.3359
19.995177 94.762 -135.7022
20.140070 94.781 -136.0667
20.286013 94.799 -136.4292
20.433014 94.816 -136.7893
20.581080 94.832 -137.1469
20.730219 94.848 -137.5017
20.880439 94.863 -137.8536
21.031747 94.878 -138.2027
21.184152 94.892 -138.5487
21.337661 94.906 -138.8918
21.492282 94.920 -139.2320
21.648024 94.933 -139.5695
21.804895 94.947 -139.9045
21.962902 94.960 -140.2374
22.122054 94.973 -140.5685
22.282360 94.986 -140.8985
22.443827 94.999 -141.2280
22.606464 95.012 -141.5578
22.770280 95.025 -141.8885
22.935283 95.038 -142.2209
23.101481 95.051 -142.5557
23.268884 95.064 -142.8933
23.437500 95.077 -143.2339
23.607338 95.090 -143.5778
23.778406 95.102 -143.9248
23.950714 95.113 -144.2745
24.124271 95.124 -144.6264
24.299086 95.135 -144.9802
24.475167 95.145 -145.3352
24.652524 95.155 -145.6911
24.831166 95.165 -146.0474
25.011103 95.175 -146.4039
25.192344 95.184 -146.7607
25.374898 95.194 -147.1174
25.558775 95.203 -147.4743
25.743984 95.212 -147.8313
25.930536 95.222 -148.1882
26.118439 95.231 -148.5450
26.307704 95.240 -148.9014
26.498341 95.249 -149.2573
26.690359 95.258 -149.6123
26.883768 95.266 -149.9662
27.078579 95.274 -150.3186
27.274801 95.282 -150.6692
27.472446 95.289 -151.0179
27.671522 95.297 -151.3642
27.872042 95.303 -151.7081
28.074014 95.310 -152.0493
28.277450 95.316 -152.3880
28.482360 95.321 -152.7241
28.688755 95.326 -153.0579
28.896645 95.331 -153.3898
29.106042 95.336 -153.7201
29.316957 95.340 -154.0493
29.529400 95.344 -154.3778
29.743382 95.348 -154.7059
29.958915 95.351 -155.0339
30.176009 95.354 -155.3617
30.394677 95.357 -155.6895
30.614929 95.359 -156.0174
30.836778 95.362 -156.3457
31.060234 95.363 -156.6746
31.285309 95.365 -157.0047
31.512015 95.366 -157.3364
31.740364 95.367 -157.6700
31.970368 95.367 -158.0056
32.202039 95.367 -158.3432
32.435388 95.367 -158.6822
32.670428 95.366 -159.0224
32.907171 95.364 -159.3631
33.145630 95.363 -159.7041
33.385817 95.361 -160.0452
33.627745 95.359 -160.3863
33.871425 95.357 -160.7277
34.116871 95.355 -161.0694
34.364096 95.353 -161.4115
34.613113 95.351 -161.7536
34.863934 95.348 -162.0952
35.116572 95.345 -162.4357
35.371041 95.342 -162.7744
35.627354 95.339 -163.1112
35.885525 95.336 -163.4459
36.145566 95.333 -163.7790
36.407492 95.329 -164.1112
36.671316 95.326 -164.4431
36.937051 95.322 -164.7749
37.204712 95.318 -165.1063
37.474313 95.312 -165.4364
37.745867 95.306 -165.7637
38.019389 95.300 -166.0865
38.294893 95.292 -166.4035
38.572394 95.284 -166.7138
38.851905 95.277 -167.0177
39.133442 95.269 -167.3163
39.417019 95.262 -167.6115
39.702651 95.256 -167.9053
39.990353 95.250 -168.1999
40.280140 95.245 -168.4969
40.572026 95.239 -168.7970
40.866028 95.234 -169.1008
41.162160 95.228 -169.4077
41.460438 95.222 -169.7169
41.760877 95.215 -170.0272
42.063494 95.208 -170.3372
42.368303 95.201 -170.6459
42.675322 95.193 -170.9525
42.984565 95.186 -171.2573
43.296048 95.179 -171.5614
43.609789 95.172 -171.8665
43.925804 95.165 -172.1745
44.244108 95.159 -172.4862
44.564719 95.152 -172.8014
44.887654 95.145 -173.1187
45.212928 95.137 -173.4364
45.540560 95.128 -173.7528
45.870565 95.119 -174.0673
46.202962 95.110 -174.3803
46.537768 95.101 -174.6926
46.875000 95.092 -175.0052
47.214676 95.083 -175.3184
47.556813 95.073 -175.6317
47.901429 95.062 -175.9441
48.248542 95.051 -176.2542
48.598171 95.039 -176.5608
48.950334 95.027 -176.8632
49.305048 95.015 -177.1610
49.662333 95.003 -177.4547
50.022206 94.991 -177.7457
50.384688 94.979 -178.0358
50.749796 94.968 -178.3270
51.117550 94.957 -178.6202
51.487969 94.945 -178.9151
51.861072 94.932 -179.2105
52.236879 94.920 -179.5052
52.615409 94.907 -179.7985
52.996681 94.893 179.9095
53.380717 94.880 179.6191
53.767536 94.866 179.3309
54.157158 94.852 179.0457
54.549603 94.839 178.7638
54.944892 94.826 178.4837
55.343045 94.814 178.2025
55.744084 94.803 177.9174
56.148028 94.791 177.6273
56.554900 94.780 177.3336
56.964720 94.767 177.0386
57.377510 94.755 176.7438
57.793291 94.742 176.4485
58.212085 94.729 176.1508
58.633914 94.716 175.8493
59.058799 94.702 175.5452
59.486764 94.687 175.2413
59.917829 94.671 174.9404
60.352019 94.654 174.6436
60.789354 94.636 174.3495
61.229859 94.619 174.0565
61.673556 94.600 173.7637
62.120468 94.582 173.4722
62.570618 94.562 173.1838
63.024031 94.542 172.8993
63.480729 94.523 172.6177
63.940736 94.503 172.3373
64.404077 94.484 172.0563
64.870776 94.464 171.7747
65.340856 94.444 171.4934
65.814343 94.424 171.2140
66.291261 94.404 170.9371
66.771635 94.383 170.6628
67.255489 94.363 170.3901
67.742850 94.342 170.1185
68.233743 94.321 169.8479
68.728193 94.301 169.5789
69.226226 94.279 169.3119
69.727867 94.258 169.0468
70.233144 94.237 168.7827
70.742083 94.216 168.5184
71.254709 94.194 168.2530
