* Measurement data measured by REW V5.31
* Source: EXCL: Microphone (USB Sound Device        ), MICROPHONE (Master Volume), L, volume: 0.560
* Format: 256k Log Swept Sine, 1 sweep at 0.0 dBFS with no timing reference
* Dated: Apr 20, 2024 12:05:01 AM
* REW Settings:
*  C-weighting compensation: Off
*  Target level: 75.0 dB
* Note: Hydra 0000
* Measurement: L Hydra 0000
* Smoothing: 1/12 octave
* Frequency Step: 96 ppo
* Start Frequency: 0.36621094 Hz
*
* Freq(Hz) SPL(dB) Phase(degrees)
0.366211 91.678 157.4660
0.368865 91.672 157.4427
0.371538 91.662 157.4079
0.374230 91.650 157.3641
0.376942 91.637 157.3136
0.379673 91.623 157.2580
0.382424 91.607 157.1985
0.385196 91.592 157.1356
0.387987 91.576 157.0699
0.390798 91.560 157.0014
0.393630 91.544 156.9303
0.396483 91.528 156.8566
0.399356 91.512 156.7804
0.402250 91.495 156.7015
0.405165 91.479 156.6201
0.408101 91.462 156.5360
0.411058 91.445 156.4492
0.414037 91.428 156.3598
0.417037 91.411 156.2677
0.420059 91.394 156.1728
0.423103 91.377 156.0751
0.426169 91.359 155.9747
0.429257 91.342 155.8715
0.432368 91.324 155.7654
0.435501 91.306 155.6565
0.438656 91.288 155.5447
0.441835 91.270 155.4299
0.445037 91.252 155.3123
0.448262 91.233 155.1917
0.451510 91.215 155.0681
0.454782 91.196 154.9415
0.458077 91.178 154.8118
0.461397 91.159 154.6792
0.464740 91.140 154.5434
0.468108 91.120 154.4046
0.471500 91.101 154.2627
0.474917 91.082 154.1177
0.478358 91.062 153.9695
0.481825 91.042 153.8182
0.485316 91.023 153.6637
0.488833 91.003 153.5060
0.492375 90.982 153.3452
0.495943 90.962 153.1811
0.499537 90.942 153.0138
0.503157 90.921 152.8433
0.506803 90.900 152.6696
0.510475 90.879 152.4927
0.514175 90.858 152.3125
0.517900 90.837 152.1292
0.521653 90.816 151.9425
0.525434 90.794 151.7527
0.529241 90.773 151.5596
0.533076 90.751 151.3634
0.536939 90.729 151.1639
0.540830 90.707 150.9612
0.544749 90.684 150.7554
0.548696 90.662 150.5464
0.552673 90.639 150.3343
0.556677 90.616 150.1191
0.560711 90.593 149.9008
0.564774 90.570 149.6795
0.568867 90.547 149.4551
0.572989 90.524 149.2278
0.577141 90.500 148.9976
0.581324 90.476 148.7645
0.585536 90.452 148.5286
0.589779 90.428 148.2899
0.594053 90.404 148.0485
0.598358 90.379 147.8044
0.602694 90.355 147.5579
0.607061 90.330 147.3088
0.611460 90.305 147.0573
0.615891 90.279 146.8035
0.620354 90.254 146.5475
0.624849 90.228 146.2893
0.629377 90.203 146.0292
0.633938 90.177 145.7672
0.638532 90.151 145.5034
0.643159 90.124 145.2380
0.647819 90.098 144.9711
0.652514 90.071 144.7028
0.657242 90.044 144.4334
0.662005 90.017 144.1629
0.666802 89.990 143.8916
0.671634 89.962 143.6196
0.676501 89.935 143.3472
0.681403 89.907 143.0745
0.686341 89.878 142.8018
0.691314 89.850 142.5292
0.696324 89.821 142.2570
0.701370 89.793 141.9854
0.706452 89.763 141.7145
0.711571 89.733 141.4444
0.716728 89.702 141.1751
0.721921 89.670 140.9063
0.727153 89.636 140.6375
0.732422 89.600 140.3680
0.737729 89.561 140.0966
0.743075 89.520 139.8222
0.748460 89.477 139.5439
0.753883 89.433 139.2608
0.759346 89.388 138.9724
0.764849 89.342 138.6783
0.770391 89.295 138.3783
0.775974 89.247 138.0721
0.781597 89.200 137.7596
0.787261 89.151 137.4407
0.792966 89.102 137.1154
0.798712 89.053 136.7834
0.804500 89.003 136.4448
0.810329 88.952 136.0994
0.816201 88.901 135.7473
0.822116 88.849 135.3882
0.828073 88.796 135.0222
0.834074 88.742 134.6492
0.840118 88.688 134.2691
0.846206 88.632 133.8819
0.852338 88.576 133.4875
0.858514 88.519 133.0860
0.864735 88.461 132.6772
0.871001 88.401 132.2612
0.877313 88.341 131.8380
0.883670 88.279 131.4076
0.890074 88.216 130.9700
0.896524 88.152 130.5251
0.903020 88.086 130.0732
0.909564 88.019 129.6142
0.916155 87.951 129.1482
0.922794 87.881 128.6753
0.929481 87.809 128.1957
0.936216 87.735 127.7095
0.943000 87.660 127.2168
0.949834 87.583 126.7178
0.956717 87.504 126.2128
0.963649 87.422 125.7021
0.970632 87.339 125.1858
0.977666 87.253 124.6644
0.984750 87.166 124.1381
0.991886 87.075 123.6075
0.999074 86.982 123.0728
1.006314 86.887 122.5347
1.013606 86.789 121.9936
1.020951 86.688 121.4502
1.028349 86.584 120.9050
1.035801 86.477 120.3589
1.043307 86.367 119.8124
1.050867 86.253 119.2664
1.058482 86.137 118.7217
1.066152 86.016 118.1792
1.073878 85.892 117.6394
1.081660 85.763 117.1029
1.089498 85.630 116.5699
1.097393 85.492 116.0404
1.105345 85.348 115.5137
1.113355 85.198 114.9889
1.121423 85.042 114.4650
1.129549 84.879 113.9411
1.137734 84.710 113.4162
1.145979 84.533 112.8895
1.154283 84.350 112.3604
1.162647 84.161 111.8281
1.171072 83.965 111.2918
1.179558 83.763 110.7509
1.188106 83.555 110.2046
1.196715 83.341 109.6520
1.205387 83.123 109.0923
1.214122 82.899 108.5247
1.222920 82.670 107.9480
1.231782 82.438 107.3612
1.240708 82.201 106.7632
1.249699 81.961 106.1527
1.258754 81.718 105.5285
1.267876 81.472 104.8891
1.277063 81.224 104.2329
1.286318 80.974 103.5583
1.295639 80.723 102.8634
1.305027 80.470 102.1463
1.314484 80.218 101.4047
1.324009 79.966 100.6365
1.333604 79.715 99.8390
1.343268 79.465 99.0095
1.353002 79.218 98.1450
1.362806 78.973 97.2424
1.372681 78.732 96.2983
1.382628 78.495 95.3088
1.392647 78.263 94.2702
1.402739 78.037 93.1781
1.412904 77.817 92.0282
1.423142 77.604 90.8158
1.433455 77.399 89.5361
1.443843 77.201 88.1837
1.454305 77.011 86.7528
1.464844 76.829 85.2365
1.475459 76.652 83.6258
1.486150 76.480 81.9092
1.496920 76.312 80.0718
1.507767 76.147 78.0947
1.518693 75.985 75.9547
1.529698 75.826 73.6233
1.540783 75.670 71.0662
1.551948 75.517 68.2420
1.563194 75.367 65.1014
1.574521 75.221 61.5862
1.585931 75.079 57.6289
1.597423 74.942 53.1549
1.608999 74.810 48.0862
1.620658 74.684 42.3522
1.632402 74.565 35.9068
1.644232 74.452 28.7538
1.656146 74.346 20.9758
1.668147 74.249 12.7520
1.680235 74.160 4.3484
1.692411 74.081 -3.9288
1.704675 74.012 -11.7990
1.717028 73.954 -19.0606
1.729470 73.908 -25.6096
1.742003 73.874 -31.4268
1.754626 73.853 -36.5502
1.767341 73.847 -41.0483
1.780147 73.856 -45.0014
1.793047 73.883 -48.4901
1.806040 73.928 -51.5900
1.819128 73.993 -54.3707
1.832310 74.081 -56.8939
1.845587 74.194 -59.2132
1.858961 74.333 -61.3717
1.872432 74.499 -63.4020
1.886001 74.691 -65.3271
1.899667 74.909 -67.1625
1.913433 75.150 -68.9192
1.927299 75.414 -70.6046
1.941265 75.698 -72.2236
1.955332 75.999 -73.7802
1.969501 76.315 -75.2769
1.983773 76.643 -76.7160
1.998148 76.981 -78.0988
2.012627 77.327 -79.4266
2.027212 77.676 -80.7003
2.041902 78.026 -81.9205
2.056698 78.375 -83.0877
2.071602 78.719 -84.2022
2.086614 79.055 -85.2645
2.101734 79.380 -86.2749
2.116964 79.692 -87.2342
2.132304 79.987 -88.1435
2.147756 80.264 -89.0051
2.163320 80.521 -89.8224
2.178996 80.758 -90.6008
2.194786 80.973 -91.3479
2.210690 81.169 -92.0725
2.226710 81.347 -92.7835
2.242845 81.510 -93.4878
2.259098 81.658 -94.1900
2.275468 81.793 -94.8924
2.291957 81.915 -95.5952
2.308566 82.027 -96.2977
2.325295 82.128 -96.9981
2.342145 82.220 -97.6943
2.359117 82.302 -98.3835
2.376212 82.377 -99.0630
2.393431 82.444 -99.7297
2.410775 82.505 -100.3802
2.428244 82.560 -101.0113
2.445840 82.610 -101.6193
2.463564 82.656 -102.2010
2.481416 82.699 -102.7530
2.499397 82.740 -103.2725
2.517509 82.778 -103.7576
2.535752 82.815 -104.2075
2.554127 82.849 -104.6232
2.572635 82.880 -105.0074
2.591277 82.907 -105.3638
2.610055 82.928 -105.6963
2.628968 82.944 -106.0079
2.648019 82.954 -106.3004
2.667208 82.957 -106.5747
2.686535 82.956 -106.8306
2.706003 82.949 -107.0674
2.725612 82.937 -107.2841
2.745363 82.922 -107.4790
2.765257 82.904 -107.6504
2.785295 82.883 -107.7960
2.805478 82.861 -107.9135
2.825808 82.838 -108.0004
2.846285 82.815 -108.0539
2.866910 82.792 -108.0714
2.887685 82.771 -108.0498
2.908611 82.750 -107.9865
2.929688 82.730 -107.8789
2.950917 82.709 -107.7250
2.972301 82.688 -107.5237
2.993839 82.666 -107.2744
3.015534 82.643 -106.9780
3.037386 82.618 -106.6358
3.059396 82.593 -106.2499
3.081565 82.568 -105.8229
3.103896 82.544 -105.3579
3.126388 82.522 -104.8584
3.149043 82.503 -104.3282
3.171862 82.489 -103.7715
3.194847 82.479 -103.1922
3.217998 82.476 -102.5939
3.241317 82.480 -101.9796
3.264805 82.492 -101.3505
3.288463 82.512 -100.7064
3.312293 82.542 -100.0454
3.336295 82.580 -99.3655
3.360471 82.627 -98.6665
3.384822 82.681 -97.9503
3.409350 82.743 -97.2214
3.434056 82.812 -96.4862
3.458940 82.887 -95.7523
3.484005 82.968 -95.0281
3.509252 83.053 -94.3219
3.534681 83.143 -93.6422
3.560295 83.237 -92.9966
3.586094 83.333 -92.3915
3.612081 83.433 -91.8320
3.638255 83.536 -91.3207
3.664620 83.642 -90.8583
3.691175 83.752 -90.4431
3.717923 83.866 -90.0726
3.744864 83.984 -89.7445
3.772001 84.107 -89.4567
3.799335 84.232 -89.2082
3.826866 84.360 -88.9980
3.854597 84.488 -88.8256
3.882529 84.617 -88.6909
3.910664 84.744 -88.5938
3.939002 84.868 -88.5343
3.967546 84.989 -88.5130
3.996296 85.107 -88.5303
4.025255 85.220 -88.5869
4.054423 85.328 -88.6831
4.083804 85.433 -88.8186
4.113396 85.534 -88.9914
4.143204 85.632 -89.1988
4.173227 85.725 -89.4368
4.203468 85.815 -89.7010
4.233928 85.901 -89.9869
4.264609 85.982 -90.2903
4.295512 86.058 -90.6075
4.326639 86.129 -90.9361
4.357992 86.195 -91.2750
4.389572 86.255 -91.6246
4.421380 86.308 -91.9865
4.453419 86.356 -92.3622
4.485691 86.398 -92.7519
4.518196 86.434 -93.1540
4.550936 86.464 -93.5650
4.583914 86.489 -93.9805
4.617131 86.509 -94.3950
4.650589 86.524 -94.8032
4.684289 86.534 -95.2004
4.718233 86.540 -95.5829
4.752424 86.541 -95.9490
4.786862 86.537 -96.2984
4.821549 86.527 -96.6320
4.856488 86.513 -96.9507
4.891680 86.494 -97.2542
4.927127 86.472 -97.5414
4.962831 86.445 -97.8102
4.998794 86.416 -98.0577
5.035017 86.386 -98.2807
5.071503 86.353 -98.4758
5.108253 86.320 -98.6402
5.145270 86.286 -98.7719
5.182555 86.252 -98.8699
5.220110 86.216 -98.9347
5.257937 86.180 -98.9679
5.296038 86.145 -98.9719
5.334415 86.110 -98.9496
5.373071 86.078 -98.9039
5.412006 86.049 -98.8371
5.451224 86.024 -98.7509
5.490725 86.003 -98.6461
5.530514 85.987 -98.5227
5.570590 85.976 -98.3817
5.610957 85.970 -98.2256
5.651616 85.968 -98.0590
5.692570 85.972 -97.8882
5.733821 85.980 -97.7202
5.775370 85.993 -97.5616
5.817221 86.011 -97.4183
5.859375 86.035 -97.2938
5.901834 86.064 -97.1902
5.944602 86.098 -97.1087
5.987679 86.137 -97.0508
6.031068 86.180 -97.0187
6.074771 86.226 -97.0155
6.118792 86.274 -97.0446
6.163131 86.324 -97.1094
6.207792 86.375 -97.2122
6.252776 86.426 -97.3546
6.298086 86.478 -97.5363
6.343725 86.530 -97.7558
6.389694 86.581 -98.0104
6.435996 86.631 -98.2974
6.482634 86.680 -98.6138
6.529610 86.726 -98.9574
6.576926 86.769 -99.3269
6.624585 86.809 -99.7213
6.672590 86.845 -100.1393
6.720942 86.878 -100.5783
6.769645 86.907 -101.0343
6.818700 86.933 -101.5022
6.868111 86.954 -101.9767
6.917881 86.971 -102.4536
6.968010 86.985 -102.9297
7.018504 86.995 -103.4032
7.069362 87.002 -103.8725
7.120590 87.008 -104.3351
7.172189 87.011 -104.7877
7.224161 87.014 -105.2264
7.276511 87.015 -105.6474
7.329239 87.015 -106.0477
7.382350 87.014 -106.4257
7.435845 87.013 -106.7809
7.489729 87.012 -107.1135
7.544002 87.011 -107.4239
7.598669 87.013 -107.7124
7.653732 87.016 -107.9791
7.709194 87.023 -108.2245
7.765058 87.034 -108.4492
7.821327 87.048 -108.6552
7.878004 87.067 -108.8456
7.935091 87.090 -109.0244
7.992592 87.117 -109.1954
8.050510 87.150 -109.3620
8.108847 87.187 -109.5267
8.167607 87.229 -109.6917
8.226793 87.276 -109.8598
8.286408 87.328 -110.0341
8.346454 87.383 -110.2179
8.406936 87.441 -110.4138
8.467856 87.502 -110.6236
8.529218 87.566 -110.8479
8.591024 87.632 -111.0867
8.653278 87.700 -111.3397
8.715983 87.769 -111.6064
8.779143 87.837 -111.8862
8.842760 87.906 -112.1781
8.906839 87.975 -112.4807
8.971381 88.042 -112.7916
9.036392 88.109 -113.1078
9.101873 88.175 -113.4266
9.167829 88.239 -113.7453
9.234263 88.301 -114.0619
9.301178 88.362 -114.3741
9.368578 88.422 -114.6795
9.436467 88.480 -114.9754
9.504847 88.537 -115.2597
9.573723 88.593 -115.5305
9.643099 88.647 -115.7869
9.712976 88.700 -116.0281
9.783361 88.751 -116.2537
9.854255 88.801 -116.4633
9.925663 88.848 -116.6570
9.997588 88.894 -116.8351
10.070035 88.938 -116.9986
10.143007 88.981 -117.1487
10.216507 89.023 -117.2869
10.290540 89.064 -117.4143
10.365109 89.105 -117.5322
10.440219 89.147 -117.6420
10.515873 89.188 -117.7450
10.592076 89.229 -117.8425
10.668830 89.270 -117.9355
10.746141 89.312 -118.0247
10.824012 89.353 -118.1107
10.902447 89.394 -118.1937
10.981451 89.435 -118.2740
11.061027 89.475 -118.3515
11.141180 89.514 -118.4263
11.221913 89.553 -118.4979
11.303232 89.591 -118.5661
11.385140 89.628 -118.6306
11.467641 89.664 -118.6913
11.550741 89.699 -118.7480
11.634442 89.734 -118.8009
11.718750 89.768 -118.8500
11.803669 89.801 -118.8956
11.889203 89.835 -118.9382
11.975357 89.868 -118.9782
12.062136 89.901 -119.0164
12.149543 89.933 -119.0535
12.237583 89.965 -119.0899
12.326262 89.996 -119.1263
12.415583 90.027 -119.1633
12.505552 90.056 -119.2011
12.596172 90.085 -119.2402
12.687449 90.112 -119.2805
12.779387 90.138 -119.3221
12.871992 90.163 -119.3646
12.965268 90.187 -119.4081
13.059220 90.210 -119.4523
13.153852 90.233 -119.4968
13.249170 90.254 -119.5417
13.345179 90.275 -119.5871
13.441884 90.296 -119.6330
13.539289 90.317 -119.6802
13.637401 90.338 -119.7292
13.736223 90.359 -119.7809
13.835761 90.380 -119.8366
13.936021 90.401 -119.8976
14.037007 90.422 -119.9650
14.138725 90.444 -120.0402
14.241180 90.465 -120.1244
14.344377 90.487 -120.2184
14.448323 90.508 -120.3230
14.553021 90.530 -120.4383
14.658478 90.550 -120.5644
14.764700 90.571 -120.7006
14.871691 90.591 -120.8462
14.979457 90.610 -121.0001
15.088005 90.629 -121.1608
15.197339 90.648 -121.3270
15.307465 90.666 -121.4974
15.418389 90.684 -121.6705
15.530117 90.703 -121.8455
15.642655 90.722 -122.0217
15.756008 90.741 -122.1987
15.870182 90.761 -122.3766
15.985184 90.783 -122.5558
16.101019 90.806 -122.7370
16.217694 90.830 -122.9210
16.335214 90.856 -123.1088
16.453586 90.884 -123.3011
16.572815 90.913 -123.4986
16.692909 90.944 -123.7016
16.813872 90.977 -123.9101
16.935713 91.011 -124.1236
17.058436 91.046 -124.3414
17.182048 91.082 -124.5624
17.306556 91.118 -124.7851
17.431967 91.156 -125.0083
17.558286 91.194 -125.2306
17.685521 91.232 -125.4505
17.813677 91.271 -125.6670
17.942762 91.310 -125.8794
18.072783 91.351 -126.0871
18.203746 91.392 -126.2898
18.335658 91.433 -126.4876
18.468526 91.476 -126.6806
18.602356 91.519 -126.8689
18.737156 91.563 -127.0528
18.872934 91.607 -127.2324
19.009695 91.652 -127.4076
19.147447 91.697 -127.5784
19.286197 91.742 -127.7444
19.425953 91.787 -127.9056
19.566721 91.832 -128.0615
19.708510 91.877 -128.2120
19.851326 91.921 -128.3571
19.995177 91.965 -128.4969
20.140070 92.008 -128.6316
20.286013 92.051 -128.7618
20.433014 92.093 -128.8880
20.581080 92.134 -129.0111
20.730219 92.175 -129.1316
20.880439 92.216 -129.2504
21.031747 92.256 -129.3681
21.184152 92.295 -129.4856
21.337661 92.334 -129.6032
21.492282 92.373 -129.7217
21.648024 92.410 -129.8417
21.804895 92.447 -129.9636
21.962902 92.483 -130.0881
22.122054 92.518 -130.2157
22.282360 92.552 -130.3469
22.443827 92.586 -130.4821
22.606464 92.618 -130.6215
22.770280 92.650 -130.7652
22.935283 92.681 -130.9134
23.101481 92.711 -131.0659
23.268884 92.740 -131.2225
23.437500 92.769 -131.3833
23.607338 92.797 -131.5481
23.778406 92.825 -131.7170
23.950714 92.853 -131.8899
24.124271 92.880 -132.0669
24.299086 92.908 -132.2480
24.475167 92.936 -132.4330
24.652524 92.964 -132.6217
24.831166 92.993 -132.8134
25.011103 93.022 -133.0077
25.192344 93.051 -133.2037
25.374898 93.081 -133.4008
25.558775 93.112 -133.5986
25.743984 93.145 -133.7968
25.930536 93.178 -133.9957
26.118439 93.213 -134.1956
26.307704 93.248 -134.3974
26.498341 93.285 -134.6017
26.690359 93.323 -134.8092
26.883768 93.362 -135.0201
27.078579 93.401 -135.2343
27.274801 93.440 -135.4512
27.472446 93.479 -135.6697
27.671522 93.518 -135.8885
27.872042 93.555 -136.1060
28.074014 93.593 -136.3207
28.277450 93.629 -136.5313
28.482360 93.664 -136.7369
28.688755 93.699 -136.9367
28.896645 93.733 -137.1305
29.106042 93.767 -137.3184
29.316957 93.800 -137.5006
29.529400 93.833 -137.6776
29.743382 93.866 -137.8501
29.958915 93.898 -138.0188
30.176009 93.931 -138.1847
30.394677 93.963 -138.3487
30.614929 93.996 -138.5121
30.836778 94.028 -138.6763
31.060234 94.061 -138.8428
31.285309 94.095 -139.0135
31.512015 94.129 -139.1901
31.740364 94.163 -139.3746
31.970368 94.197 -139.5685
32.202039 94.231 -139.7733
32.435388 94.265 -139.9896
32.670428 94.299 -140.2175
32.907171 94.332 -140.4562
33.145630 94.364 -140.7045
33.385817 94.395 -140.9605
33.627745 94.425 -141.2220
33.871425 94.455 -141.4871
34.116871 94.484 -141.7538
34.364096 94.512 -142.0210
34.613113 94.540 -142.2875
34.863934 94.568 -142.5531
35.116572 94.596 -142.8176
35.371041 94.624 -143.0810
35.627354 94.652 -143.3430
35.885525 94.679 -143.6034
36.145566 94.706 -143.8614
36.407492 94.733 -144.1162
36.671316 94.760 -144.3671
36.937051 94.786 -144.6134
37.204712 94.812 -144.8550
37.474313 94.838 -145.0923
37.745867 94.863 -145.3263
38.019389 94.889 -145.5581
38.294893 94.915 -145.7887
38.572394 94.940 -146.0190
38.851905 94.965 -146.2491
39.133442 94.990 -146.4791
39.417019 95.014 -146.7088
39.702651 95.038 -146.9382
39.990353 95.061 -147.1681
40.280140 95.085 -147.3992
40.572026 95.108 -147.6326
40.866028 95.131 -147.8689
41.162160 95.154 -148.1082
41.460438 95.176 -148.3497
41.760877 95.198 -148.5925
42.063494 95.220 -148.8359
42.368303 95.242 -149.0795
42.675322 95.264 -149.3240
42.984565 95.286 -149.5701
43.296048 95.308 -149.8192
43.609789 95.330 -150.0720
43.925804 95.352 -150.3285
44.244108 95.374 -150.5882
44.564719 95.395 -150.8499
44.887654 95.416 -151.1123
45.212928 95.436 -151.3745
45.540560 95.456 -151.6358
45.870565 95.475 -151.8962
46.202962 95.494 -152.1557
46.537768 95.513 -152.4148
46.875000 95.531 -152.6736
47.214676 95.549 -152.9323
47.556813 95.568 -153.1909
47.901429 95.586 -153.4495
48.248542 95.604 -153.7084
48.598171 95.621 -153.9678
48.950334 95.639 -154.2283
49.305048 95.657 -154.4898
49.662333 95.674 -154.7522
50.022206 95.691 -155.0150
50.384688 95.708 -155.2776
50.749796 95.724 -155.5396
51.117550 95.740 -155.8011
51.487969 95.756 -156.0619
51.861072 95.771 -156.3219
52.236879 95.787 -156.5809
52.615409 95.802 -156.8382
52.996681 95.816 -157.0935
53.380717 95.831 -157.3471
53.767536 95.846 -157.5999
54.157158 95.861 -157.8530
54.549603 95.876 -158.1073
54.944892 95.891 -158.3634
55.343045 95.906 -158.6215
55.744084 95.921 -158.8818
56.148028 95.937 -159.1451
56.554900 95.952 -159.4125
56.964720 95.967 -159.6850
57.377510 95.981 -159.9631
57.793291 95.995 -160.2462
58.212085 96.009 -160.5329
58.633914 96.021 -160.8213
59.058799 96.032 -161.1097
59.486764 96.043 -161.3967
59.917829 96.052 -161.6816
60.352019 96.061 -161.9641
60.789354 96.069 -162.2443
61.229859 96.077 -162.5222
61.673556 96.084 -162.7980
62.120468 96.090 -163.0718
62.570618 96.096 -163.3435
63.024031 96.101 -163.6127
63.480729 96.105 -163.8795
63.940736 96.108 -164.1435
64.404077 96.111 -164.4047
64.870776 96.114 -164.6626
65.340856 96.115 -164.9167
65.814343 96.117 -165.1663
66.291261 96.118 -165.4105
66.771635 96.119 -165.6487
67.255489 96.119 -165.8800
67.742850 96.120 -166.1042
68.233743 96.122 -166.3211
68.728193 96.124 -166.5301
