* Measurement data measured by REW V5.30.9
* Source: EXCL: Microphone (USB Sound Device        ), MICROPHONE (Master Volume), L, volume: 0.560
* Format: 256k Log Swept Sine, 1 sweep at -10.0 dBFS with no timing reference
* Dated: Mar 24, 2024 12:42:31 AM
* REW Settings:
*  C-weighting compensation: Off
*  Target level: 75.0 dB
* Note: CCA Trio 1111 L
* Measurement: L Mar 24
* Smoothing: 1/12 octave
* Frequency Step: 96 ppo
* Start Frequency: 0.36621094 Hz
*
* Freq(Hz) SPL(dB) Phase(degrees)
0.366211 80.267 167.4580
0.368865 80.267 167.4438
0.371538 80.266 167.4225
0.374230 80.265 167.3959
0.376942 80.264 167.3654
0.379673 80.263 167.3320
0.382424 80.262 167.2965
0.385196 80.261 167.2593
0.387987 80.260 167.2206
0.390798 80.258 167.1806
0.393630 80.257 167.1393
0.396483 80.256 167.0968
0.399356 80.255 167.0531
0.402250 80.254 167.0081
0.405165 80.252 166.9619
0.408101 80.251 166.9144
0.411058 80.250 166.8657
0.414037 80.249 166.8157
0.417037 80.247 166.7645
0.420059 80.246 166.7120
0.423103 80.245 166.6582
0.426169 80.243 166.6030
0.429257 80.242 166.5466
0.432367 80.241 166.4889
0.435501 80.239 166.4298
0.438656 80.238 166.3694
0.441835 80.237 166.3077
0.445037 80.235 166.2446
0.448262 80.234 166.1802
0.451510 80.233 166.1143
0.454782 80.231 166.0472
0.458077 80.230 165.9786
0.461397 80.228 165.9087
0.464740 80.227 165.8374
0.468108 80.225 165.7646
0.471500 80.224 165.6905
0.474917 80.223 165.6150
0.478358 80.221 165.5381
0.481825 80.220 165.4598
0.485316 80.218 165.3800
0.488833 80.217 165.2989
0.492375 80.215 165.2163
0.495943 80.214 165.1323
0.499537 80.212 165.0470
0.503157 80.210 164.9601
0.506803 80.209 164.8719
0.510475 80.207 164.7823
0.514174 80.206 164.6913
0.517900 80.204 164.5988
0.521653 80.203 164.5050
0.525433 80.201 164.4097
0.529241 80.199 164.3131
0.533076 80.198 164.2151
0.536939 80.196 164.1158
0.540830 80.194 164.0150
0.544749 80.193 163.9129
0.548696 80.191 163.8095
0.552673 80.189 163.7047
0.556677 80.188 163.5986
0.560711 80.186 163.4912
0.564774 80.184 163.3826
0.568867 80.182 163.2726
0.572989 80.181 163.1614
0.577141 80.179 163.0490
0.581324 80.177 162.9354
0.585536 80.175 162.8205
0.589779 80.173 162.7045
0.594053 80.172 162.5874
0.598358 80.170 162.4692
0.602694 80.168 162.3498
0.607061 80.166 162.2294
0.611460 80.164 162.1080
0.615891 80.162 161.9856
0.620354 80.160 161.8623
0.624849 80.158 161.7381
0.629377 80.156 161.6129
0.633938 80.155 161.4870
0.638532 80.153 161.3602
0.643159 80.151 161.2327
0.647819 80.149 161.1045
0.652514 80.147 160.9757
0.657242 80.145 160.8463
0.662005 80.143 160.7163
0.666802 80.140 160.5858
0.671634 80.138 160.4550
0.676501 80.136 160.3238
0.681403 80.134 160.1922
0.686341 80.132 160.0605
0.691314 80.130 159.9286
0.696324 80.128 159.7966
0.701369 80.126 159.6646
0.706452 80.124 159.5326
0.711571 80.121 159.4006
0.716727 80.119 159.2686
0.721921 80.117 159.1367
0.727153 80.115 159.0046
0.732422 80.113 158.8721
0.737729 80.111 158.7389
0.743075 80.109 158.6048
0.748460 80.108 158.4695
0.753883 80.106 158.3329
0.759346 80.104 158.1947
0.764849 80.102 158.0549
0.770391 80.100 157.9136
0.775974 80.099 157.7706
0.781597 80.097 157.6259
0.787261 80.095 157.4796
0.792965 80.093 157.3316
0.798712 80.091 157.1821
0.804499 80.089 157.0309
0.810329 80.087 156.8781
0.816201 80.085 156.7237
0.822116 80.083 156.5678
0.828073 80.081 156.4103
0.834073 80.079 156.2513
0.840118 80.077 156.0909
0.846205 80.075 155.9289
0.852337 80.073 155.7655
0.858514 80.072 155.6007
0.864735 80.070 155.4345
0.871001 80.068 155.2669
0.877313 80.066 155.0981
0.883670 80.064 154.9279
0.890074 80.062 154.7566
0.896523 80.060 154.5840
0.903020 80.059 154.4104
0.909564 80.057 154.2356
0.916155 80.055 154.0597
0.922793 80.054 153.8829
0.929480 80.052 153.7052
0.936216 80.051 153.5265
0.943000 80.049 153.3471
0.949833 80.048 153.1669
0.956716 80.047 152.9860
0.963649 80.046 152.8046
0.970632 80.045 152.6226
0.977666 80.044 152.4401
0.984750 80.043 152.2573
0.991886 80.042 152.0742
0.999074 80.042 151.8910
1.006313 80.041 151.7076
1.013605 80.041 151.5242
1.020950 80.041 151.3409
1.028349 80.041 151.1579
1.035801 80.041 150.9751
1.043306 80.041 150.7928
1.050867 80.042 150.6111
1.058482 80.043 150.4300
1.066152 80.044 150.2497
1.073878 80.045 150.0704
1.081659 80.046 149.8921
1.089498 80.048 149.7149
1.097393 80.050 149.5390
1.105345 80.052 149.3645
1.113355 80.054 149.1914
1.121422 80.056 149.0197
1.129549 80.059 148.8494
1.137734 80.061 148.6805
1.145978 80.064 148.5129
1.154283 80.067 148.3466
1.162647 80.070 148.1815
1.171072 80.073 148.0175
1.179558 80.077 147.8545
1.188106 80.080 147.6925
1.196715 80.084 147.5313
1.205387 80.088 147.3708
1.214122 80.092 147.2110
1.222920 80.096 147.0518
1.231781 80.101 146.8929
1.240708 80.106 146.7344
1.249698 80.111 146.5761
1.258754 80.116 146.4178
1.267875 80.122 146.2594
1.277063 80.128 146.1009
1.286317 80.134 145.9420
1.295638 80.140 145.7825
1.305027 80.147 145.6225
1.314484 80.154 145.4616
1.324009 80.161 145.2998
1.333603 80.169 145.1368
1.343267 80.177 144.9725
1.353001 80.185 144.8067
1.362805 80.194 144.6392
1.372681 80.203 144.4699
1.382628 80.212 144.2985
1.392647 80.222 144.1249
1.402739 80.232 143.9489
1.412904 80.243 143.7702
1.423142 80.255 143.5889
1.433455 80.266 143.4049
1.443842 80.278 143.2181
1.454305 80.291 143.0288
1.464843 80.304 142.8373
1.475458 80.318 142.6440
1.486150 80.332 142.4495
1.496919 80.347 142.2539
1.507766 80.362 142.0576
1.518692 80.378 141.8608
1.529697 80.395 141.6634
1.540782 80.412 141.4654
1.551947 80.429 141.2667
1.563193 80.447 141.0673
1.574521 80.466 140.8670
1.585931 80.485 140.6657
1.597423 80.505 140.4632
1.608998 80.525 140.2594
1.620658 80.546 140.0542
1.632402 80.567 139.8473
1.644231 80.589 139.6387
1.656146 80.612 139.4280
1.668147 80.635 139.2153
1.680235 80.659 139.0001
1.692410 80.683 138.7825
1.704674 80.707 138.5621
1.717027 80.733 138.3388
1.729469 80.758 138.1124
1.742002 80.785 137.8826
1.754625 80.812 137.6493
1.767340 80.839 137.4123
1.780147 80.867 137.1715
1.793046 80.896 136.9267
1.806040 80.925 136.6780
1.819127 80.954 136.4256
1.832309 80.985 136.1697
1.845587 81.016 135.9107
1.858961 81.047 135.6489
1.872431 81.080 135.3847
1.886000 81.113 135.1182
1.899666 81.147 134.8495
1.913432 81.182 134.5786
1.927298 81.218 134.3055
1.941264 81.255 134.0299
1.955331 81.292 133.7518
1.969500 81.330 133.4709
1.983772 81.369 133.1871
1.998147 81.408 132.9003
2.012626 81.448 132.6101
2.027211 81.489 132.3163
2.041901 81.530 132.0189
2.056697 81.572 131.7174
2.071601 81.614 131.4116
2.086613 81.657 131.1014
2.101733 81.700 130.7864
2.116963 81.744 130.4664
2.132303 81.788 130.1412
2.147755 81.832 129.8105
2.163318 81.877 129.4742
2.178995 81.923 129.1322
2.194785 81.968 128.7845
2.210689 82.014 128.4313
2.226709 82.061 128.0728
2.242844 82.109 127.7092
2.259097 82.157 127.3407
2.275467 82.205 126.9675
2.291956 82.255 126.5897
2.308565 82.304 126.2075
2.325294 82.355 125.8208
2.342144 82.406 125.4299
2.359116 82.458 125.0347
2.376211 82.510 124.6353
2.393430 82.562 124.2316
2.410774 82.615 123.8238
2.428243 82.668 123.4118
2.445839 82.722 122.9955
2.463562 82.775 122.5749
2.481415 82.829 122.1499
2.499396 82.883 121.7205
2.517508 82.937 121.2863
2.535750 82.991 120.8473
2.554126 83.045 120.4031
2.572634 83.100 119.9535
2.591276 83.154 119.4983
2.610054 83.209 119.0373
2.628967 83.264 118.5707
2.648018 83.319 118.0986
2.667206 83.375 117.6213
2.686534 83.431 117.1392
2.706002 83.486 116.6527
2.725610 83.543 116.1622
2.745361 83.599 115.6681
2.765255 83.655 115.1708
2.785294 83.711 114.6708
2.805477 83.768 114.1683
2.825807 83.824 113.6636
2.846284 83.880 113.1571
2.866909 83.937 112.6487
2.887684 83.993 112.1385
2.908609 84.048 111.6263
2.929686 84.104 111.1116
2.950916 84.160 110.5939
2.972299 84.215 110.0728
2.993838 84.270 109.5480
3.015532 84.325 109.0194
3.037384 84.380 108.4873
3.059394 84.435 107.9521
3.081564 84.490 107.4143
3.103894 84.544 106.8744
3.126386 84.599 106.3332
3.149041 84.653 105.7910
3.171861 84.707 105.2487
3.194845 84.761 104.7066
3.217996 84.815 104.1651
3.241315 84.868 103.6246
3.264803 84.921 103.0851
3.288461 84.974 102.5462
3.312291 85.027 102.0075
3.336293 85.079 101.4685
3.360469 85.131 100.9287
3.384820 85.182 100.3881
3.409348 85.234 99.8467
3.434054 85.285 99.3050
3.458938 85.335 98.7635
3.484003 85.386 98.2227
3.509250 85.436 97.6835
3.534679 85.486 97.1464
3.560293 85.536 96.6121
3.586092 85.586 96.0811
3.612079 85.635 95.5538
3.638253 85.684 95.0303
3.664618 85.734 94.5106
3.691173 85.782 93.9943
3.717921 85.831 93.4810
3.744862 85.880 92.9704
3.771999 85.928 92.4624
3.799332 85.976 91.9570
3.826864 86.023 91.4545
3.854595 86.071 90.9551
3.882527 86.119 90.4591
3.910661 86.166 89.9670
3.938999 86.214 89.4790
3.967543 86.261 88.9956
3.996294 86.309 88.5170
4.025252 86.357 88.0433
4.054421 86.404 87.5744
4.083801 86.452 87.1102
4.113394 86.500 86.6505
4.143201 86.548 86.1952
4.173225 86.595 85.7441
4.203466 86.643 85.2971
4.233926 86.691 84.8541
4.264606 86.739 84.4152
4.295509 86.788 83.9802
4.326636 86.836 83.5493
4.357989 86.885 83.1224
4.389569 86.934 82.6997
4.421378 86.984 82.2812
4.453417 87.033 81.8670
4.485688 87.083 81.4569
4.518193 87.133 81.0508
4.550934 87.184 80.6483
4.583912 87.234 80.2494
4.617129 87.285 79.8534
4.650587 87.336 79.4603
4.684287 87.388 79.0698
4.718231 87.439 78.6816
4.752421 87.491 78.2957
4.786859 87.543 77.9121
4.821547 87.595 77.5308
4.856485 87.648 77.1518
4.891677 87.700 76.7751
4.927125 87.753 76.4004
4.962829 87.806 76.0277
4.998791 87.859 75.6566
5.035015 87.913 75.2870
5.071500 87.966 74.9186
5.108251 88.019 74.5512
5.145267 88.072 74.1848
5.182552 88.125 73.8193
5.220107 88.178 73.4548
5.257934 88.230 73.0913
5.296035 88.283 72.7289
5.334412 88.336 72.3678
5.373067 88.388 72.0079
5.412003 88.440 71.6494
5.451221 88.492 71.2922
5.490722 88.543 70.9362
5.530510 88.594 70.5814
5.570587 88.644 70.2278
5.610953 88.694 69.8755
5.651613 88.744 69.5247
5.692567 88.793 69.1756
5.733818 88.842 68.8286
5.775367 88.890 68.4839
5.817218 88.938 68.1416
5.859372 88.985 67.8020
5.901831 89.032 67.4649
5.944598 89.078 67.1305
5.987675 89.124 66.7987
6.031065 89.169 66.4697
6.074768 89.213 66.1437
6.118788 89.258 65.8209
6.163127 89.301 65.5016
6.207788 89.344 65.1859
6.252772 89.387 64.8739
6.298082 89.429 64.5655
6.343721 89.471 64.2608
6.389690 89.512 63.9596
6.435992 89.554 63.6618
6.482630 89.594 63.3675
6.529606 89.635 63.0766
6.576922 89.675 62.7891
6.624581 89.715 62.5050
6.672585 89.754 62.2242
6.720938 89.794 61.9465
6.769640 89.833 61.6716
6.818696 89.872 61.3994
6.868107 89.910 61.1294
6.917876 89.949 60.8614
6.968006 89.987 60.5952
7.018499 90.025 60.3308
7.069358 90.063 60.0679
7.120586 90.101 59.8062
7.172184 90.139 59.5456
7.224157 90.176 59.2857
7.276506 90.213 59.0263
7.329235 90.250 58.7670
7.382345 90.287 58.5078
7.435841 90.323 58.2485
7.489724 90.359 57.9891
7.543997 90.394 57.7295
7.598664 90.429 57.4697
7.653728 90.464 57.2094
7.709189 90.498 56.9486
7.765053 90.531 56.6874
7.821322 90.564 56.4258
7.877998 90.596 56.1638
7.935086 90.628 55.9016
7.992587 90.659 55.6394
8.050504 90.690 55.3773
8.108841 90.720 55.1153
8.167601 90.749 54.8536
8.226787 90.778 54.5922
8.286402 90.806 54.3314
8.346449 90.833 54.0713
8.406931 90.860 53.8121
8.467851 90.887 53.5538
8.529212 90.913 53.2965
8.591018 90.938 53.0402
8.653272 90.963 52.7849
8.715977 90.988 52.5305
8.779137 91.012 52.2771
8.842754 91.036 52.0245
8.906833 91.060 51.7726
8.971375 91.083 51.5214
9.036386 91.107 51.2703
9.101867 91.130 51.0194
9.167823 91.153 50.7682
9.234257 91.176 50.5167
9.301172 91.199 50.2644
9.368572 91.222 50.0112
9.436460 91.244 49.7567
9.504841 91.267 49.5007
9.573717 91.290 49.2429
9.643092 91.312 48.9831
9.712970 91.334 48.7213
9.783354 91.357 48.4573
9.854248 91.379 48.1910
9.925656 91.400 47.9224
9.997581 91.422 47.6516
10.070028 91.443 47.3786
10.143000 91.464 47.1036
10.216500 91.485 46.8270
10.290533 91.505 46.5488
10.365103 91.525 46.2694
10.440212 91.544 45.9891
10.515866 91.564 45.7083
10.592069 91.583 45.4273
10.668823 91.602 45.1465
10.746134 91.620 44.8662
10.824005 91.638 44.5868
10.902440 91.657 44.3084
10.981443 91.675 44.0314
11.061020 91.693 43.7560
11.141172 91.711 43.4823
11.221906 91.730 43.2102
11.303225 91.749 42.9399
11.385133 91.768 42.6711
11.467634 91.787 42.4038
11.550734 91.807 42.1378
11.634435 91.828 41.8727
11.718742 91.849 41.6082
11.803661 91.870 41.3441
11.889195 91.892 41.0799
11.975349 91.915 40.8153
12.062128 91.938 40.5499
12.149535 91.962 40.2833
12.237576 91.986 40.0154
12.326254 92.011 39.7459
12.415575 92.036 39.4745
12.505544 92.061 39.2012
12.596164 92.087 38.9261
12.687441 92.112 38.6490
12.779379 92.138 38.3703
12.871984 92.164 38.0902
12.965260 92.189 37.8089
13.059211 92.214 37.5268
13.153843 92.239 37.2444
13.249161 92.264 36.9622
13.345170 92.289 36.6805
13.441875 92.313 36.4000
13.539280 92.337 36.1210
13.637391 92.360 35.8442
13.736214 92.383 35.5697
13.835752 92.406 35.2981
13.936011 92.428 35.0297
14.036998 92.450 34.7645
14.138716 92.472 34.5028
14.241171 92.494 34.2446
14.344368 92.515 33.9899
14.448313 92.536 33.7385
14.553011 92.558 33.4904
14.658468 92.579 33.2451
14.764689 92.599 33.0026
14.871680 92.620 32.7625
14.979446 92.641 32.5246
15.087994 92.661 32.2885
15.197328 92.681 32.0542
15.307454 92.701 31.8212
15.418378 92.720 31.5897
15.530106 92.739 31.3594
15.642643 92.758 31.1304
15.755996 92.776 30.9027
15.870171 92.793 30.6765
15.985172 92.811 30.4516
16.101007 92.827 30.2284
16.217682 92.843 30.0068
16.335201 92.859 29.7870
16.453573 92.874 29.5688
16.572803 92.889 29.3522
16.692898 92.903 29.1370
16.813862 92.917 28.9230
16.935701 92.931 28.7099
17.058424 92.945 28.4972
17.182035 92.959 28.2844
17.306543 92.972 28.0712
17.431953 92.986 27.8569
17.558273 92.999 27.6412
17.685509 93.012 27.4237
17.813665 93.025 27.2040
17.942751 93.038 26.9818
18.072771 93.050 26.7572
18.203733 93.063 26.5301
18.335646 93.074 26.3006
18.468513 93.086 26.0687
18.602345 93.097 25.8349
18.737144 93.109 25.5992
18.872921 93.119 25.3621
19.009682 93.130 25.1237
19.147434 93.141 24.8842
19.286184 93.151 24.6439
19.425940 93.162 24.4028
19.566708 93.172 24.1609
19.708496 93.183 23.9182
19.851313 93.193 23.6748
19.995163 93.204 23.4306
20.140057 93.215 23.1855
20.285999 93.226 22.9395
20.433001 93.238 22.6927
20.581066 93.249 22.4453
20.730206 93.261 22.1973
20.880424 93.273 21.9489
21.031733 93.284 21.7006
21.184137 93.296 21.4526
21.337646 93.308 21.2052
21.492268 93.320 20.9588
21.648010 93.332 20.7137
21.804880 93.344 20.4702
21.962887 93.356 20.2284
22.122040 93.368 19.9885
22.282345 93.381 19.7507
22.443811 93.393 19.5149
22.606449 93.405 19.2811
22.770266 93.417 19.0492
22.935268 93.430 18.8191
23.101467 93.442 18.5907
23.268869 93.454 18.3640
23.437485 93.466 18.1387
23.607323 93.478 17.9148
23.778391 93.489 17.6923
23.950699 93.500 17.4712
24.124256 93.511 17.2513
24.299070 93.522 17.0327
24.475151 93.532 16.8152
24.652508 93.542 16.5987
24.831150 93.552 16.3830
25.011087 93.561 16.1678
25.192327 93.570 15.9528
25.374882 93.579 15.7377
25.558758 93.587 15.5221
25.743967 93.595 15.3058
25.930519 93.602 15.0887
26.118422 93.609 14.8706
26.307686 93.616 14.6514
26.498322 93.623 14.4315
26.690340 93.629 14.2107
26.883749 93.635 13.9891
27.078560 93.640 13.7669
27.274782 93.646 13.5438
27.472427 93.651 13.3197
27.671503 93.657 13.0943
27.872023 93.663 12.8672
28.073996 93.668 12.6380
28.277431 93.674 12.4067
28.482342 93.680 12.1729
28.688736 93.686 11.9370
28.896626 93.692 11.6991
29.106022 93.698 11.4598
29.316936 93.703 11.2198
29.529379 93.709 10.9798
29.743361 93.714 10.7404
29.958893 93.720 10.5023
30.175987 93.725 10.2658
30.394655 93.731 10.0311
30.614908 93.737 9.7980
30.836756 93.743 9.5663
31.060211 93.749 9.3356
31.285286 93.756 9.1052
31.511992 93.763 8.8744
31.740341 93.771 8.6426
31.970345 93.778 8.4092
32.202015 93.785 8.1736
32.435364 93.792 7.9357
32.670403 93.799 7.6953
32.907146 93.805 7.4526
33.145607 93.811 7.2080
33.385796 93.815 6.9621
33.627724 93.819 6.7157
33.871403 93.823 6.4694
34.116848 93.825 6.2240
34.364071 93.827 5.9798
34.613087 93.828 5.7369
34.863907 93.829 5.4953
35.116547 93.829 5.2545
35.371017 93.830 5.0138
35.627331 93.830 4.7727
35.885502 93.830 4.5306
36.145542 93.830 4.2874
36.407467 93.830 4.0430
36.671291 93.830 3.7974
36.937027 93.829 3.5509
37.204689 93.829 3.3039
37.474289 93.828 3.0565
37.745842 93.828 2.8087
38.019363 93.827 2.5606
38.294868 93.826 2.3121
38.572369 93.826 2.0631
38.851879 93.825 1.8136
39.133415 93.824 1.5634
39.416992 93.823 1.3126
39.702625 93.822 1.0614
39.990326 93.821 0.8100
40.280113 93.819 0.5586
40.571999 93.817 0.3079
40.866001 93.815 0.0581
41.162132 93.812 -0.1904
41.460411 93.809 -0.4377
41.760849 93.806 -0.6844
42.063465 93.803 -0.9311
42.368275 93.799 -1.1788
42.675293 93.795 -1.4282
42.984535 93.791 -1.6796
43.296021 93.786 -1.9329
43.609760 93.781 -2.1873
43.925774 93.774 -2.4418
44.244080 93.768 -2.6954
44.564690 93.761 -2.9478
44.887623 93.753 -3.1987
45.212898 93.746 -3.4486
45.540531 93.738 -3.6981
45.870537 93.731 -3.9479
46.202934 93.723 -4.1984
46.537739 93.715 -4.4497
46.874969 93.708 -4.7016
47.214645 93.700 -4.9537
47.556782 93.691 -5.2057
47.901398 93.683 -5.4577
48.248512 93.674 -5.7093
48.598141 93.665 -5.9601
48.950302 93.656 -6.2092
49.305016 93.646 -6.4555
49.662300 93.636 -6.6981
50.022175 93.627 -6.9374
50.384655 93.618 -7.1757
50.749763 93.609 -7.4163
51.117516 93.601 -7.6626
51.487934 93.592 -7.9164
51.861038 93.583 -8.1768
52.236843 93.572 -8.4403
52.615372 93.559 -8.7024
52.996643 93.545 -8.9592
53.380680 93.530 -9.2091
53.767498 93.515 -9.4527
54.157120 93.500 -9.6920
54.549564 93.486 -9.9295
54.944855 93.472 -10.1669
55.343006 93.458 -10.4060
55.744045 93.445 -10.6481
56.147991 93.432 -10.8949
56.554863 93.419 -11.1478
56.964684 93.406 -11.4075
57.377472 93.393 -11.6735
57.793251 93.378 -11.9444
58.212044 93.363 -12.2181
58.633873 93.347 -12.4924
59.058758 93.330 -12.7657
59.486721 93.312 -13.0376
59.917786 93.294 -13.3083
60.351974 93.276 -13.5783
60.789310 93.257 -13.8477
61.229816 93.237 -14.1161
61.673512 93.216 -14.3824
62.120422 93.195 -14.6459
62.570572 93.172 -14.9060
63.023983 93.149 -15.1627
63.480682 93.125 -15.4160
63.940689 93.101 -15.6659
64.404030 93.075 -15.9122
64.870728 93.049 -16.1543
65.340805 93.022 -16.3908
65.814293 92.995 -16.6205
66.291214 92.968 -16.8443
66.771591 92.943 -17.0657
67.255447 92.919 -17.2911
67.742805 92.897 -17.5275
68.233696 92.874 -17.7798
68.728142 92.850 -18.0481
69.226173 92.824 -18.3278
69.727814 92.795 -18.6107
70.233093 92.762 -18.8869
70.742035 92.727 -19.1480
71.254662 92.689 -19.3881
71.771004 92.651 -19.6046
72.291084 92.612 -19.7977
72.814934 92.575 -19.9690
73.342583 92.540 -20.1218
73.874054 92.507 -20.2604
74.409378 92.477 -20.3905
74.948578 92.450 -20.5186
75.491684 92.427 -20.6510
76.038727 92.407 -20.7928
76.589737 92.390 -20.9489
77.144737 92.375 -21.1239
77.703758 92.362 -21.3226
78.266830 92.349 -21.5482
78.833984 92.336 -21.8008
79.405251 92.321 -22.0766
79.980652 92.303 -22.3694
80.560226 92.282 -22.6732
81.143997 92.257 -22.9834
81.732002 92.229 -23.2968
82.324265 92.197 -23.6107
82.920822 92.161 -23.9221
83.521698 92.123 -24.2278
84.126930 92.081 -24.5253
84.736549 92.038 -24.8133
85.350586 91.992 -25.0917
85.969070 91.946 -25.3610
86.592041 91.898 -25.6218
87.219521 91.850 -25.8741
87.851547 91.801 -26.1177
88.488159 91.752 -26.3528
89.129379 91.704 -26.5809
89.775246 91.655 -26.8033
90.425797 91.606 -27.0206
91.081062 91.556 -27.2327
91.741074 91.506 -27.4399
92.405869 91.456 -27.6424
93.075478 91.405 -27.8406
93.749939 91.354 -28.0349
94.429291 91.303 -28.2262
95.113564 91.251 -28.4158
95.802795 91.199 -28.6045
96.497025 91.146 -28.7923
97.196281 91.092 -28.9779
97.900604 91.038 -29.1595
98.610031 90.983 -29.3353
99.324600 90.927 -29.5043
100.044350 90.871 -29.6660
100.769310 90.814 -29.8200
101.499527 90.757 -29.9659
102.235031 90.699 -30.1038
102.975868 90.642 -30.2345
103.722076 90.584 -30.3600
