* Measurement data measured by REW V5.31
* Source: EXCL: Microphone (USB Sound Device        ), MICROPHONE (Master Volume), L, volume: 0.250
* Format: 256k Log Swept Sine, 1 sweep at -5.0 dBFS with no timing reference
* Dated: Jun 19, 2024 12:11:34 AM
* REW Settings:
*  C-weighting compensation: Off
*  Target level: 75.0 dB
* Note: Celest Wyvern Abyss R
* Measurement: R Celest Wyvern Abyss
* Smoothing: 1/12 octave
* Frequency Step: 96 ppo
* Start Frequency: 0.36621094 Hz
*
* Freq(Hz) SPL(dB) Phase(degrees)
0.366211 86.737 167.0197
0.368865 86.732 167.0048
0.371538 86.726 166.9823
0.374230 86.717 166.9542
0.376942 86.708 166.9219
0.379673 86.697 166.8864
0.382424 86.687 166.8485
0.385196 86.676 166.8086
0.387987 86.665 166.7670
0.390798 86.653 166.7237
0.393630 86.642 166.6790
0.396483 86.630 166.6327
0.399356 86.619 166.5849
0.402250 86.607 166.5356
0.405165 86.595 166.4847
0.408101 86.583 166.4324
0.411058 86.571 166.3785
0.414037 86.559 166.3230
0.417037 86.547 166.2660
0.420059 86.535 166.2074
0.423103 86.523 166.1472
0.426169 86.510 166.0854
0.429257 86.498 166.0220
0.432368 86.485 165.9569
0.435501 86.473 165.8902
0.438656 86.460 165.8218
0.441835 86.447 165.7517
0.445037 86.434 165.6799
0.448262 86.421 165.6065
0.451510 86.408 165.5313
0.454782 86.395 165.4544
0.458077 86.381 165.3758
0.461397 86.368 165.2955
0.464740 86.354 165.2134
0.468108 86.341 165.1295
0.471500 86.327 165.0438
0.474917 86.313 164.9564
0.478358 86.299 164.8672
0.481825 86.285 164.7762
0.485316 86.271 164.6834
0.488833 86.257 164.5888
0.492375 86.243 164.4924
0.495943 86.228 164.3941
0.499537 86.214 164.2940
0.503157 86.199 164.1921
0.506803 86.184 164.0884
0.510475 86.170 163.9829
0.514175 86.155 163.8755
0.517900 86.140 163.7663
0.521653 86.124 163.6552
0.525434 86.109 163.5423
0.529241 86.094 163.4276
0.533076 86.078 163.3111
0.536939 86.063 163.1928
0.540830 86.047 163.0726
0.544749 86.031 162.9507
0.548696 86.015 162.8269
0.552673 85.999 162.7014
0.556677 85.983 162.5741
0.560711 85.967 162.4450
0.564774 85.950 162.3142
0.568867 85.934 162.1817
0.572989 85.917 162.0475
0.577141 85.900 161.9115
0.581324 85.883 161.7740
0.585536 85.866 161.6347
0.589779 85.849 161.4939
0.594053 85.832 161.3515
0.598358 85.814 161.2075
0.602694 85.797 161.0620
0.607061 85.779 160.9150
0.611460 85.761 160.7666
0.615891 85.743 160.6167
0.620354 85.725 160.4655
0.624849 85.707 160.3130
0.629377 85.689 160.1592
0.633938 85.671 160.0042
0.638532 85.652 159.8480
0.643159 85.633 159.6908
0.647819 85.614 159.5324
0.652514 85.595 159.3732
0.657242 85.576 159.2130
0.662005 85.557 159.0520
0.666802 85.538 158.8902
0.671634 85.518 158.7278
0.676501 85.498 158.5648
0.681403 85.479 158.4013
0.686341 85.459 158.2375
0.691314 85.439 158.0733
0.696324 85.418 157.9089
0.701370 85.398 157.7444
0.706452 85.377 157.5798
0.711571 85.355 157.4152
0.716728 85.333 157.2505
0.721921 85.310 157.0856
0.727153 85.286 156.9201
0.732422 85.260 156.7536
0.737729 85.233 156.5856
0.743075 85.204 156.4153
0.748460 85.173 156.2424
0.753883 85.141 156.0663
0.759346 85.109 155.8869
0.764849 85.075 155.7038
0.770391 85.042 155.5170
0.775974 85.008 155.3264
0.781597 84.973 155.1319
0.787261 84.938 154.9336
0.792966 84.903 154.7313
0.798712 84.867 154.5250
0.804500 84.831 154.3147
0.810329 84.794 154.1004
0.816201 84.757 153.8821
0.822116 84.720 153.6597
0.828073 84.681 153.4333
0.834074 84.642 153.2028
0.840118 84.603 152.9683
0.846206 84.563 152.7296
0.852338 84.522 152.4869
0.858514 84.481 152.2401
0.864735 84.438 151.9893
0.871001 84.395 151.7344
0.877313 84.352 151.4754
0.883670 84.307 151.2125
0.890074 84.262 150.9455
0.896524 84.215 150.6747
0.903020 84.168 150.3999
0.909564 84.119 150.1212
0.916155 84.070 149.8388
0.922794 84.019 149.5526
0.929481 83.967 149.2628
0.936216 83.915 148.9693
0.943000 83.860 148.6724
0.949834 83.805 148.3721
0.956717 83.748 148.0685
0.963649 83.690 147.7617
0.970632 83.630 147.4520
0.977666 83.569 147.1394
0.984750 83.507 146.8241
0.991886 83.442 146.5062
0.999074 83.376 146.1861
1.006314 83.308 145.8638
1.013606 83.239 145.5397
1.020951 83.167 145.2139
1.028349 83.094 144.8868
1.035801 83.018 144.5587
1.043307 82.941 144.2297
1.050867 82.861 143.9004
1.058482 82.779 143.5709
1.066152 82.695 143.2415
1.073878 82.608 142.9125
1.081660 82.519 142.5839
1.089498 82.427 142.2557
1.097393 82.333 141.9275
1.105345 82.237 141.5988
1.113355 82.138 141.2689
1.121423 82.038 140.9371
1.129549 81.935 140.6029
1.137734 81.829 140.2656
1.145979 81.722 139.9250
1.154283 81.613 139.5807
1.162647 81.501 139.2323
1.171072 81.387 138.8796
1.179558 81.270 138.5222
1.188106 81.151 138.1598
1.196715 81.030 137.7921
1.205387 80.906 137.4189
1.214122 80.780 137.0396
1.222920 80.651 136.6541
1.231782 80.519 136.2617
1.240708 80.385 135.8622
1.249699 80.248 135.4551
1.258754 80.107 135.0400
1.267876 79.964 134.6162
1.277063 79.818 134.1833
1.286318 79.669 133.7408
1.295639 79.517 133.2879
1.305027 79.362 132.8241
1.314484 79.203 132.3486
1.324009 79.041 131.8607
1.333604 78.876 131.3597
1.343268 78.707 130.8446
1.353002 78.534 130.3145
1.362806 78.358 129.7686
1.372681 78.178 129.2056
1.382628 77.994 128.6244
1.392647 77.806 128.0239
1.402739 77.614 127.4027
1.412904 77.418 126.7594
1.423142 77.217 126.0922
1.433455 77.010 125.3993
1.443843 76.797 124.6786
1.454305 76.577 123.9275
1.464844 76.347 123.1428
1.475459 76.106 122.3208
1.486150 75.850 121.4571
1.496920 75.580 120.5466
1.507767 75.293 119.5838
1.518693 74.989 118.5623
1.529698 74.670 117.4752
1.540783 74.336 116.3142
1.551948 73.988 115.0700
1.563194 73.627 113.7317
1.574521 73.255 112.2868
1.585931 72.874 110.7205
1.597423 72.486 109.0153
1.608999 72.092 107.1508
1.620658 71.695 105.1028
1.632402 71.297 102.8428
1.644232 70.900 100.3372
1.656146 70.507 97.5467
1.668147 70.121 94.4257
1.680235 69.744 90.9227
1.692411 69.379 86.9812
1.704675 69.030 82.5424
1.717028 68.699 77.5515
1.729470 68.391 71.9677
1.742003 68.110 65.7788
1.754626 67.859 59.0191
1.767341 67.643 51.7846
1.780147 67.466 44.2369
1.793047 67.333 36.5868
1.806040 67.248 29.0600
1.819128 67.215 21.8557
1.832310 67.238 15.1175
1.845587 67.319 8.9244
1.858961 67.457 3.3005
1.872432 67.654 -1.7683
1.886001 67.905 -6.3188
1.899667 68.209 -10.3985
1.913433 68.561 -14.0585
1.927299 68.957 -17.3482
1.941265 69.392 -20.3136
1.955332 69.863 -22.9958
1.969501 70.363 -25.4310
1.983773 70.888 -27.6505
1.998148 71.433 -29.6813
2.012627 71.992 -31.5466
2.027212 72.561 -33.2661
2.041902 73.134 -34.8568
2.056698 73.705 -36.3333
2.071602 74.271 -37.7082
2.086614 74.825 -38.9924
2.101734 75.363 -40.1953
2.116964 75.879 -41.3255
2.132304 76.371 -42.3905
2.147756 76.835 -43.3976
2.163320 77.269 -44.3536
2.178996 77.671 -45.2656
2.194786 78.044 -46.1406
2.210690 78.390 -46.9854
2.226710 78.712 -47.8059
2.242845 79.014 -48.6066
2.259098 79.298 -49.3904
2.275468 79.567 -50.1592
2.291957 79.821 -50.9136
2.308566 80.062 -51.6539
2.325295 80.292 -52.3801
2.342145 80.511 -53.0918
2.359117 80.720 -53.7886
2.376212 80.920 -54.4703
2.393431 81.112 -55.1363
2.410775 81.298 -55.7863
2.428244 81.478 -56.4198
2.445840 81.654 -57.0366
2.463564 81.826 -57.6364
2.481416 81.997 -58.2192
2.499397 82.165 -58.7853
2.517509 82.333 -59.3353
2.535752 82.501 -59.8705
2.554127 82.667 -60.3930
2.572635 82.831 -60.9051
2.591277 82.993 -61.4098
2.610055 83.150 -61.9091
2.628968 83.303 -62.4046
2.648019 83.450 -62.8970
2.667208 83.592 -63.3862
2.686535 83.729 -63.8718
2.706003 83.862 -64.3531
2.725612 83.989 -64.8292
2.745363 84.113 -65.2991
2.765257 84.233 -65.7616
2.785295 84.349 -66.2158
2.805478 84.463 -66.6606
2.825808 84.574 -67.0949
2.846285 84.684 -67.5180
2.866910 84.792 -67.9293
2.887685 84.899 -68.3287
2.908611 85.004 -68.7166
2.929688 85.108 -69.0939
2.950917 85.210 -69.4621
2.972301 85.309 -69.8227
2.993839 85.405 -70.1770
3.015534 85.499 -70.5255
3.037386 85.589 -70.8685
3.059396 85.677 -71.2059
3.081565 85.762 -71.5372
3.103896 85.844 -71.8617
3.126388 85.925 -72.1788
3.149043 86.003 -72.4875
3.171862 86.081 -72.7870
3.194847 86.157 -73.0765
3.217998 86.232 -73.3552
3.241317 86.307 -73.6223
3.264805 86.381 -73.8774
3.288463 86.454 -74.1203
3.312293 86.526 -74.3512
3.336295 86.597 -74.5706
3.360471 86.667 -74.7791
3.384822 86.736 -74.9775
3.409350 86.803 -75.1664
3.434056 86.869 -75.3465
3.458940 86.934 -75.5186
3.484005 86.998 -75.6831
3.509252 87.062 -75.8406
3.534681 87.126 -75.9916
3.560295 87.189 -76.1364
3.586094 87.253 -76.2753
3.612081 87.317 -76.4082
3.638255 87.381 -76.5351
3.664620 87.446 -76.6555
3.691175 87.511 -76.7691
3.717923 87.577 -76.8756
3.744864 87.643 -76.9753
3.772001 87.709 -77.0688
3.799335 87.775 -77.1570
3.826866 87.841 -77.2413
3.854597 87.908 -77.3230
3.882529 87.975 -77.4036
3.910664 88.043 -77.4846
3.939002 88.111 -77.5674
3.967546 88.180 -77.6532
3.996296 88.250 -77.7428
4.025255 88.321 -77.8367
4.054423 88.392 -77.9351
4.083804 88.465 -78.0374
4.113396 88.538 -78.1430
4.143204 88.612 -78.2511
4.173227 88.686 -78.3611
4.203468 88.761 -78.4724
4.233928 88.837 -78.5849
4.264609 88.912 -78.6989
4.295512 88.988 -78.8151
4.326639 89.064 -78.9353
4.357992 89.141 -79.0621
4.389572 89.217 -79.1983
4.421380 89.293 -79.3466
4.453419 89.369 -79.5078
4.485691 89.446 -79.6815
4.518196 89.522 -79.8668
4.550936 89.598 -80.0628
4.583914 89.674 -80.2688
4.617131 89.750 -80.4845
4.650589 89.825 -80.7097
4.684289 89.899 -80.9446
4.718233 89.972 -81.1895
4.752424 90.044 -81.4445
4.786862 90.115 -81.7098
4.821549 90.185 -81.9856
4.856488 90.254 -82.2713
4.891680 90.322 -82.5664
4.927127 90.389 -82.8701
4.962831 90.454 -83.1813
4.998794 90.519 -83.4991
5.035017 90.582 -83.8227
5.071503 90.643 -84.1516
5.108253 90.703 -84.4855
5.145270 90.762 -84.8245
5.182555 90.819 -85.1689
5.220110 90.874 -85.5186
5.257937 90.928 -85.8731
5.296038 90.980 -86.2316
5.334415 91.031 -86.5929
5.373071 91.081 -86.9559
5.412006 91.130 -87.3194
5.451224 91.177 -87.6826
5.490725 91.223 -88.0451
5.530514 91.268 -88.4067
5.570590 91.312 -88.7678
5.610957 91.355 -89.1282
5.651616 91.396 -89.4878
5.692570 91.437 -89.8463
5.733821 91.477 -90.2030
5.775370 91.517 -90.5575
5.817221 91.557 -90.9092
5.859375 91.596 -91.2576
5.901834 91.635 -91.6028
5.944602 91.674 -91.9449
5.987679 91.713 -92.2843
6.031068 91.751 -92.6216
6.074771 91.791 -92.9573
6.118792 91.830 -93.2920
6.163131 91.870 -93.6260
6.207792 91.911 -93.9597
6.252776 91.952 -94.2930
6.298086 91.994 -94.6263
6.343725 92.037 -94.9600
6.389694 92.081 -95.2949
6.435996 92.125 -95.6319
6.482634 92.171 -95.9721
6.529610 92.217 -96.3165
6.576926 92.264 -96.6656
6.624585 92.312 -97.0200
6.672590 92.361 -97.3799
6.720942 92.411 -97.7455
6.769645 92.461 -98.1172
6.818700 92.512 -98.4957
6.868111 92.564 -98.8813
6.917881 92.616 -99.2748
6.968010 92.669 -99.6765
7.018504 92.721 -100.0864
7.069362 92.774 -100.5044
7.120590 92.828 -100.9302
7.172189 92.881 -101.3633
7.224161 92.934 -101.8034
7.276511 92.987 -102.2500
7.329239 93.039 -102.7030
7.382350 93.091 -103.1620
7.435845 93.143 -103.6267
7.489729 93.194 -104.0961
7.544002 93.245 -104.5695
7.598669 93.296 -105.0456
7.653732 93.345 -105.5237
7.709194 93.395 -106.0031
7.765058 93.443 -106.4832
7.821327 93.492 -106.9635
7.878004 93.539 -107.4433
7.935091 93.587 -107.9217
7.992592 93.634 -108.3980
8.050510 93.681 -108.8714
8.108847 93.728 -109.3414
8.167607 93.775 -109.8079
8.226793 93.822 -110.2707
8.286408 93.869 -110.7296
8.346454 93.916 -111.1846
8.406936 93.963 -111.6355
8.467856 94.011 -112.0823
8.529218 94.060 -112.5252
8.591024 94.109 -112.9645
8.653278 94.159 -113.4006
8.715983 94.209 -113.8341
8.779143 94.260 -114.2654
8.842760 94.312 -114.6948
8.906839 94.364 -115.1227
8.971381 94.417 -115.5496
9.036392 94.470 -115.9758
9.101873 94.524 -116.4019
9.167829 94.578 -116.8283
9.234263 94.632 -117.2552
9.301178 94.687 -117.6827
9.368578 94.742 -118.1107
9.436467 94.796 -118.5393
9.504847 94.851 -118.9685
9.573723 94.905 -119.3981
9.643099 94.958 -119.8278
9.712976 95.009 -120.2574
9.783361 95.059 -120.6863
9.854255 95.107 -121.1140
9.925663 95.151 -121.5403
9.997588 95.193 -121.9646
10.070035 95.232 -122.3865
10.143007 95.268 -122.8057
10.216507 95.302 -123.2216
10.290540 95.335 -123.6340
10.365109 95.365 -124.0426
10.440219 95.394 -124.4474
10.515873 95.422 -124.8484
10.592076 95.449 -125.2454
10.668830 95.475 -125.6387
10.746141 95.501 -126.0284
10.824012 95.527 -126.4149
10.902447 95.552 -126.7985
10.981451 95.577 -127.1796
11.061027 95.601 -127.5585
11.141180 95.626 -127.9359
11.221913 95.649 -128.3119
11.303232 95.672 -128.6870
11.385140 95.695 -129.0617
11.467641 95.717 -129.4361
11.550741 95.739 -129.8105
11.634442 95.760 -130.1851
11.718750 95.781 -130.5599
11.803669 95.802 -130.9350
11.889203 95.822 -131.3104
11.975357 95.842 -131.6860
12.062136 95.861 -132.0618
12.149543 95.880 -132.4377
12.237583 95.898 -132.8136
12.326262 95.916 -133.1896
12.415583 95.933 -133.5657
12.505552 95.950 -133.9420
12.596172 95.966 -134.3186
12.687449 95.981 -134.6958
12.779387 95.995 -135.0739
12.871992 96.009 -135.4531
12.965268 96.023 -135.8339
13.059220 96.036 -136.2167
13.153852 96.049 -136.6018
13.249170 96.062 -136.9896
13.345179 96.075 -137.3805
13.441884 96.087 -137.7745
13.539289 96.099 -138.1720
13.637401 96.111 -138.5728
13.736223 96.122 -138.9770
13.835761 96.133 -139.3844
13.936021 96.144 -139.7948
14.037007 96.154 -140.2078
14.138725 96.163 -140.6231
14.241180 96.172 -141.0403
14.344377 96.180 -141.4591
14.448323 96.188 -141.8791
14.553021 96.195 -142.3002
14.658478 96.203 -142.7222
14.764700 96.210 -143.1451
14.871691 96.218 -143.5689
14.979457 96.226 -143.9939
15.088005 96.235 -144.4203
15.197339 96.244 -144.8486
15.307465 96.253 -145.2791
15.418389 96.264 -145.7122
15.530117 96.275 -146.1484
15.642655 96.286 -146.5881
15.756008 96.298 -147.0314
15.870182 96.310 -147.4786
15.985184 96.322 -147.9298
16.101019 96.335 -148.3848
16.217694 96.348 -148.8435
16.335214 96.361 -149.3057
16.453586 96.375 -149.7708
16.572815 96.388 -150.2386
16.692909 96.402 -150.7084
16.813872 96.416 -151.1797
16.935713 96.430 -151.6520
17.058436 96.444 -152.1247
17.182048 96.459 -152.5972
17.306556 96.473 -153.0690
17.431967 96.488 -153.5394
17.558286 96.502 -154.0081
17.685521 96.515 -154.4744
17.813677 96.529 -154.9379
17.942762 96.542 -155.3981
18.072783 96.555 -155.8546
18.203746 96.567 -156.3072
18.335658 96.580 -156.7556
18.468526 96.592 -157.1997
18.602356 96.604 -157.6396
18.737156 96.616 -158.0756
18.872934 96.628 -158.5079
19.009695 96.640 -158.9369
19.147447 96.653 -159.3631
19.286197 96.665 -159.7870
19.425953 96.677 -160.2092
19.566721 96.688 -160.6300
19.708510 96.699 -161.0498
19.851326 96.710 -161.4687
19.995177 96.720 -161.8869
20.140070 96.729 -162.3044
20.286013 96.737 -162.7210
20.433014 96.744 -163.1367
20.581080 96.750 -163.5513
20.730219 96.756 -163.9648
20.880439 96.761 -164.3774
21.031747 96.766 -164.7892
21.184152 96.770 -165.2007
21.337661 96.774 -165.6123
21.492282 96.778 -166.0247
21.648024 96.781 -166.4383
21.804895 96.785 -166.8539
21.962902 96.788 -167.2718
22.122054 96.790 -167.6924
22.282360 96.792 -168.1160
22.443827 96.794 -168.5426
22.606464 96.795 -168.9723
22.770280 96.796 -169.4049
22.935283 96.797 -169.8405
23.101481 96.797 -170.2789
23.268884 96.797 -170.7202
23.437500 96.797 -171.1644
23.607338 96.797 -171.6115
23.778406 96.797 -172.0617
23.950714 96.796 -172.5149
24.124271 96.795 -172.9710
24.299086 96.794 -173.4297
24.475167 96.793 -173.8907
24.652524 96.792 -174.3532
24.831166 96.791 -174.8166
25.011103 96.789 -175.2803
25.192344 96.788 -175.7435
25.374898 96.787 -176.2056
25.558775 96.785 -176.6662
25.743984 96.784 -177.1249
25.930536 96.783 -177.5817
26.118439 96.782 -178.0366
26.307704 96.781 -178.4896
26.498341 96.780 -178.9409
26.690359 96.780 -179.3906
26.883768 96.779 -179.8388
27.078579 96.778 179.7145
27.274801 96.777 179.2693
27.472446 96.776 178.8258
27.671522 96.774 178.3839
27.872042 96.772 177.9436
28.074014 96.769 177.5050
28.277450 96.766 177.0680
28.482360 96.762 176.6325
28.688755 96.757 176.1984
28.896645 96.752 175.7653
29.106042 96.747 175.3331
29.316957 96.741 174.9016
29.529400 96.735 174.4703
29.743382 96.728 174.0387
29.958915 96.721 173.6064
30.176009 96.713 173.1729
30.394677 96.706 172.7375
30.614929 96.698 172.2998
30.836778 96.690 171.8596
31.060234 96.682 171.4167
31.285309 96.673 170.9712
31.512015 96.664 170.5232
31.740364 96.655 170.0730
31.970368 96.646 169.6207
32.202039 96.636 169.1662
32.435388 96.627 168.7094
32.670428 96.617 168.2502
32.907171 96.608 167.7886
33.145630 96.598 167.3247
33.385817 96.588 166.8591
33.627745 96.578 166.3928
33.871425 96.568 165.9266
34.116871 96.558 165.4612
34.364096 96.547 164.9973
34.613113 96.537 164.5347
34.863934 96.526 164.0732
35.116572 96.516 163.6125
35.371041 96.505 163.1523
35.627354 96.494 162.6929
35.885525 96.482 162.2350
36.145566 96.470 161.7791
36.407492 96.457 161.3257
36.671316 96.444 160.8747
36.937051 96.431 160.4253
37.204712 96.418 159.9767
37.474313 96.404 159.5279
37.745867 96.390 159.0787
38.019389 96.375 158.6297
38.294893 96.360 158.1817
38.572394 96.344 157.7353
38.851905 96.328 157.2904
39.133442 96.312 156.8456
39.417019 96.297 156.3990
39.702651 96.281 155.9489
39.990353 96.265 155.4943
40.280140 96.249 155.0362
40.572026 96.232 154.5765
40.866028 96.215 154.1174
41.162160 96.197 153.6604
41.460438 96.179 153.2053
41.760877 96.161 152.7507
42.063494 96.144 152.2951
42.368303 96.127 151.8380
42.675322 96.109 151.3801
42.984565 96.091 150.9233
43.296048 96.072 150.4687
43.609789 96.053 150.0162
43.925804 96.035 149.5639
44.244108 96.016 149.1095
44.564719 95.998 148.6520
44.887654 95.978 148.1930
45.212928 95.957 147.7363
45.540560 95.935 147.2857
45.870565 95.913 146.8430
46.202962 95.892 146.4058
46.537768 95.871 145.9690
46.875000 95.852 145.5266
47.214676 95.834 145.0753
47.556813 95.814 144.6162
47.901429 95.794 144.1532
48.248542 95.773 143.6912
48.598171 95.751 143.2323
48.950334 95.729 142.7755
49.305048 95.708 142.3176
49.662333 95.687 141.8557
50.022206 95.666 141.3901
50.384688 95.643 140.9238
50.749796 95.619 140.4611
51.117550 95.595 140.0047
51.487969 95.571 139.5541
51.861072 95.548 139.1063
52.236879 95.525 138.6573
52.615409 95.502 138.2051
52.996681 95.479 137.7509
53.380717 95.455 137.2977
53.767536 95.431 136.8490
54.157158 95.407 136.4055
54.549603 95.384 135.9652
54.944892 95.362 135.5238
55.343045 95.341 135.0771
55.744084 95.320 134.6231
56.148028 95.299 134.1625
56.554900 95.277 133.6983
56.964720 95.255 133.2337
57.377510 95.232 132.7703
57.793291 95.210 132.3074
58.212085 95.187 131.8421
58.633914 95.165 131.3714
59.058799 95.142 130.8940
59.486764 95.118 130.4113
59.917829 95.091 129.9275
60.352019 95.064 129.4476
60.789354 95.035 128.9754
61.229859 95.006 128.5117
61.673556 94.977 128.0532
62.120468 94.950 127.5943
62.570618 94.923 127.1298
63.024031 94.896 126.6572
63.480729 94.868 126.1785
63.940736 94.839 125.6984
64.404077 94.809 125.2227
64.870776 94.779 124.7554
65.340856 94.748 124.2973
65.814343 94.718 123.8467
66.291261 94.690 123.3998
66.771635 94.663 122.9515
67.255489 94.637 122.4972
67.742850 94.612 122.0334
68.233743 94.585 121.5598
68.728193 94.558 121.0794
69.226226 94.528 120.5981
69.727867 94.497 120.1220
70.233144 94.465 119.6548
70.742083 94.433 119.1962
71.254709 94.402 118.7423
71.771050 94.373 118.2865
