* Measurement data measured by REW V5.31
* Source: EXCL: Microphone (USB Sound Device        ), MICROPHONE (Master Volume), L, volume: 0.250
* Format: 256k Log Swept Sine, 1 sweep at -5.0 dBFS with no timing reference
* Dated: Jun 19, 2024 12:09:48 AM
* REW Settings:
*  C-weighting compensation: Off
*  Target level: 75.0 dB
* Note: Celest Wyvern Abyss L
* Measurement: L Celest Wyvern Abyss
* Smoothing: 1/12 octave
* Frequency Step: 96 ppo
* Start Frequency: 0.36621094 Hz
*
* Freq(Hz) SPL(dB) Phase(degrees)
0.366211 76.925 -166.8002
0.368865 76.929 -166.8071
0.371538 76.934 -166.8174
0.374230 76.941 -166.8302
0.376942 76.948 -166.8447
0.379673 76.956 -166.8602
0.382424 76.965 -166.8765
0.385196 76.973 -166.8932
0.387987 76.982 -166.9103
0.390798 76.991 -166.9277
0.393630 77.000 -166.9453
0.396483 77.009 -166.9632
0.399356 77.018 -166.9813
0.402250 77.027 -166.9996
0.405165 77.036 -167.0182
0.408101 77.046 -167.0370
0.411058 77.055 -167.0560
0.414037 77.065 -167.0753
0.417037 77.074 -167.0948
0.420059 77.084 -167.1147
0.423103 77.093 -167.1348
0.426169 77.103 -167.1551
0.429257 77.113 -167.1758
0.432368 77.123 -167.1967
0.435501 77.133 -167.2180
0.438656 77.143 -167.2396
0.441835 77.153 -167.2615
0.445037 77.163 -167.2838
0.448262 77.173 -167.3064
0.451510 77.183 -167.3293
0.454782 77.194 -167.3527
0.458077 77.204 -167.3764
0.461397 77.215 -167.4005
0.464740 77.225 -167.4250
0.468108 77.236 -167.4500
0.471500 77.247 -167.4753
0.474917 77.257 -167.5011
0.478358 77.268 -167.5274
0.481825 77.279 -167.5541
0.485316 77.290 -167.5814
0.488833 77.302 -167.6091
0.492375 77.313 -167.6373
0.495943 77.324 -167.6661
0.499537 77.336 -167.6954
0.503157 77.347 -167.7253
0.506803 77.359 -167.7558
0.510475 77.370 -167.7869
0.514175 77.382 -167.8186
0.517900 77.394 -167.8509
0.521653 77.406 -167.8839
0.525434 77.418 -167.9176
0.529241 77.430 -167.9520
0.533076 77.442 -167.9871
0.536939 77.454 -168.0229
0.540830 77.466 -168.0596
0.544749 77.479 -168.0970
0.548696 77.491 -168.1352
0.552673 77.504 -168.1743
0.556677 77.517 -168.2143
0.560711 77.529 -168.2552
0.564774 77.542 -168.2970
0.568867 77.555 -168.3397
0.572989 77.568 -168.3835
0.577141 77.582 -168.4283
0.581324 77.595 -168.4741
0.585536 77.608 -168.5210
0.589779 77.622 -168.5691
0.594053 77.635 -168.6183
0.598358 77.649 -168.6687
0.602694 77.663 -168.7204
0.607061 77.676 -168.7733
0.611460 77.690 -168.8276
0.615891 77.704 -168.8832
0.620354 77.719 -168.9403
0.624849 77.733 -168.9988
0.629377 77.747 -169.0588
0.633938 77.762 -169.1205
0.638532 77.776 -169.1837
0.643159 77.791 -169.2486
0.647819 77.806 -169.3153
0.652514 77.821 -169.3837
0.657242 77.836 -169.4541
0.662005 77.851 -169.5264
0.666802 77.866 -169.6006
0.671634 77.881 -169.6770
0.676501 77.897 -169.7555
0.681403 77.912 -169.8362
0.686341 77.928 -169.9193
0.691314 77.943 -170.0048
0.696324 77.959 -170.0928
0.701370 77.975 -170.1834
0.706452 77.990 -170.2768
0.711571 78.006 -170.3730
0.716728 78.020 -170.4723
0.721921 78.034 -170.5749
0.727153 78.046 -170.6810
0.732422 78.056 -170.7909
0.737729 78.063 -170.9050
0.743075 78.069 -171.0235
0.748460 78.073 -171.1468
0.753883 78.075 -171.2749
0.759346 78.077 -171.4080
0.764849 78.079 -171.5461
0.770391 78.080 -171.6892
0.775974 78.080 -171.8374
0.781597 78.081 -171.9906
0.787261 78.081 -172.1488
0.792966 78.081 -172.3120
0.798712 78.081 -172.4801
0.804500 78.080 -172.6532
0.810329 78.079 -172.8310
0.816201 78.078 -173.0137
0.822116 78.076 -173.2011
0.828073 78.074 -173.3932
0.834074 78.071 -173.5899
0.840118 78.068 -173.7913
0.846206 78.065 -173.9971
0.852338 78.060 -174.2075
0.858514 78.055 -174.4222
0.864735 78.050 -174.6413
0.871001 78.044 -174.8647
0.877313 78.036 -175.0922
0.883670 78.029 -175.3239
0.890074 78.020 -175.5596
0.896524 78.010 -175.7993
0.903020 77.999 -176.0428
0.909564 77.988 -176.2902
0.916155 77.975 -176.5413
0.922794 77.961 -176.7960
0.929481 77.946 -177.0543
0.936216 77.929 -177.3160
0.943000 77.911 -177.5811
0.949834 77.892 -177.8495
0.956717 77.871 -178.1210
0.963649 77.849 -178.3956
0.970632 77.825 -178.6731
0.977666 77.799 -178.9536
0.984750 77.772 -179.2368
0.991886 77.742 -179.5227
0.999074 77.711 -179.8112
1.006314 77.677 179.8979
1.013606 77.642 179.6046
1.020951 77.604 179.3089
1.028349 77.564 179.0112
1.035801 77.521 178.7113
1.043307 77.476 178.4094
1.050867 77.428 178.1054
1.058482 77.377 177.7993
1.066152 77.324 177.4909
1.073878 77.267 177.1798
1.081660 77.207 176.8652
1.089498 77.143 176.5458
1.097393 77.075 176.2200
1.105345 77.003 175.8855
1.113355 76.926 175.5400
1.121423 76.844 175.1815
1.129549 76.757 174.8082
1.137734 76.665 174.4191
1.145979 76.568 174.0131
1.154283 76.465 173.5897
1.162647 76.358 173.1483
1.171072 76.246 172.6886
1.179558 76.129 172.2101
1.188106 76.007 171.7125
1.196715 75.881 171.1954
1.205387 75.751 170.6586
1.214122 75.617 170.1015
1.222920 75.479 169.5240
1.231782 75.338 168.9255
1.240708 75.194 168.3058
1.249699 75.047 167.6645
1.258754 74.897 167.0011
1.267876 74.745 166.3154
1.277063 74.591 165.6068
1.286318 74.435 164.8751
1.295639 74.277 164.1198
1.305027 74.119 163.3405
1.314484 73.960 162.5367
1.324009 73.801 161.7083
1.333604 73.641 160.8545
1.343268 73.483 159.9752
1.353002 73.325 159.0697
1.362806 73.169 158.1377
1.372681 73.015 157.1786
1.382628 72.863 156.1919
1.392647 72.715 155.1768
1.402739 72.569 154.1324
1.412904 72.428 153.0573
1.423142 72.291 151.9495
1.433455 72.157 150.8056
1.443843 72.029 149.6205
1.454305 71.904 148.3866
1.464844 71.781 147.0927
1.475459 71.660 145.7242
1.486150 71.539 144.2640
1.496920 71.418 142.6934
1.507767 71.294 140.9925
1.518693 71.169 139.1404
1.529698 71.041 137.1142
1.540783 70.913 134.8886
1.551948 70.783 132.4352
1.563194 70.653 129.7219
1.574521 70.524 126.7126
1.585931 70.395 123.3682
1.597423 70.269 119.6465
1.608999 70.145 115.5052
1.620658 70.026 110.9061
1.632402 69.911 105.8211
1.644232 69.803 100.2411
1.656146 69.701 94.1867
1.668147 69.607 87.7173
1.680235 69.523 80.9360
1.692411 69.449 73.9838
1.704675 69.387 67.0242
1.717028 69.339 60.2188
1.729470 69.305 53.7048
1.742003 69.288 47.5794
1.754626 69.289 41.8967
1.767341 69.309 36.6723
1.780147 69.351 31.8933
1.793047 69.416 27.5287
1.806040 69.508 23.5383
1.819128 69.627 19.8795
1.832310 69.777 16.5114
1.845587 69.958 13.3978
1.858961 70.173 10.5094
1.872432 70.421 7.8222
1.886001 70.701 5.3168
1.899667 71.012 2.9769
1.913433 71.353 0.7880
1.927299 71.719 -1.2632
1.941265 72.110 -3.1887
1.955332 72.521 -4.9996
1.969501 72.951 -6.7066
1.983773 73.396 -8.3191
1.998148 73.853 -9.8459
2.012627 74.319 -11.2954
2.027212 74.790 -12.6748
2.041902 75.264 -13.9910
2.056698 75.736 -15.2504
2.071602 76.204 -16.4587
2.086614 76.664 -17.6215
2.101734 77.112 -18.7438
2.116964 77.547 -19.8304
2.132304 77.963 -20.8860
2.147756 78.361 -21.9153
2.163320 78.737 -22.9230
2.178996 79.092 -23.9138
2.194786 79.426 -24.8924
2.210690 79.740 -25.8630
2.226710 80.037 -26.8290
2.242845 80.318 -27.7919
2.259098 80.587 -28.7521
2.275468 80.843 -29.7092
2.291957 81.088 -30.6619
2.308566 81.323 -31.6086
2.325295 81.548 -32.5479
2.342145 81.765 -33.4783
2.359117 81.974 -34.3984
2.376212 82.175 -35.3070
2.393431 82.371 -36.2032
2.410775 82.560 -37.0863
2.428244 82.745 -37.9554
2.445840 82.926 -38.8104
2.463564 83.103 -39.6511
2.481416 83.279 -40.4778
2.499397 83.452 -41.2913
2.517509 83.624 -42.0928
2.535752 83.794 -42.8848
2.554127 83.963 -43.6703
2.572635 84.130 -44.4530
2.591277 84.294 -45.2366
2.610055 84.453 -46.0236
2.628968 84.608 -46.8154
2.648019 84.758 -47.6121
2.667208 84.904 -48.4124
2.686535 85.044 -49.2148
2.706003 85.180 -50.0172
2.725612 85.311 -50.8172
2.745363 85.439 -51.6127
2.765257 85.562 -52.4013
2.785295 85.682 -53.1808
2.805478 85.799 -53.9492
2.825808 85.913 -54.7046
2.846285 86.024 -55.4458
2.866910 86.133 -56.1720
2.887685 86.240 -56.8832
2.908611 86.344 -57.5808
2.929688 86.446 -58.2672
2.950917 86.545 -58.9456
2.972301 86.641 -59.6191
2.993839 86.733 -60.2901
3.015534 86.821 -60.9596
3.037386 86.906 -61.6277
3.059396 86.987 -62.2933
3.081565 87.064 -62.9551
3.103896 87.139 -63.6109
3.126388 87.210 -64.2588
3.149043 87.279 -64.8962
3.171862 87.346 -65.5210
3.194847 87.410 -66.1309
3.217998 87.473 -66.7238
3.241317 87.534 -67.2983
3.264805 87.593 -67.8539
3.288463 87.650 -68.3909
3.312293 87.705 -68.9103
3.336295 87.758 -69.4143
3.360471 87.808 -69.9045
3.384822 87.855 -70.3822
3.409350 87.900 -70.8481
3.434056 87.943 -71.3020
3.458940 87.983 -71.7437
3.484005 88.022 -72.1723
3.509252 88.060 -72.5868
3.534681 88.096 -72.9858
3.560295 88.132 -73.3682
3.586094 88.169 -73.7324
3.612081 88.205 -74.0770
3.638255 88.241 -74.4010
3.664620 88.277 -74.7035
3.691175 88.314 -74.9841
3.717923 88.350 -75.2430
3.744864 88.385 -75.4812
3.772001 88.421 -75.6998
3.799335 88.456 -75.9003
3.826866 88.491 -76.0845
3.854597 88.527 -76.2540
3.882529 88.564 -76.4106
3.910664 88.603 -76.5557
3.939002 88.643 -76.6906
3.967546 88.685 -76.8159
3.996296 88.730 -76.9318
4.025255 88.777 -77.0377
4.054423 88.826 -77.1327
4.083804 88.878 -77.2162
4.113396 88.933 -77.2883
4.143204 88.990 -77.3503
4.173227 89.049 -77.4047
4.203468 89.110 -77.4543
4.233928 89.173 -77.5026
4.264609 89.238 -77.5529
4.295512 89.306 -77.6085
4.326639 89.375 -77.6719
4.357992 89.447 -77.7448
4.389572 89.521 -77.8279
4.421380 89.598 -77.9210
4.453419 89.677 -78.0231
4.485691 89.758 -78.1339
4.518196 89.842 -78.2538
4.550936 89.927 -78.3836
4.583914 90.014 -78.5249
4.617131 90.101 -78.6796
4.650589 90.190 -78.8494
4.684289 90.279 -79.0363
4.718233 90.367 -79.2415
4.752424 90.456 -79.4661
4.786862 90.544 -79.7101
4.821549 90.633 -79.9731
4.856488 90.721 -80.2544
4.891680 90.809 -80.5526
4.927127 90.896 -80.8663
4.962831 90.983 -81.1946
4.998794 91.068 -81.5364
5.035017 91.152 -81.8911
5.071503 91.234 -82.2584
5.108253 91.314 -82.6382
5.145270 91.392 -83.0312
5.182555 91.468 -83.4373
5.220110 91.541 -83.8560
5.257937 91.612 -84.2860
5.296038 91.681 -84.7252
5.334415 91.748 -85.1713
5.373071 91.813 -85.6215
5.412006 91.875 -86.0739
5.451224 91.935 -86.5269
5.490725 91.993 -86.9797
5.530514 92.047 -87.4326
5.570590 92.100 -87.8855
5.610957 92.149 -88.3381
5.651616 92.197 -88.7893
5.692570 92.242 -89.2374
5.733821 92.286 -89.6804
5.775370 92.328 -90.1162
5.817221 92.369 -90.5430
5.859375 92.408 -90.9598
5.901834 92.446 -91.3663
5.944602 92.483 -91.7626
5.987679 92.518 -92.1490
6.031068 92.553 -92.5258
6.074771 92.588 -92.8928
6.118792 92.622 -93.2501
6.163131 92.656 -93.5971
6.207792 92.691 -93.9335
6.252776 92.727 -94.2592
6.298086 92.763 -94.5743
6.343725 92.801 -94.8798
6.389694 92.839 -95.1770
6.435996 92.878 -95.4677
6.482634 92.919 -95.7537
6.529610 92.961 -96.0366
6.576926 93.005 -96.3176
6.624585 93.050 -96.5973
6.672590 93.098 -96.8765
6.720942 93.147 -97.1561
6.769645 93.198 -97.4377
6.818700 93.250 -97.7230
6.868111 93.304 -98.0142
6.917881 93.359 -98.3130
6.968010 93.415 -98.6204
7.018504 93.472 -98.9371
7.069362 93.530 -99.2634
7.120590 93.589 -99.5992
7.172189 93.649 -99.9451
7.224161 93.708 -100.3011
7.276511 93.768 -100.6678
7.329239 93.827 -101.0454
7.382350 93.886 -101.4338
7.435845 93.944 -101.8325
7.489729 94.001 -102.2405
7.544002 94.058 -102.6564
7.598669 94.113 -103.0789
7.653732 94.167 -103.5070
7.709194 94.220 -103.9396
7.765058 94.271 -104.3761
7.821327 94.321 -104.8154
7.878004 94.370 -105.2563
7.935091 94.417 -105.6970
7.992592 94.463 -106.1359
8.050510 94.508 -106.5717
8.108847 94.551 -107.0033
8.167607 94.594 -107.4303
8.226793 94.636 -107.8522
8.286408 94.677 -108.2681
8.346454 94.717 -108.6774
8.406936 94.758 -109.0797
8.467856 94.798 -109.4745
8.529218 94.838 -109.8621
8.591024 94.878 -110.2427
8.653278 94.919 -110.6171
8.715983 94.960 -110.9858
8.779143 95.002 -111.3496
8.842760 95.045 -111.7091
8.906839 95.088 -112.0649
8.971381 95.132 -112.4182
9.036392 95.177 -112.7700
9.101873 95.223 -113.1213
9.167829 95.270 -113.4734
9.234263 95.317 -113.8268
9.301178 95.364 -114.1821
9.368578 95.412 -114.5398
9.436467 95.460 -114.9005
9.504847 95.508 -115.2645
9.573723 95.556 -115.6321
9.643099 95.603 -116.0033
9.712976 95.649 -116.3776
9.783361 95.693 -116.7548
9.854255 95.734 -117.1342
9.925663 95.773 -117.5154
9.997588 95.808 -117.8978
10.070035 95.840 -118.2809
10.143007 95.870 -118.6637
10.216507 95.897 -119.0455
10.290540 95.922 -119.4258
10.365109 95.945 -119.8037
10.440219 95.967 -120.1792
10.515873 95.987 -120.5516
10.592076 96.006 -120.9207
10.668830 96.024 -121.2863
10.746141 96.042 -121.6484
10.824012 96.059 -122.0070
10.902447 96.076 -122.3624
10.981451 96.093 -122.7149
11.061027 96.109 -123.0647
11.141180 96.125 -123.4120
11.221913 96.141 -123.7573
11.303232 96.156 -124.1008
11.385140 96.171 -124.4427
11.467641 96.186 -124.7834
11.550741 96.201 -125.1229
11.634442 96.215 -125.4611
11.718750 96.229 -125.7980
11.803669 96.243 -126.1335
11.889203 96.257 -126.4675
11.975357 96.271 -126.7997
12.062136 96.285 -127.1301
12.149543 96.299 -127.4584
12.237583 96.313 -127.7847
12.326262 96.327 -128.1089
12.415583 96.341 -128.4313
12.505552 96.354 -128.7520
12.596172 96.368 -129.0717
12.687449 96.382 -129.3908
12.779387 96.396 -129.7101
12.871992 96.410 -130.0305
12.965268 96.424 -130.3527
13.059220 96.439 -130.6776
13.153852 96.454 -131.0061
13.249170 96.469 -131.3389
13.345179 96.485 -131.6764
13.441884 96.500 -132.0192
13.539289 96.515 -132.3673
13.637401 96.530 -132.7208
13.736223 96.545 -133.0793
13.835761 96.559 -133.4422
13.936021 96.572 -133.8088
14.037007 96.584 -134.1784
14.138725 96.595 -134.5498
14.241180 96.605 -134.9222
14.344377 96.614 -135.2944
14.448323 96.622 -135.6659
14.553021 96.629 -136.0358
14.658478 96.636 -136.4037
14.764700 96.643 -136.7693
14.871691 96.649 -137.1329
14.979457 96.656 -137.4944
15.088005 96.663 -137.8546
15.197339 96.670 -138.2138
15.307465 96.677 -138.5729
15.418389 96.685 -138.9326
15.530117 96.693 -139.2933
15.642655 96.701 -139.6558
15.756008 96.710 -140.0202
15.870182 96.718 -140.3867
15.985184 96.726 -140.7552
16.101019 96.734 -141.1253
16.217694 96.741 -141.4966
16.335214 96.748 -141.8683
16.453586 96.755 -142.2399
16.572815 96.762 -142.6107
16.692909 96.769 -142.9799
16.813872 96.776 -143.3473
16.935713 96.783 -143.7123
17.058436 96.791 -144.0751
17.182048 96.798 -144.4355
17.306556 96.807 -144.7938
17.431967 96.815 -145.1504
17.558286 96.824 -145.5056
17.685521 96.832 -145.8597
17.813677 96.841 -146.2132
17.942762 96.850 -146.5662
18.072783 96.859 -146.9187
18.203746 96.867 -147.2708
18.335658 96.876 -147.6224
18.468526 96.884 -147.9730
18.602356 96.892 -148.3226
18.737156 96.899 -148.6707
18.872934 96.907 -149.0170
19.009695 96.915 -149.3615
19.147447 96.922 -149.7039
19.286197 96.929 -150.0441
19.425953 96.936 -150.3823
19.566721 96.943 -150.7184
19.708510 96.949 -151.0526
19.851326 96.955 -151.3849
19.995177 96.960 -151.7155
20.140070 96.965 -152.0443
20.286013 96.970 -152.3714
20.433014 96.974 -152.6968
20.581080 96.978 -153.0208
20.730219 96.981 -153.3432
20.880439 96.984 -153.6645
21.031747 96.987 -153.9849
21.184152 96.990 -154.3048
21.337661 96.992 -154.6246
21.492282 96.995 -154.9445
21.648024 96.997 -155.2649
21.804895 96.999 -155.5858
21.962902 97.000 -155.9072
22.122054 97.001 -156.2288
22.282360 97.001 -156.5503
22.443827 97.001 -156.8713
22.606464 97.000 -157.1913
22.770280 96.999 -157.5099
22.935283 96.998 -157.8271
23.101481 96.996 -158.1428
23.268884 96.994 -158.4572
23.437500 96.993 -158.7708
23.607338 96.991 -159.0843
23.778406 96.989 -159.3983
23.950714 96.988 -159.7136
24.124271 96.986 -160.0308
24.299086 96.985 -160.3504
24.475167 96.983 -160.6726
24.652524 96.982 -160.9974
24.831166 96.980 -161.3247
25.011103 96.978 -161.6541
25.192344 96.975 -161.9847
25.374898 96.972 -162.3162
25.558775 96.969 -162.6475
25.743984 96.965 -162.9779
25.930536 96.961 -163.3066
26.118439 96.957 -163.6331
26.307704 96.952 -163.9567
26.498341 96.948 -164.2772
26.690359 96.943 -164.5945
26.883768 96.938 -164.9089
27.078579 96.933 -165.2207
27.274801 96.928 -165.5304
27.472446 96.923 -165.8383
27.671522 96.917 -166.1447
27.872042 96.912 -166.4498
28.074014 96.906 -166.7534
28.277450 96.899 -167.0554
28.482360 96.892 -167.3551
28.688755 96.885 -167.6525
28.896645 96.877 -167.9471
29.106042 96.869 -168.2391
29.316957 96.861 -168.5287
29.529400 96.853 -168.8163
29.743382 96.844 -169.1027
29.958915 96.836 -169.3883
30.176009 96.827 -169.6737
30.394677 96.819 -169.9594
30.614929 96.810 -170.2455
30.836778 96.801 -170.5320
31.060234 96.792 -170.8190
31.285309 96.783 -171.1061
31.512015 96.773 -171.3934
31.740364 96.763 -171.6808
31.970368 96.753 -171.9680
32.202039 96.743 -172.2552
32.435388 96.732 -172.5425
32.670428 96.722 -172.8297
32.907171 96.711 -173.1170
33.145630 96.700 -173.4045
33.385817 96.690 -173.6923
33.627745 96.679 -173.9802
33.871425 96.668 -174.2681
34.116871 96.657 -174.5558
34.364096 96.646 -174.8427
34.613113 96.635 -175.1285
34.863934 96.623 -175.4128
35.116572 96.611 -175.6953
35.371041 96.600 -175.9761
35.627354 96.588 -176.2554
35.885525 96.575 -176.5336
36.145566 96.563 -176.8109
36.407492 96.550 -177.0876
36.671316 96.538 -177.3639
36.937051 96.524 -177.6396
37.204712 96.510 -177.9145
37.474313 96.496 -178.1882
37.745867 96.481 -178.4605
38.019389 96.465 -178.7310
38.294893 96.449 -178.9992
38.572394 96.433 -179.2652
38.851905 96.416 -179.5289
39.133442 96.399 -179.7903
39.417019 96.382 179.9503
39.702651 96.364 179.6927
39.990353 96.347 179.4370
40.280140 96.329 179.1830
40.572026 96.311 178.9307
40.866028 96.294 178.6802
41.162160 96.276 178.4311
41.460438 96.259 178.1827
41.760877 96.241 177.9343
42.063494 96.224 177.6849
42.368303 96.207 177.4343
42.675322 96.189 177.1833
42.984565 96.170 176.9332
43.296048 96.151 176.6859
43.609789 96.131 176.4426
43.925804 96.112 176.2039
44.244108 96.092 175.9688
44.564719 96.072 175.7355
44.887654 96.052 175.5024
45.212928 96.032 175.2690
45.540560 96.010 175.0363
45.870565 95.989 174.8066
46.202962 95.966 174.5823
46.537768 95.944 174.3638
46.875000 95.922 174.1495
47.214676 95.900 173.9358
47.556813 95.880 173.7182
47.901429 95.859 173.4940
48.248542 95.839 173.2634
48.598171 95.817 173.0287
48.950334 95.794 172.7941
49.305048 95.770 172.5629
49.662333 95.746 172.3367
50.022206 95.722 172.1152
50.384688 95.698 171.8972
50.749796 95.674 171.6817
51.117550 95.650 171.4686
51.487969 95.627 171.2586
51.861072 95.603 171.0522
52.236879 95.580 170.8495
52.615409 95.557 170.6503
52.996681 95.535 170.4539
53.380717 95.513 170.2598
53.767536 95.491 170.0679
54.157158 95.470 169.8781
54.549603 95.449 169.6899
54.944892 95.428 169.5028
55.343045 95.407 169.3158
55.744084 95.386 169.1284
56.148028 95.365 168.9402
56.554900 95.344 168.7512
56.964720 95.323 168.5610
57.377510 95.301 168.3693
57.793291 95.279 168.1755
58.212085 95.256 167.9795
58.633914 95.232 167.7817
59.058799 95.207 167.5835
59.486764 95.182 167.3864
59.917829 95.155 167.1920
60.352019 95.128 167.0011
60.789354 95.100 166.8138
61.229859 95.072 166.6301
61.673556 95.044 166.4493
62.120468 95.016 166.2708
62.570618 94.988 166.0942
63.024031 94.960 165.9198
63.480729 94.932 165.7479
63.940736 94.904 165.5787
64.404077 94.876 165.4122
64.870776 94.848 165.2476
65.340856 94.821 165.0833
65.814343 94.794 164.9186
66.291261 94.766 164.7528
66.771635 94.739 164.5864
67.255489 94.710 164.4205
67.742850 94.681 164.2575
68.233743 94.651 164.1004
