* Measurement data measured by REW V5.31
* Source: EXCL: Microphone (USB Sound Device        ), MICROPHONE (Master Volume), L, volume: 0.390
* Format: 256k Log Swept Sine, 1 sweep at -4.0 dBFS with no timing reference
* Dated: Aug 10, 2024 7:27:36 PM
* REW Settings:
*  C-weighting compensation: Off
*  Target level: 75.0 dB
* Note: DaVinci 18ohm
* Measurement: L DaVinci 18ohm
* Smoothing: 1/12 octave
* Frequency Step: 96 ppo
* Start Frequency: 0.36621094 Hz
*
* Freq(Hz) SPL(dB) Phase(degrees)
0.366211 80.728 167.1976
0.368865 80.721 167.1843
0.371538 80.710 167.1643
0.374230 80.698 167.1392
0.376942 80.683 167.1102
0.379673 80.668 167.0783
0.382424 80.652 167.0441
0.385196 80.635 167.0079
0.387987 80.618 166.9701
0.390798 80.601 166.9306
0.393630 80.584 166.8896
0.396483 80.566 166.8472
0.399356 80.549 166.8032
0.402250 80.531 166.7576
0.405165 80.513 166.7106
0.408101 80.495 166.6620
0.411058 80.477 166.6119
0.414037 80.459 166.5602
0.417037 80.440 166.5070
0.420059 80.422 166.4521
0.423103 80.403 166.3957
0.426169 80.384 166.3376
0.429257 80.365 166.2779
0.432368 80.346 166.2166
0.435501 80.327 166.1536
0.438656 80.308 166.0889
0.441835 80.288 166.0226
0.445037 80.269 165.9546
0.448262 80.249 165.8848
0.451510 80.229 165.8134
0.454782 80.209 165.7402
0.458077 80.189 165.6653
0.461397 80.169 165.5886
0.464740 80.148 165.5102
0.468108 80.128 165.4300
0.471500 80.107 165.3481
0.474917 80.086 165.2644
0.478358 80.065 165.1788
0.481825 80.044 165.0915
0.485316 80.022 165.0024
0.488833 80.001 164.9115
0.492375 79.979 164.8187
0.495943 79.957 164.7242
0.499537 79.935 164.6278
0.503157 79.913 164.5296
0.506803 79.891 164.4296
0.510475 79.868 164.3278
0.514175 79.845 164.2241
0.517900 79.823 164.1186
0.521653 79.800 164.0113
0.525434 79.777 163.9022
0.529241 79.753 163.7913
0.533076 79.730 163.6786
0.536939 79.706 163.5641
0.540830 79.682 163.4478
0.544749 79.658 163.3297
0.548696 79.634 163.2099
0.552673 79.610 163.0883
0.556677 79.585 162.9650
0.560711 79.561 162.8400
0.564774 79.536 162.7133
0.568867 79.511 162.5849
0.572989 79.485 162.4549
0.577141 79.460 162.3232
0.581324 79.434 162.1900
0.585536 79.408 162.0552
0.589779 79.383 161.9189
0.594053 79.356 161.7811
0.598358 79.330 161.6419
0.602694 79.303 161.5013
0.607061 79.277 161.3593
0.611460 79.250 161.2160
0.615891 79.223 161.0715
0.620354 79.195 160.9257
0.624849 79.168 160.7789
0.629377 79.140 160.6310
0.633938 79.112 160.4820
0.638532 79.084 160.3322
0.643159 79.056 160.1815
0.647819 79.027 160.0301
0.652514 78.998 159.8780
0.657242 78.969 159.7253
0.662005 78.940 159.5722
0.666802 78.911 159.4187
0.671634 78.881 159.2650
0.676501 78.851 159.1111
0.681403 78.821 158.9572
0.686341 78.791 158.8035
0.691314 78.761 158.6500
0.696324 78.730 158.4969
0.701370 78.699 158.3444
0.706452 78.667 158.1924
0.711571 78.634 158.0412
0.716728 78.601 157.8905
0.721921 78.566 157.7403
0.727153 78.529 157.5903
0.732422 78.489 157.4398
0.737729 78.446 157.2882
0.743075 78.402 157.1348
0.748460 78.356 156.9789
0.753883 78.309 156.8199
0.759346 78.263 156.6576
0.764849 78.217 156.4916
0.770391 78.171 156.3219
0.775974 78.127 156.1483
0.781597 78.083 155.9707
0.787261 78.040 155.7890
0.792966 77.997 155.6033
0.798712 77.955 155.4134
0.804500 77.914 155.2193
0.810329 77.872 155.0209
0.816201 77.831 154.8183
0.822116 77.790 154.6114
0.828073 77.748 154.4001
0.834074 77.706 154.1844
0.840118 77.664 153.9644
0.846206 77.621 153.7398
0.852338 77.576 153.5108
0.858514 77.531 153.2774
0.864735 77.485 153.0394
0.871001 77.437 152.7968
0.877313 77.387 152.5498
0.883670 77.335 152.2982
0.890074 77.281 152.0421
0.896524 77.224 151.7815
0.903020 77.165 151.5164
0.909564 77.102 151.2468
0.916155 77.037 150.9727
0.922794 76.968 150.6943
0.929481 76.895 150.4116
0.936216 76.817 150.1246
0.943000 76.736 149.8335
0.949834 76.649 149.5383
0.956717 76.558 149.2392
0.963649 76.460 148.9362
0.970632 76.357 148.6296
0.977666 76.248 148.3195
0.984750 76.132 148.0062
0.991886 76.009 147.6899
0.999074 75.879 147.3708
1.006314 75.741 147.0493
1.013606 75.594 146.7256
1.020951 75.439 146.4002
1.028349 75.275 146.0735
1.035801 75.100 145.7459
1.043307 74.916 145.4180
1.050867 74.720 145.0903
1.058482 74.514 144.7633
1.066152 74.295 144.4376
1.073878 74.062 144.1136
1.081660 73.815 143.7917
1.089498 73.552 143.4718
1.097393 73.270 143.1537
1.105345 72.967 142.8366
1.113355 72.640 142.5196
1.121423 72.286 142.2015
1.129549 71.905 141.8816
1.137734 71.495 141.5589
1.145979 71.056 141.2327
1.154283 70.590 140.9024
1.162647 70.096 140.5672
1.171072 69.576 140.2265
1.179558 69.031 139.8795
1.188106 68.461 139.5255
1.196715 67.870 139.1633
1.205387 67.258 138.7921
1.214122 66.626 138.4105
1.222920 65.978 138.0171
1.231782 65.313 137.6102
1.240708 64.636 137.1879
1.249699 63.947 136.7478
1.258754 63.249 136.2871
1.267876 62.544 135.8024
1.277063 61.835 135.2894
1.286318 61.125 134.7429
1.295639 60.416 134.1565
1.305027 59.711 133.5218
1.314484 59.014 132.8282
1.324009 58.328 132.0614
1.333604 57.657 131.2025
1.343268 57.005 130.2253
1.353002 56.375 129.0929
1.362806 55.773 127.7512
1.372681 55.203 126.1179
1.382628 54.671 124.0622
1.392647 54.181 121.3631
1.402739 53.741 117.6199
1.412904 53.356 112.0392
1.423142 53.033 102.8842
1.433455 52.779 86.1390
1.443843 52.601 55.4816
1.454305 52.504 19.0291
1.464844 52.494 -4.1525
1.475459 52.574 -16.4405
1.486150 52.746 -23.5385
1.496920 53.007 -28.1037
1.507767 53.356 -31.2988
1.518693 53.789 -33.6820
1.529698 54.301 -35.5484
1.540783 54.886 -37.0668
1.551948 55.539 -38.3407
1.563194 56.253 -39.4365
1.574521 57.022 -40.3989
1.585931 57.839 -41.2592
1.597423 58.699 -42.0396
1.608999 59.595 -42.7567
1.620658 60.520 -43.4229
1.632402 61.467 -44.0477
1.644232 62.430 -44.6386
1.656146 63.403 -45.2016
1.668147 64.379 -45.7415
1.680235 65.351 -46.2620
1.692411 66.313 -46.7666
1.704675 67.259 -47.2578
1.717028 68.183 -47.7381
1.729470 69.079 -48.2093
1.742003 69.940 -48.6733
1.754626 70.762 -49.1315
1.767341 71.540 -49.5852
1.780147 72.269 -50.0359
1.793047 72.946 -50.4847
1.806040 73.571 -50.9327
1.819128 74.145 -51.3812
1.832310 74.669 -51.8312
1.845587 75.148 -52.2835
1.858961 75.587 -52.7387
1.872432 75.991 -53.1968
1.886001 76.363 -53.6577
1.899667 76.705 -54.1207
1.913433 77.019 -54.5854
1.927299 77.307 -55.0511
1.941265 77.571 -55.5172
1.955332 77.813 -55.9830
1.969501 78.034 -56.4480
1.983773 78.237 -56.9118
1.998148 78.422 -57.3739
2.012627 78.593 -57.8340
2.027212 78.750 -58.2916
2.041902 78.898 -58.7467
2.056698 79.037 -59.1988
2.071602 79.170 -59.6479
2.086614 79.300 -60.0937
2.101734 79.430 -60.5364
2.116964 79.562 -60.9758
2.132304 79.698 -61.4123
2.147756 79.840 -61.8460
2.163320 79.989 -62.2778
2.178996 80.145 -62.7084
2.194786 80.308 -63.1391
2.210690 80.475 -63.5712
2.226710 80.644 -64.0061
2.242845 80.811 -64.4446
2.259098 80.976 -64.8869
2.275468 81.138 -65.3329
2.291957 81.295 -65.7823
2.308566 81.449 -66.2345
2.325295 81.598 -66.6887
2.342145 81.743 -67.1443
2.359117 81.884 -67.6004
2.376212 82.022 -68.0565
2.393431 82.157 -68.5117
2.410775 82.288 -68.9655
2.428244 82.418 -69.4171
2.445840 82.545 -69.8661
2.463564 82.671 -70.3119
2.481416 82.795 -70.7543
2.499397 82.918 -71.1930
2.517509 83.040 -71.6281
2.535752 83.161 -72.0602
2.554127 83.281 -72.4901
2.572635 83.400 -72.9190
2.591277 83.517 -73.3482
2.610055 83.632 -73.7789
2.628968 83.744 -74.2116
2.648019 83.854 -74.6466
2.667208 83.961 -75.0837
2.686535 84.065 -75.5224
2.706003 84.167 -75.9621
2.725612 84.267 -76.4020
2.745363 84.364 -76.8416
2.765257 84.460 -77.2799
2.785295 84.553 -77.7161
2.805478 84.645 -78.1496
2.825808 84.736 -78.5797
2.846285 84.825 -79.0057
2.866910 84.913 -79.4274
2.887685 85.000 -79.8446
2.908611 85.086 -80.2577
2.929688 85.170 -80.6673
2.950917 85.253 -81.0744
2.972301 85.334 -81.4802
2.993839 85.414 -81.8853
3.015534 85.491 -82.2901
3.037386 85.567 -82.6946
3.059396 85.640 -83.0986
3.081565 85.712 -83.5015
3.103896 85.782 -83.9028
3.126388 85.851 -84.3017
3.149043 85.919 -84.6976
3.171862 85.985 -85.0897
3.194847 86.050 -85.4772
3.217998 86.114 -85.8597
3.241317 86.178 -86.2366
3.264805 86.240 -86.6078
3.288463 86.302 -86.9732
3.312293 86.362 -87.3335
3.336295 86.422 -87.6890
3.360471 86.480 -88.0404
3.384822 86.537 -88.3882
3.409350 86.593 -88.7327
3.434056 86.647 -89.0740
3.458940 86.700 -89.4122
3.484005 86.753 -89.7472
3.509252 86.804 -90.0788
3.534681 86.855 -90.4069
3.560295 86.905 -90.7314
3.586094 86.955 -91.0519
3.612081 87.004 -91.3684
3.638255 87.053 -91.6807
3.664620 87.102 -91.9886
3.691175 87.150 -92.2922
3.717923 87.198 -92.5917
3.744864 87.245 -92.8873
3.772001 87.292 -93.1793
3.799335 87.338 -93.4680
3.826866 87.384 -93.7539
3.854597 87.429 -94.0374
3.882529 87.474 -94.3187
3.910664 87.518 -94.5982
3.939002 87.563 -94.8762
3.967546 87.607 -95.1528
3.996296 87.652 -95.4280
4.025255 87.697 -95.7019
4.054423 87.741 -95.9742
4.083804 87.786 -96.2449
4.113396 87.831 -96.5141
4.143204 87.875 -96.7820
4.173227 87.920 -97.0492
4.203468 87.964 -97.3160
4.233928 88.008 -97.5833
4.264609 88.053 -97.8517
4.295512 88.097 -98.1217
4.326639 88.141 -98.3940
4.357992 88.185 -98.6688
4.389572 88.230 -98.9464
4.421380 88.274 -99.2268
4.453419 88.318 -99.5100
4.485691 88.362 -99.7958
4.518196 88.406 -100.0843
4.550936 88.451 -100.3756
4.583914 88.494 -100.6700
4.617131 88.538 -100.9677
4.650589 88.581 -101.2690
4.684289 88.624 -101.5743
4.718233 88.667 -101.8839
4.752424 88.709 -102.1980
4.786862 88.751 -102.5168
4.821549 88.793 -102.8405
4.856488 88.834 -103.1688
4.891680 88.874 -103.5016
4.927127 88.914 -103.8386
4.962831 88.954 -104.1795
4.998794 88.993 -104.5240
5.035017 89.031 -104.8719
5.071503 89.068 -105.2232
5.108253 89.105 -105.5778
5.145270 89.141 -105.9359
5.182555 89.176 -106.2976
5.220110 89.210 -106.6629
5.257937 89.244 -107.0316
5.296038 89.277 -107.4031
5.334415 89.309 -107.7768
5.373071 89.340 -108.1522
5.412006 89.370 -108.5285
5.451224 89.400 -108.9054
5.490725 89.429 -109.2828
5.530514 89.457 -109.6605
5.570590 89.484 -110.0387
5.610957 89.510 -110.4173
5.651616 89.536 -110.7961
5.692570 89.561 -111.1746
5.733821 89.585 -111.5523
5.775370 89.609 -111.9287
5.817221 89.633 -112.3033
5.859375 89.656 -112.6759
5.901834 89.679 -113.0464
5.944602 89.701 -113.4147
5.987679 89.723 -113.7812
6.031068 89.745 -114.1457
6.074771 89.767 -114.5084
6.118792 89.789 -114.8693
6.163131 89.811 -115.2284
6.207792 89.833 -115.5855
6.252776 89.855 -115.9407
6.298086 89.878 -116.2940
6.343725 89.900 -116.6455
6.389694 89.924 -116.9958
6.435996 89.947 -117.3452
6.482634 89.971 -117.6942
6.529610 89.995 -118.0433
6.576926 90.020 -118.3926
6.624585 90.046 -118.7425
6.672590 90.072 -119.0930
6.720942 90.098 -119.4444
6.769645 90.125 -119.7971
6.818700 90.153 -120.1514
6.868111 90.181 -120.5078
6.917881 90.209 -120.8669
6.968010 90.238 -121.2287
7.018504 90.267 -121.5936
7.069362 90.297 -121.9615
7.120590 90.327 -122.3324
7.172189 90.357 -122.7062
7.224161 90.387 -123.0830
7.276511 90.417 -123.4627
7.329239 90.447 -123.8454
7.382350 90.478 -124.2310
7.435845 90.508 -124.6192
7.489729 90.538 -125.0098
7.544002 90.568 -125.4021
7.598669 90.597 -125.7958
7.653732 90.627 -126.1903
7.709194 90.656 -126.5853
7.765058 90.684 -126.9804
7.821327 90.713 -127.3754
7.878004 90.741 -127.7697
7.935091 90.769 -128.1626
7.992592 90.796 -128.5536
8.050510 90.823 -128.9421
8.108847 90.850 -129.3278
8.167607 90.877 -129.7104
8.226793 90.903 -130.0896
8.286408 90.930 -130.4652
8.346454 90.956 -130.8369
8.406936 90.983 -131.2045
8.467856 91.009 -131.5677
8.529218 91.036 -131.9266
8.591024 91.063 -132.2812
8.653278 91.090 -132.6317
8.715983 91.117 -132.9783
8.779143 91.144 -133.3211
8.842760 91.172 -133.6603
8.906839 91.200 -133.9962
8.971381 91.228 -134.3289
9.036392 91.257 -134.6588
9.101873 91.286 -134.9863
9.167829 91.315 -135.3117
9.234263 91.344 -135.6352
9.301178 91.374 -135.9569
9.368578 91.403 -136.2770
9.436467 91.433 -136.5956
9.504847 91.462 -136.9129
9.573723 91.491 -137.2289
9.643099 91.519 -137.5435
9.712976 91.546 -137.8566
9.783361 91.572 -138.1681
9.854255 91.595 -138.4777
9.925663 91.616 -138.7853
9.997588 91.634 -139.0906
10.070035 91.649 -139.3935
10.143007 91.662 -139.6936
10.216507 91.673 -139.9907
10.290540 91.682 -140.2845
10.365109 91.689 -140.5750
10.440219 91.695 -140.8620
10.515873 91.700 -141.1455
10.592076 91.704 -141.4255
10.668830 91.708 -141.7020
10.746141 91.711 -141.9751
10.824012 91.714 -142.2450
10.902447 91.717 -142.5120
10.981451 91.719 -142.7765
11.061027 91.721 -143.0386
11.141180 91.723 -143.2987
11.221913 91.724 -143.5571
11.303232 91.726 -143.8143
11.385140 91.726 -144.0705
11.467641 91.727 -144.3259
11.550741 91.727 -144.5808
11.634442 91.727 -144.8353
11.718750 91.726 -145.0896
11.803669 91.726 -145.3436
11.889203 91.725 -145.5975
11.975357 91.724 -145.8510
12.062136 91.723 -146.1042
12.149543 91.721 -146.3569
12.237583 91.719 -146.6089
12.326262 91.717 -146.8602
12.415583 91.715 -147.1107
12.505552 91.711 -147.3604
12.596172 91.708 -147.6091
12.687449 91.704 -147.8570
12.779387 91.699 -148.1043
12.871992 91.694 -148.3511
12.965268 91.689 -148.5977
13.059220 91.684 -148.8443
13.153852 91.679 -149.0915
13.249170 91.674 -149.3395
13.345179 91.670 -149.5888
13.441884 91.665 -149.8396
13.539289 91.661 -150.0924
13.637401 91.657 -150.3474
13.736223 91.653 -150.6049
13.835761 91.649 -150.8649
13.936021 91.645 -151.1276
14.037007 91.641 -151.3929
14.138725 91.636 -151.6607
14.241180 91.632 -151.9309
14.344377 91.627 -152.2033
14.448323 91.622 -152.4776
14.553021 91.617 -152.7536
14.658478 91.611 -153.0311
14.764700 91.606 -153.3099
14.871691 91.601 -153.5898
14.979457 91.596 -153.8706
15.088005 91.591 -154.1522
15.197339 91.587 -154.4346
15.307465 91.583 -154.7177
15.418389 91.579 -155.0015
15.530117 91.576 -155.2858
15.642655 91.573 -155.5708
15.756008 91.570 -155.8562
15.870182 91.567 -156.1419
15.985184 91.565 -156.4278
16.101019 91.563 -156.7138
16.217694 91.561 -156.9995
16.335214 91.560 -157.2849
16.453586 91.559 -157.5696
16.572815 91.558 -157.8534
16.692909 91.558 -158.1363
16.813872 91.559 -158.4179
16.935713 91.560 -158.6983
17.058436 91.562 -158.9773
17.182048 91.564 -159.2549
17.306556 91.567 -159.5311
17.431967 91.570 -159.8057
17.558286 91.573 -160.0786
17.685521 91.576 -160.3498
17.813677 91.580 -160.6190
17.942762 91.583 -160.8859
18.072783 91.586 -161.1502
18.203746 91.588 -161.4116
18.335658 91.591 -161.6697
18.468526 91.593 -161.9240
18.602356 91.595 -162.1745
18.737156 91.598 -162.4207
18.872934 91.600 -162.6626
19.009695 91.602 -162.9002
19.147447 91.604 -163.1337
19.286197 91.606 -163.3634
19.425953 91.608 -163.5897
19.566721 91.610 -163.8129
19.708510 91.612 -164.0337
19.851326 91.614 -164.2525
19.995177 91.615 -164.4697
20.140070 91.616 -164.6858
20.286013 91.616 -164.9009
20.433014 91.616 -165.1154
20.581080 91.616 -165.3294
20.730219 91.615 -165.5430
20.880439 91.613 -165.7562
21.031747 91.611 -165.9693
21.184152 91.609 -166.1823
21.337661 91.607 -166.3955
21.492282 91.605 -166.6092
21.648024 91.602 -166.8237
21.804895 91.600 -167.0394
21.962902 91.597 -167.2567
22.122054 91.594 -167.4759
22.282360 91.591 -167.6975
22.443827 91.587 -167.9217
22.606464 91.584 -168.1487
22.770280 91.580 -168.3785
22.935283 91.575 -168.6111
23.101481 91.571 -168.8464
23.268884 91.566 -169.0840
23.437500 91.561 -169.3237
23.607338 91.556 -169.5650
23.778406 91.550 -169.8075
23.950714 91.544 -170.0507
24.124271 91.539 -170.2943
24.299086 91.533 -170.5379
24.475167 91.527 -170.7812
24.652524 91.521 -171.0242
24.831166 91.516 -171.2667
25.011103 91.511 -171.5088
25.192344 91.507 -171.7506
25.374898 91.503 -171.9922
25.558775 91.499 -172.2335
25.743984 91.496 -172.4745
25.930536 91.493 -172.7149
26.118439 91.490 -172.9545
26.307704 91.487 -173.1927
26.498341 91.483 -173.4291
26.690359 91.480 -173.6629
26.883768 91.477 -173.8939
27.078579 91.474 -174.1216
27.274801 91.470 -174.3458
27.472446 91.467 -174.5666
27.671522 91.463 -174.7843
27.872042 91.459 -174.9990
28.074014 91.456 -175.2114
28.277450 91.451 -175.4219
28.482360 91.447 -175.6309
28.688755 91.442 -175.8388
28.896645 91.437 -176.0457
29.106042 91.431 -176.2518
29.316957 91.425 -176.4570
29.529400 91.419 -176.6613
29.743382 91.412 -176.8649
29.958915 91.404 -177.0677
30.176009 91.397 -177.2701
30.394677 91.389 -177.4727
30.614929 91.382 -177.6760
30.836778 91.374 -177.8809
31.060234 91.366 -178.0881
31.285309 91.359 -178.2983
31.512015 91.351 -178.5118
31.740364 91.343 -178.7287
31.970368 91.334 -178.9487
32.202039 91.326 -179.1712
32.435388 91.317 -179.3954
32.670428 91.308 -179.6208
32.907171 91.298 -179.8470
33.145630 91.289 179.9263
33.385817 91.280 179.6990
33.627745 91.272 179.4711
33.871425 91.263 179.2424
34.116871 91.254 179.0131
34.364096 91.246 178.7838
34.613113 91.237 178.5551
34.863934 91.228 178.3279
35.116572 91.219 178.1028
35.371041 91.211 177.8800
35.627354 91.202 177.6595
35.885525 91.193 177.4408
36.145566 91.183 177.2234
36.407492 91.174 177.0074
36.671316 91.164 176.7927
36.937051 91.154 176.5804
37.204712 91.143 176.3712
37.474313 91.132 176.1659
37.745867 91.121 175.9648
38.019389 91.109 175.7672
38.294893 91.098 175.5716
38.572394 91.087 175.3762
38.851905 91.077 175.1790
39.133442 91.066 174.9790
39.417019 91.055 174.7755
39.702651 91.044 174.5691
39.990353 91.031 174.3608
40.280140 91.019 174.1517
40.572026 91.006 173.9427
40.866028 90.993 173.7340
41.162160 90.980 173.5255
41.460438 90.966 173.3167
41.760877 90.953 173.1072
42.063494 90.940 172.8970
42.368303 90.926 172.6861
42.675322 90.912 172.4751
42.984565 90.898 172.2644
43.296048 90.884 172.0543
43.609789 90.869 171.8448
43.925804 90.854 171.6360
44.244108 90.839 171.4279
44.564719 90.824 171.2208
44.887654 90.808 171.0150
45.212928 90.792 170.8109
45.540560 90.776 170.6086
45.870565 90.760 170.4075
46.202962 90.744 170.2071
46.537768 90.727 170.0065
46.875000 90.711 169.8052
47.214676 90.694 169.6035
47.556813 90.676 169.4019
47.901429 90.659 169.2017
48.248542 90.641 169.0034
48.598171 90.623 168.8073
48.950334 90.605 168.6126
49.305048 90.587 168.4183
49.662333 90.570 168.2233
50.022206 90.552 168.0270
50.384688 90.535 167.8295
50.749796 90.517 167.6314
51.117550 90.498 167.4333
51.487969 90.480 167.2360
51.861072 90.461 167.0399
52.236879 90.442 166.8458
52.615409 90.423 166.6541
52.996681 90.404 166.4648
53.380717 90.385 166.2780
53.767536 90.366 166.0928
54.157158 90.348 165.9087
54.549603 90.330 165.7250
54.944892 90.313 165.5408
55.343045 90.296 165.3553
55.744084 90.279 165.1674
56.148028 90.262 164.9762
56.554900 90.245 164.7812
56.964720 90.228 164.5830
57.377510 90.210 164.3831
57.793291 90.191 164.1827
58.212085 90.172 163.9824
58.633914 90.152 163.7820
59.058799 90.132 163.5809
59.486764 90.111 163.3789
59.917829 90.089 163.1766
60.352019 90.065 162.9751
60.789354 90.041 162.7756
61.229859 90.016 162.5786
61.673556 89.991 162.3839
62.120468 89.965 162.1906
62.570618 89.938 161.9980
63.024031 89.912 161.8055
63.480729 89.886 161.6129
63.940736 89.859 161.4203
64.404077 89.832 161.2281
64.870776 89.805 161.0366
65.340856 89.778 160.8459
65.814343 89.750 160.6562
66.291261 89.723 160.4681
66.771635 89.695 160.2822
67.255489 89.667 160.0993
67.742850 89.638 159.9196
68.233743 89.610 159.7432
68.728193 89.581 159.5694
69.226226 89.552 159.3977
69.727867 89.523 159.2276
