* Measurement data measured by REW V5.31
* Source: EXCL: Microphone (USB Sound Device        ), MICROPHONE (Master Volume), L, volume: 0.250
* Format: 256k Log Swept Sine, 1 sweep at -5.0 dBFS with no timing reference
* Dated: Jun 18, 2024 7:28:14 PM
* REW Settings:
*  C-weighting compensation: Off
*  Target level: 75.0 dB
* Note: Dunu Titan S2
* Measurement: L Dunu Titan S2
* Smoothing: 1/12 octave
* Frequency Step: 96 ppo
* Start Frequency: 0.36621094 Hz
*
* Freq(Hz) SPL(dB) Phase(degrees)
0.366211 79.033 176.4254
0.368865 79.031 176.4148
0.371538 79.029 176.3991
0.374230 79.026 176.3794
0.376942 79.022 176.3569
0.379673 79.019 176.3324
0.382424 79.015 176.3064
0.385196 79.011 176.2792
0.387987 79.007 176.2511
0.390798 79.003 176.2220
0.393630 78.999 176.1921
0.396483 78.995 176.1614
0.399356 78.991 176.1299
0.402250 78.987 176.0975
0.405165 78.983 176.0644
0.408101 78.978 176.0304
0.411058 78.974 175.9956
0.414037 78.970 175.9600
0.417037 78.966 175.9235
0.420059 78.961 175.8861
0.423103 78.957 175.8479
0.426169 78.953 175.8088
0.429257 78.948 175.7688
0.432368 78.944 175.7280
0.435501 78.939 175.6862
0.438656 78.935 175.6435
0.441835 78.930 175.5999
0.445037 78.926 175.5553
0.448262 78.921 175.5098
0.451510 78.916 175.4634
0.454782 78.912 175.4160
0.458077 78.907 175.3676
0.461397 78.902 175.3183
0.464740 78.897 175.2679
0.468108 78.893 175.2166
0.471500 78.888 175.1642
0.474917 78.883 175.1109
0.478358 78.878 175.0565
0.481825 78.873 175.0011
0.485316 78.868 174.9446
0.488833 78.863 174.8871
0.492375 78.858 174.8285
0.495943 78.853 174.7689
0.499537 78.848 174.7082
0.503157 78.842 174.6463
0.506803 78.837 174.5834
0.510475 78.832 174.5194
0.514175 78.827 174.4543
0.517900 78.821 174.3880
0.521653 78.816 174.3206
0.525434 78.811 174.2521
0.529241 78.805 174.1824
0.533076 78.800 174.1115
0.536939 78.794 174.0395
0.540830 78.789 173.9663
0.544749 78.783 173.8919
0.548696 78.777 173.8163
0.552673 78.772 173.7395
0.556677 78.766 173.6614
0.560711 78.760 173.5822
0.564774 78.754 173.5017
0.568867 78.749 173.4200
0.572989 78.743 173.3370
0.577141 78.737 173.2527
0.581324 78.731 173.1672
0.585536 78.725 173.0804
0.589779 78.719 172.9923
0.594053 78.713 172.9030
0.598358 78.706 172.8123
0.602694 78.700 172.7202
0.607061 78.694 172.6269
0.611460 78.688 172.5322
0.615891 78.681 172.4361
0.620354 78.675 172.3387
0.624849 78.669 172.2400
0.629377 78.662 172.1398
0.633938 78.656 172.0383
0.638532 78.649 171.9353
0.643159 78.642 171.8310
0.647819 78.636 171.7252
0.652514 78.629 171.6180
0.657242 78.622 171.5093
0.662005 78.615 171.3992
0.666802 78.609 171.2876
0.671634 78.602 171.1745
0.676501 78.595 171.0599
0.681403 78.588 170.9438
0.686341 78.581 170.8261
0.691314 78.573 170.7069
0.696324 78.566 170.5862
0.701370 78.559 170.4638
0.706452 78.551 170.3397
0.711571 78.543 170.2140
0.716728 78.535 170.0864
0.721921 78.526 169.9568
0.727153 78.515 169.8250
0.732422 78.504 169.6906
0.737729 78.490 169.5533
0.743075 78.476 169.4126
0.748460 78.460 169.2684
0.753883 78.443 169.1203
0.759346 78.426 168.9682
0.764849 78.408 168.8120
0.770391 78.390 168.6515
0.775974 78.371 168.4868
0.781597 78.352 168.3179
0.787261 78.333 168.1445
0.792966 78.314 167.9669
0.798712 78.295 167.7849
0.804500 78.275 167.5986
0.810329 78.254 167.4078
0.816201 78.234 167.2127
0.822116 78.213 167.0132
0.828073 78.191 166.8094
0.834074 78.170 166.6011
0.840118 78.147 166.3884
0.846206 78.125 166.1713
0.852338 78.101 165.9498
0.858514 78.077 165.7239
0.864735 78.053 165.4936
0.871001 78.028 165.2589
0.877313 78.002 165.0198
0.883670 77.976 164.7764
0.890074 77.949 164.5285
0.896524 77.921 164.2764
0.903020 77.893 164.0199
0.909564 77.863 163.7591
0.916155 77.833 163.4941
0.922794 77.802 163.2247
0.929481 77.770 162.9511
0.936216 77.736 162.6733
0.943000 77.702 162.3914
0.949834 77.667 162.1052
0.956717 77.631 161.8150
0.963649 77.593 161.5206
0.970632 77.554 161.2223
0.977666 77.514 160.9199
0.984750 77.472 160.6136
0.991886 77.429 160.3033
0.999074 77.385 159.9892
1.006314 77.339 159.6713
1.013606 77.292 159.3496
1.020951 77.242 159.0242
1.028349 77.192 158.6951
1.035801 77.139 158.3625
1.043307 77.084 158.0262
1.050867 77.028 157.6864
1.058482 76.969 157.3429
1.066152 76.908 156.9957
1.073878 76.845 156.6444
1.081660 76.780 156.2886
1.089498 76.712 155.9276
1.097393 76.641 155.5601
1.105345 76.568 155.1848
1.113355 76.491 154.8001
1.121423 76.410 154.4047
1.129549 76.326 153.9973
1.137734 76.239 153.5771
1.145979 76.148 153.1434
1.154283 76.053 152.6956
1.162647 75.955 152.2331
1.171072 75.854 151.7556
1.179558 75.750 151.2625
1.188106 75.642 150.7535
1.196715 75.532 150.2281
1.205387 75.418 149.6859
1.214122 75.302 149.1263
1.222920 75.183 148.5490
1.231782 75.062 147.9533
1.240708 74.938 147.3388
1.249699 74.812 146.7049
1.258754 74.684 146.0511
1.267876 74.555 145.3767
1.277063 74.424 144.6812
1.286318 74.291 143.9639
1.295639 74.157 143.2241
1.305027 74.022 142.4611
1.314484 73.887 141.6742
1.324009 73.751 140.8625
1.333604 73.614 140.0254
1.343268 73.478 139.1618
1.353002 73.342 138.2710
1.362806 73.206 137.3519
1.372681 73.072 136.4035
1.382628 72.938 135.4247
1.392647 72.806 134.4142
1.402739 72.676 133.3705
1.412904 72.547 132.2919
1.423142 72.421 131.1763
1.433455 72.296 130.0208
1.443843 72.174 128.8216
1.454305 72.053 127.5734
1.464844 71.932 126.2695
1.475459 71.811 124.9013
1.486150 71.688 123.4596
1.496920 71.562 121.9348
1.507767 71.434 120.3174
1.518693 71.302 118.5983
1.529698 71.167 116.7685
1.540783 71.029 114.8191
1.551948 70.889 112.7409
1.563194 70.747 110.5252
1.574521 70.605 108.1629
1.585931 70.462 105.6457
1.597423 70.319 102.9658
1.608999 70.179 100.1167
1.620658 70.040 97.0936
1.632402 69.905 93.8942
1.644232 69.774 90.5193
1.656146 69.648 86.9739
1.668147 69.529 83.2673
1.680235 69.417 79.4140
1.692411 69.313 75.4337
1.704675 69.220 71.3511
1.717028 69.138 67.1948
1.729470 69.069 62.9966
1.742003 69.013 58.7894
1.754626 68.973 54.6056
1.767341 68.951 50.4752
1.780147 68.947 46.4239
1.793047 68.964 42.4726
1.806040 69.003 38.6361
1.819128 69.067 34.9235
1.832310 69.156 31.3393
1.845587 69.273 27.8850
1.858961 69.417 24.5613
1.872432 69.590 21.3692
1.886001 69.790 18.3099
1.899667 70.016 15.3845
1.913433 70.266 12.5928
1.927299 70.540 9.9338
1.941265 70.834 7.4049
1.955332 71.147 5.0025
1.969501 71.476 2.7217
1.983773 71.819 0.5572
1.998148 72.174 -1.4968
2.012627 72.537 -3.4466
2.027212 72.907 -5.2984
2.041902 73.281 -7.0586
2.056698 73.656 -8.7334
2.071602 74.029 -10.3287
2.086614 74.397 -11.8505
2.101734 74.759 -13.3045
2.116964 75.111 -14.6963
2.132304 75.450 -16.0314
2.147756 75.776 -17.3156
2.163320 76.087 -18.5546
2.178996 76.382 -19.7548
2.194786 76.662 -20.9223
2.210690 76.929 -22.0634
2.226710 77.185 -23.1833
2.242845 77.430 -24.2855
2.259098 77.668 -25.3721
2.275468 77.898 -26.4438
2.291957 78.122 -27.5004
2.308566 78.340 -28.5414
2.325295 78.552 -29.5660
2.342145 78.759 -30.5732
2.359117 78.961 -31.5623
2.376212 79.158 -32.5323
2.393431 79.351 -33.4825
2.410775 79.540 -34.4125
2.428244 79.725 -35.3216
2.445840 79.906 -36.2096
2.463564 80.085 -37.0764
2.481416 80.260 -37.9222
2.499397 80.433 -38.7477
2.517509 80.603 -39.5541
2.535752 80.770 -40.3437
2.554127 80.934 -41.1193
2.572635 81.095 -41.8847
2.591277 81.252 -42.6436
2.610055 81.404 -43.3991
2.628968 81.552 -44.1527
2.648019 81.695 -44.9050
2.667208 81.833 -45.6556
2.686535 81.966 -46.4032
2.706003 82.095 -47.1465
2.725612 82.220 -47.8835
2.745363 82.341 -48.6124
2.765257 82.459 -49.3313
2.785295 82.573 -50.0382
2.805478 82.685 -50.7315
2.825808 82.793 -51.4094
2.846285 82.900 -52.0706
2.866910 83.004 -52.7143
2.887685 83.107 -53.3404
2.908611 83.207 -53.9497
2.929688 83.304 -54.5442
2.950917 83.400 -55.1265
2.972301 83.491 -55.6993
2.993839 83.580 -56.2646
3.015534 83.665 -56.8236
3.037386 83.747 -57.3765
3.059396 83.825 -57.9226
3.081565 83.901 -58.4610
3.103896 83.973 -58.9902
3.126388 84.044 -59.5086
3.149043 84.111 -60.0144
3.171862 84.177 -60.5058
3.194847 84.242 -60.9808
3.217998 84.305 -61.4378
3.241317 84.367 -61.8756
3.264805 84.428 -62.2933
3.288463 84.488 -62.6908
3.312293 84.546 -63.0687
3.336295 84.602 -63.4282
3.360471 84.656 -63.7705
3.384822 84.709 -64.0968
3.409350 84.759 -64.4078
3.434056 84.808 -64.7041
3.458940 84.856 -64.9858
3.484005 84.902 -65.2532
3.509252 84.948 -65.5060
3.534681 84.994 -65.7440
3.560295 85.040 -65.9669
3.586094 85.087 -66.1741
3.612081 85.134 -66.3650
3.638255 85.183 -66.5386
3.664620 85.232 -66.6943
3.691175 85.283 -66.8313
3.717923 85.334 -66.9497
3.744864 85.385 -67.0498
3.772001 85.438 -67.1331
3.799335 85.491 -67.2012
3.826866 85.544 -67.2562
3.854597 85.599 -67.3004
3.882529 85.656 -67.3363
3.910664 85.714 -67.3660
3.939002 85.774 -67.3913
3.967546 85.836 -67.4138
3.996296 85.900 -67.4340
4.025255 85.967 -67.4517
4.054423 86.037 -67.4662
4.083804 86.109 -67.4769
4.113396 86.183 -67.4838
4.143204 86.260 -67.4879
4.173227 86.340 -67.4910
4.203468 86.421 -67.4956
4.233928 86.504 -67.5046
4.264609 86.588 -67.5209
4.295512 86.674 -67.5471
4.326639 86.761 -67.5857
4.357992 86.850 -67.6379
4.389572 86.939 -67.7046
4.421380 87.030 -67.7854
4.453419 87.123 -67.8796
4.485691 87.217 -67.9867
4.518196 87.312 -68.1063
4.550936 87.408 -68.2385
4.583914 87.504 -68.3837
4.617131 87.601 -68.5427
4.650589 87.697 -68.7161
4.684289 87.793 -68.9049
4.718233 87.888 -69.1099
4.752424 87.982 -69.3315
4.786862 88.075 -69.5700
4.821549 88.167 -69.8251
4.856488 88.258 -70.0961
4.891680 88.348 -70.3815
4.927127 88.436 -70.6799
4.962831 88.523 -70.9895
4.998794 88.609 -71.3090
5.035017 88.692 -71.6369
5.071503 88.774 -71.9726
5.108253 88.854 -72.3157
5.145270 88.931 -72.6665
5.182555 89.005 -73.0250
5.220110 89.078 -73.3911
5.257937 89.148 -73.7636
5.296038 89.216 -74.1408
5.334415 89.282 -74.5207
5.373071 89.346 -74.9009
5.412006 89.407 -75.2793
5.451224 89.467 -75.6546
5.490725 89.525 -76.0258
5.530514 89.581 -76.3929
5.570590 89.635 -76.7560
5.610957 89.687 -77.1151
5.651616 89.737 -77.4696
5.692570 89.786 -77.8185
5.733821 89.833 -78.1606
5.775370 89.880 -78.4947
5.817221 89.926 -78.8194
5.859375 89.972 -79.1342
5.901834 90.018 -79.4387
5.944602 90.062 -79.7332
5.987679 90.107 -80.0182
6.031068 90.152 -80.2947
6.074771 90.197 -80.5633
6.118792 90.242 -80.8248
6.163131 90.289 -81.0795
6.207792 90.336 -81.3279
6.252776 90.385 -81.5701
6.298086 90.435 -81.8065
6.343725 90.486 -82.0379
6.389694 90.539 -82.2658
6.435996 90.592 -82.4921
6.482634 90.648 -82.7187
6.529610 90.705 -82.9473
6.576926 90.763 -83.1794
6.624585 90.823 -83.4156
6.672590 90.885 -83.6564
6.720942 90.948 -83.9025
6.769645 91.013 -84.1549
6.818700 91.078 -84.4146
6.868111 91.144 -84.6832
6.917881 91.211 -84.9616
6.968010 91.279 -85.2506
7.018504 91.347 -85.5505
7.069362 91.415 -85.8612
7.120590 91.484 -86.1822
7.172189 91.552 -86.5130
7.224161 91.620 -86.8532
7.276511 91.687 -87.2026
7.329239 91.754 -87.5607
7.382350 91.820 -87.9273
7.435845 91.885 -88.3017
7.489729 91.949 -88.6827
7.544002 92.012 -89.0688
7.598669 92.074 -89.4585
7.653732 92.135 -89.8505
7.709194 92.194 -90.2438
7.765058 92.253 -90.6376
7.821327 92.310 -91.0313
7.878004 92.366 -91.4237
7.935091 92.421 -91.8136
7.992592 92.476 -92.1998
8.050510 92.530 -92.5814
8.108847 92.583 -92.9576
8.167607 92.636 -93.3283
8.226793 92.689 -93.6935
8.286408 92.742 -94.0529
8.346454 92.795 -94.4067
8.406936 92.848 -94.7549
8.467856 92.902 -95.0975
8.529218 92.956 -95.4350
8.591024 93.011 -95.7680
8.653278 93.067 -96.0975
8.715983 93.123 -96.4245
8.779143 93.181 -96.7498
8.842760 93.239 -97.0742
8.906839 93.298 -97.3983
8.971381 93.358 -97.7228
9.036392 93.419 -98.0488
9.101873 93.480 -98.3769
9.167829 93.541 -98.7079
9.234263 93.603 -99.0422
9.301178 93.666 -99.3799
9.368578 93.728 -99.7209
9.436467 93.790 -100.0653
9.504847 93.852 -100.4129
9.573723 93.913 -100.7634
9.643099 93.973 -101.1165
9.712976 94.031 -101.4715
9.783361 94.087 -101.8275
9.854255 94.141 -102.1838
9.925663 94.192 -102.5396
9.997588 94.240 -102.8943
10.070035 94.284 -103.2471
10.143007 94.327 -103.5973
10.216507 94.367 -103.9442
10.290540 94.404 -104.2872
10.365109 94.441 -104.6261
10.440219 94.476 -104.9606
10.515873 94.510 -105.2907
10.592076 94.543 -105.6166
10.668830 94.576 -105.9382
10.746141 94.609 -106.2559
10.824012 94.642 -106.5703
10.902447 94.675 -106.8818
10.981451 94.708 -107.1911
11.061027 94.741 -107.4988
11.141180 94.774 -107.8054
11.221913 94.807 -108.1115
11.303232 94.840 -108.4177
11.385140 94.873 -108.7244
11.467641 94.905 -109.0319
11.550741 94.938 -109.3403
11.634442 94.970 -109.6497
11.718750 95.002 -109.9602
11.803669 95.034 -110.2716
11.889203 95.065 -110.5837
11.975357 95.097 -110.8961
12.062136 95.128 -111.2086
12.149543 95.158 -111.5209
12.237583 95.189 -111.8326
12.326262 95.219 -112.1435
12.415583 95.248 -112.4535
12.505552 95.277 -112.7624
12.596172 95.305 -113.0703
12.687449 95.333 -113.3773
12.779387 95.360 -113.6836
12.871992 95.387 -113.9895
12.965268 95.414 -114.2954
13.059220 95.441 -114.6016
13.153852 95.467 -114.9087
13.249170 95.494 -115.2169
13.345179 95.521 -115.5266
13.441884 95.547 -115.8382
13.539289 95.573 -116.1517
13.637401 95.600 -116.4672
13.736223 95.626 -116.7848
13.835761 95.651 -117.1044
13.936021 95.676 -117.4256
14.037007 95.701 -117.7484
14.138725 95.725 -118.0724
14.241180 95.748 -118.3973
14.344377 95.771 -118.7229
14.448323 95.793 -119.0491
14.553021 95.815 -119.3756
14.658478 95.837 -119.7026
14.764700 95.858 -120.0300
14.871691 95.880 -120.3581
14.979457 95.902 -120.6870
15.088005 95.923 -121.0169
15.197339 95.945 -121.3483
15.307465 95.967 -121.6814
15.418389 95.989 -122.0163
15.530117 96.011 -122.3533
15.642655 96.033 -122.6923
15.756008 96.055 -123.0335
15.870182 96.076 -123.3766
15.985184 96.098 -123.7214
16.101019 96.119 -124.0678
16.217694 96.140 -124.4154
16.335214 96.161 -124.7639
16.453586 96.182 -125.1130
16.572815 96.203 -125.4624
16.692909 96.224 -125.8120
16.813872 96.245 -126.1616
16.935713 96.267 -126.5111
17.058436 96.289 -126.8604
17.182048 96.311 -127.2095
17.306556 96.333 -127.5583
17.431967 96.355 -127.9067
17.558286 96.377 -128.2545
17.685521 96.399 -128.6016
17.813677 96.421 -128.9475
17.942762 96.443 -129.2921
18.072783 96.464 -129.6349
18.203746 96.486 -129.9758
18.335658 96.507 -130.3144
18.468526 96.528 -130.6506
18.602356 96.549 -130.9844
18.737156 96.571 -131.3158
18.872934 96.592 -131.6451
19.009695 96.614 -131.9725
19.147447 96.636 -132.2983
19.286197 96.658 -132.6230
19.425953 96.680 -132.9466
19.566721 96.701 -133.2695
19.708510 96.723 -133.5917
19.851326 96.744 -133.9131
19.995177 96.765 -134.2336
20.140070 96.785 -134.5529
20.286013 96.804 -134.8708
20.433014 96.823 -135.1870
20.581080 96.841 -135.5014
20.730219 96.859 -135.8139
20.880439 96.877 -136.1246
21.031747 96.894 -136.4339
21.184152 96.911 -136.7421
21.337661 96.929 -137.0496
21.492282 96.946 -137.3569
21.648024 96.962 -137.6643
21.804895 96.979 -137.9721
21.962902 96.995 -138.2804
22.122054 97.011 -138.5893
22.282360 97.026 -138.8985
22.443827 97.040 -139.2080
22.606464 97.054 -139.5175
22.770280 97.067 -139.8270
22.935283 97.080 -140.1362
23.101481 97.093 -140.4454
23.268884 97.106 -140.7549
23.437500 97.118 -141.0647
23.607338 97.129 -141.3754
23.778406 97.141 -141.6873
23.950714 97.152 -142.0005
24.124271 97.163 -142.3152
24.299086 97.173 -142.6313
24.475167 97.183 -142.9485
24.652524 97.192 -143.2665
24.831166 97.202 -143.5849
25.011103 97.211 -143.9031
25.192344 97.219 -144.2208
25.374898 97.228 -144.5376
25.558775 97.236 -144.8532
25.743984 97.245 -145.1676
25.930536 97.253 -145.4806
26.118439 97.262 -145.7925
26.307704 97.270 -146.1033
26.498341 97.279 -146.4133
26.690359 97.288 -146.7225
26.883768 97.296 -147.0311
27.078579 97.305 -147.3390
27.274801 97.313 -147.6462
27.472446 97.321 -147.9524
27.671522 97.329 -148.2574
27.872042 97.337 -148.5608
28.074014 97.344 -148.8622
28.277450 97.350 -149.1615
28.482360 97.357 -149.4585
28.688755 97.363 -149.7532
28.896645 97.369 -150.0459
29.106042 97.374 -150.3370
29.316957 97.380 -150.6268
29.529400 97.385 -150.9156
29.743382 97.390 -151.2039
29.958915 97.395 -151.4916
30.176009 97.400 -151.7789
30.394677 97.404 -152.0658
30.614929 97.408 -152.3521
30.836778 97.412 -152.6381
31.060234 97.416 -152.9238
31.285309 97.420 -153.2096
31.512015 97.423 -153.4958
31.740364 97.426 -153.7828
31.970368 97.429 -154.0706
32.202039 97.431 -154.3595
32.435388 97.434 -154.6491
32.670428 97.436 -154.9393
32.907171 97.438 -155.2299
33.145630 97.439 -155.5209
33.385817 97.441 -155.8123
33.627745 97.443 -156.1042
33.871425 97.444 -156.3968
34.116871 97.446 -156.6901
34.364096 97.447 -156.9841
34.613113 97.447 -157.2782
34.863934 97.448 -157.5718
35.116572 97.448 -157.8639
35.371041 97.447 -158.1539
35.627354 97.447 -158.4411
35.885525 97.446 -158.7253
36.145566 97.445 -159.0066
36.407492 97.444 -159.2854
36.671316 97.442 -159.5623
36.937051 97.441 -159.8379
37.204712 97.440 -160.1123
37.474313 97.438 -160.3858
37.745867 97.436 -160.6581
38.019389 97.434 -160.9291
38.294893 97.432 -161.1986
38.572394 97.429 -161.4667
38.851905 97.427 -161.7335
39.133442 97.424 -161.9996
39.417019 97.421 -162.2655
39.702651 97.418 -162.5316
39.990353 97.414 -162.7982
40.280140 97.411 -163.0654
40.572026 97.407 -163.3329
40.866028 97.402 -163.6006
41.162160 97.398 -163.8680
41.460438 97.393 -164.1348
41.760877 97.388 -164.4004
42.063494 97.382 -164.6646
42.368303 97.376 -164.9269
42.675322 97.370 -165.1873
42.984565 97.364 -165.4454
43.296048 97.357 -165.7012
43.609789 97.350 -165.9545
43.925804 97.343 -166.2052
44.244108 97.337 -166.4534
44.564719 97.330 -166.6992
44.887654 97.323 -166.9433
45.212928 97.317 -167.1867
45.540560 97.311 -167.4304
45.870565 97.305 -167.6755
46.202962 97.299 -167.9225
46.537768 97.292 -168.1712
46.875000 97.285 -168.4210
47.214676 97.277 -168.6706
47.556813 97.269 -168.9186
47.901429 97.260 -169.1641
48.248542 97.251 -169.4063
48.598171 97.242 -169.6449
48.950334 97.233 -169.8802
49.305048 97.224 -170.1129
49.662333 97.215 -170.3437
50.022206 97.207 -170.5736
50.384688 97.198 -170.8033
50.749796 97.190 -171.0331
51.117550 97.181 -171.2630
51.487969 97.172 -171.4923
51.861072 97.164 -171.7206
52.236879 97.155 -171.9474
52.615409 97.146 -172.1726
52.996681 97.137 -172.3964
53.380717 97.128 -172.6190
53.767536 97.120 -172.8410
54.157158 97.111 -173.0625
54.549603 97.103 -173.2838
54.944892 97.095 -173.5054
55.343045 97.088 -173.7277
55.744084 97.080 -173.9515
56.148028 97.073 -174.1773
56.554900 97.065 -174.4055
56.964720 97.058 -174.6367
57.377510 97.051 -174.8711
57.793291 97.043 -175.1084
58.212085 97.034 -175.3481
58.633914 97.024 -175.5885
59.058799 97.014 -175.8278
59.486764 97.002 -176.0638
59.917829 96.990 -176.2951
60.352019 96.977 -176.5213
60.789354 96.964 -176.7431
61.229859 96.950 -176.9618
61.673556 96.937 -177.1783
62.120468 96.923 -177.3930
62.570618 96.909 -177.6057
63.024031 96.894 -177.8164
63.480729 96.880 -178.0251
63.940736 96.865 -178.2323
64.404077 96.850 -178.4387
64.870776 96.835 -178.6447
65.340856 96.820 -178.8503
65.814343 96.805 -179.0550
66.291261 96.790 -179.2587
66.771635 96.775 -179.4609
67.255489 96.759 -179.6617
67.742850 96.744 -179.8607
68.233743 96.728 179.9420
68.728193 96.712 179.7469
69.226226 96.696 179.5538
69.727867 96.680 179.3624
70.233144 96.663 179.1721
70.742083 96.647 178.9819
