* Measurement data measured by REW V5.31
* Source: EXCL: Microphone (USB Sound Device        ), MICROPHONE (Master Volume), L, volume: 0.390
* Format: 256k Log Swept Sine, 1 sweep at -4.0 dBFS with no timing reference
* Dated: Aug 10, 2024 7:26:24 PM
* REW Settings:
*  C-weighting compensation: Off
*  Target level: 75.0 dB
* Note: DaVinci
* Measurement: L DaVinci
* Smoothing: 1/12 octave
* Frequency Step: 96 ppo
* Start Frequency: 0.36621094 Hz
*
* Freq(Hz) SPL(dB) Phase(degrees)
0.366211 89.580 -62.6737
0.368865 89.585 -62.7384
0.371538 89.593 -62.8353
0.374230 89.602 -62.9567
0.376942 89.613 -63.0964
0.379673 89.625 -63.2494
0.382424 89.637 -63.4128
0.385196 89.650 -63.5845
0.387987 89.662 -63.7635
0.390798 89.675 -63.9492
0.393630 89.688 -64.1413
0.396483 89.701 -64.3396
0.399356 89.715 -64.5440
0.402250 89.728 -64.7545
0.405165 89.741 -64.9712
0.408101 89.755 -65.1940
0.411058 89.769 -65.4230
0.414037 89.782 -65.6581
0.417037 89.796 -65.8994
0.420059 89.810 -66.1469
0.423103 89.824 -66.4006
0.426169 89.838 -66.6604
0.429257 89.852 -66.9265
0.432368 89.867 -67.1988
0.435501 89.881 -67.4772
0.438656 89.896 -67.7619
0.441835 89.910 -68.0526
0.445037 89.925 -68.3496
0.448262 89.940 -68.6526
0.451510 89.955 -68.9617
0.454782 89.970 -69.2769
0.458077 89.985 -69.5981
0.461397 90.000 -69.9252
0.464740 90.016 -70.2583
0.468108 90.031 -70.5973
0.471500 90.047 -70.9421
0.474917 90.063 -71.2927
0.478358 90.078 -71.6489
0.481825 90.094 -72.0108
0.485316 90.110 -72.3782
0.488833 90.127 -72.7511
0.492375 90.143 -73.1294
0.495943 90.159 -73.5130
0.499537 90.176 -73.9017
0.503157 90.193 -74.2956
0.506803 90.209 -74.6945
0.510475 90.226 -75.0982
0.514175 90.243 -75.5067
0.517900 90.260 -75.9198
0.521653 90.278 -76.3374
0.525434 90.295 -76.7595
0.529241 90.313 -77.1857
0.533076 90.330 -77.6161
0.536939 90.348 -78.0505
0.540830 90.366 -78.4886
0.544749 90.384 -78.9304
0.548696 90.402 -79.3758
0.552673 90.421 -79.8244
0.556677 90.439 -80.2763
0.560711 90.458 -80.7312
0.564774 90.476 -81.1889
0.568867 90.495 -81.6494
0.572989 90.514 -82.1123
0.577141 90.533 -82.5776
0.581324 90.553 -83.0450
0.585536 90.572 -83.5144
0.589779 90.591 -83.9856
0.594053 90.611 -84.4584
0.598358 90.631 -84.9326
0.602694 90.651 -85.4081
0.607061 90.671 -85.8847
0.611460 90.691 -86.3621
0.615891 90.712 -86.8403
0.620354 90.732 -87.3190
0.624849 90.753 -87.7980
0.629377 90.774 -88.2772
0.633938 90.795 -88.7564
0.638532 90.816 -89.2354
0.643159 90.837 -89.7141
0.647819 90.859 -90.1922
0.652514 90.880 -90.6697
0.657242 90.902 -91.1463
0.662005 90.924 -91.6219
0.666802 90.946 -92.0964
0.671634 90.968 -92.5695
0.676501 90.991 -93.0412
0.681403 91.013 -93.5113
0.686341 91.036 -93.9797
0.691314 91.059 -94.4462
0.696324 91.082 -94.9108
0.701370 91.105 -95.3735
0.706452 91.128 -95.8342
0.711571 91.151 -96.2932
0.716728 91.173 -96.7507
0.721921 91.195 -97.2074
0.727153 91.215 -97.6642
0.732422 91.234 -98.1225
0.737729 91.252 -98.5837
0.743075 91.267 -99.0495
0.748460 91.282 -99.5212
0.753883 91.296 -99.9995
0.759346 91.309 -100.4852
0.764849 91.321 -100.9785
0.770391 91.334 -101.4794
0.775974 91.346 -101.9879
0.781597 91.357 -102.5040
0.787261 91.369 -103.0275
0.792966 91.380 -103.5583
0.798712 91.391 -104.0962
0.804500 91.402 -104.6408
0.810329 91.413 -105.1921
0.816201 91.424 -105.7499
0.822116 91.434 -106.3137
0.828073 91.444 -106.8835
0.834074 91.453 -107.4589
0.840118 91.462 -108.0397
0.846206 91.471 -108.6255
0.852338 91.480 -109.2161
0.858514 91.488 -109.8112
0.864735 91.496 -110.4104
0.871001 91.503 -111.0135
0.877313 91.510 -111.6201
0.883670 91.516 -112.2298
0.890074 91.522 -112.8423
0.896524 91.527 -113.4573
0.903020 91.532 -114.0743
0.909564 91.536 -114.6931
0.916155 91.540 -115.3132
0.922794 91.543 -115.9342
0.929481 91.545 -116.5558
0.936216 91.547 -117.1775
0.943000 91.547 -117.7989
0.949834 91.548 -118.4198
0.956717 91.547 -119.0395
0.963649 91.545 -119.6578
0.970632 91.543 -120.2742
0.977666 91.540 -120.8883
0.984750 91.536 -121.4997
0.991886 91.531 -122.1079
0.999074 91.524 -122.7126
1.006314 91.517 -123.3132
1.013606 91.509 -123.9095
1.020951 91.500 -124.5009
1.028349 91.489 -125.0871
1.035801 91.477 -125.6676
1.043307 91.464 -126.2420
1.050867 91.450 -126.8101
1.058482 91.434 -127.3716
1.066152 91.417 -127.9265
1.073878 91.399 -128.4749
1.081660 91.379 -129.0174
1.089498 91.359 -129.5552
1.097393 91.337 -130.0902
1.105345 91.314 -130.6246
1.113355 91.291 -131.1612
1.121423 91.267 -131.7020
1.129549 91.243 -132.2491
1.137734 91.219 -132.8036
1.145979 91.194 -133.3664
1.154283 91.168 -133.9383
1.162647 91.142 -134.5196
1.171072 91.115 -135.1107
1.179558 91.088 -135.7116
1.188106 91.059 -136.3227
1.196715 91.029 -136.9439
1.205387 90.999 -137.5754
1.214122 90.966 -138.2172
1.222920 90.933 -138.8692
1.231782 90.897 -139.5313
1.240708 90.860 -140.2034
1.249699 90.821 -140.8853
1.258754 90.779 -141.5768
1.267876 90.735 -142.2775
1.277063 90.689 -142.9870
1.286318 90.639 -143.7047
1.295639 90.587 -144.4301
1.305027 90.531 -145.1624
1.314484 90.472 -145.9009
1.324009 90.410 -146.6446
1.333604 90.343 -147.3924
1.343268 90.272 -148.1430
1.353002 90.197 -148.8951
1.362806 90.117 -149.6472
1.372681 90.032 -150.3974
1.382628 89.942 -151.1440
1.392647 89.847 -151.8849
1.402739 89.745 -152.6181
1.412904 89.637 -153.3412
1.423142 89.523 -154.0524
1.433455 89.401 -154.7501
1.443843 89.272 -155.4332
1.454305 89.133 -156.1019
1.464844 88.986 -156.7580
1.475459 88.827 -157.4042
1.486150 88.657 -158.0441
1.496920 88.474 -158.6811
1.507767 88.279 -159.3181
1.518693 88.071 -159.9570
1.529698 87.851 -160.5993
1.540783 87.619 -161.2461
1.551948 87.376 -161.8980
1.563194 87.122 -162.5554
1.574521 86.859 -163.2185
1.585931 86.587 -163.8876
1.597423 86.307 -164.5624
1.608999 86.020 -165.2430
1.620658 85.728 -165.9290
1.632402 85.431 -166.6200
1.644232 85.130 -167.3152
1.656146 84.827 -168.0137
1.668147 84.523 -168.7144
1.680235 84.220 -169.4157
1.692411 83.918 -170.1157
1.704675 83.620 -170.8120
1.717028 83.327 -171.5015
1.729470 83.040 -172.1806
1.742003 82.762 -172.8448
1.754626 82.493 -173.4887
1.767341 82.237 -174.1058
1.780147 81.993 -174.6886
1.793047 81.765 -175.2285
1.806040 81.552 -175.7157
1.819128 81.355 -176.1400
1.832310 81.172 -176.4902
1.845587 81.003 -176.7542
1.858961 80.846 -176.9174
1.872432 80.700 -176.9601
1.886001 80.562 -176.8546
1.899667 80.433 -176.5603
1.913433 80.313 -176.0163
1.927299 80.202 -175.1291
1.941265 80.100 -173.7482
1.955332 80.008 -171.6205
1.969501 79.926 -168.2911
1.983773 79.856 -162.8822
1.998148 79.799 -153.5829
2.012627 79.754 -136.7833
2.027212 79.723 -108.9134
2.041902 79.708 -78.5738
2.056698 79.708 -58.5944
2.071602 79.726 -47.5633
2.086614 79.762 -41.3143
2.101734 79.818 -37.5848
2.116964 79.895 -35.2883
2.132304 79.995 -33.8746
2.147756 80.121 -33.0434
2.163320 80.273 -32.6192
2.178996 80.457 -32.4924
2.194786 80.674 -32.5906
2.210690 80.928 -32.8625
2.226710 81.220 -33.2695
2.242845 81.553 -33.7814
2.259098 81.923 -34.3744
2.275468 82.330 -35.0292
2.291957 82.768 -35.7304
2.308566 83.235 -36.4659
2.325295 83.726 -37.2264
2.342145 84.236 -38.0045
2.359117 84.759 -38.7947
2.376212 85.292 -39.5926
2.393431 85.828 -40.3953
2.410775 86.364 -41.2006
2.428244 86.893 -42.0073
2.445840 87.411 -42.8148
2.463564 87.913 -43.6233
2.481416 88.395 -44.4337
2.499397 88.853 -45.2478
2.517509 89.284 -46.0684
2.535752 89.686 -46.8994
2.554127 90.060 -47.7455
2.572635 90.406 -48.6118
2.591277 90.726 -49.5024
2.610055 91.023 -50.4193
2.628968 91.299 -51.3618
2.648019 91.557 -52.3271
2.667208 91.797 -53.3112
2.686535 92.022 -54.3092
2.706003 92.233 -55.3161
2.725612 92.432 -56.3270
2.745363 92.619 -57.3373
2.765257 92.797 -58.3431
2.785295 92.966 -59.3405
2.805478 93.129 -60.3267
2.825808 93.287 -61.2995
2.846285 93.441 -62.2575
2.866910 93.593 -63.2007
2.887685 93.742 -64.1307
2.908611 93.889 -65.0510
2.929688 94.034 -65.9667
2.950917 94.176 -66.8842
2.972301 94.313 -67.8089
2.993839 94.445 -68.7445
3.015534 94.571 -69.6922
3.037386 94.690 -70.6509
3.059396 94.803 -71.6183
3.081565 94.910 -72.5908
3.103896 95.011 -73.5644
3.126388 95.107 -74.5347
3.149043 95.198 -75.4975
3.171862 95.284 -76.4486
3.194847 95.365 -77.3843
3.217998 95.443 -78.3019
3.241317 95.517 -79.1998
3.264805 95.588 -80.0782
3.288463 95.655 -80.9397
3.312293 95.717 -81.7883
3.336295 95.775 -82.6291
3.360471 95.828 -83.4661
3.384822 95.876 -84.3016
3.409350 95.919 -85.1357
3.434056 95.957 -85.9673
3.458940 95.991 -86.7937
3.484005 96.020 -87.6114
3.509252 96.046 -88.4165
3.534681 96.068 -89.2043
3.560295 96.086 -89.9707
3.586094 96.102 -90.7114
3.612081 96.115 -91.4233
3.638255 96.126 -92.1043
3.664620 96.133 -92.7544
3.691175 96.138 -93.3748
3.717923 96.138 -93.9678
3.744864 96.135 -94.5356
3.772001 96.129 -95.0800
3.799335 96.120 -95.6017
3.826866 96.107 -96.1010
3.854597 96.093 -96.5773
3.882529 96.078 -97.0296
3.910664 96.062 -97.4563
3.939002 96.046 -97.8554
3.967546 96.031 -98.2246
3.996296 96.017 -98.5614
4.025255 96.004 -98.8635
4.054423 95.991 -99.1288
4.083804 95.980 -99.3566
4.113396 95.968 -99.5472
4.143204 95.958 -99.7028
4.173227 95.949 -99.8261
4.203468 95.941 -99.9210
4.233928 95.936 -99.9916
4.264609 95.934 -100.0422
4.295512 95.935 -100.0764
4.326639 95.941 -100.0972
4.357992 95.952 -100.1062
4.389572 95.969 -100.1034
4.421380 95.991 -100.0877
4.453419 96.019 -100.0582
4.485691 96.052 -100.0154
4.518196 96.090 -99.9621
4.550936 96.134 -99.9028
4.583914 96.182 -99.8435
4.617131 96.234 -99.7910
4.650589 96.289 -99.7518
4.684289 96.349 -99.7318
4.718233 96.412 -99.7355
4.752424 96.479 -99.7653
4.786862 96.550 -99.8215
4.821549 96.625 -99.9035
4.856488 96.703 -100.0102
4.891680 96.785 -100.1413
4.927127 96.869 -100.2972
4.962831 96.955 -100.4792
4.998794 97.042 -100.6890
5.035017 97.128 -100.9284
5.071503 97.214 -101.1995
5.108253 97.298 -101.5037
5.145270 97.381 -101.8419
5.182555 97.463 -102.2140
5.220110 97.542 -102.6182
5.257937 97.620 -103.0520
5.296038 97.697 -103.5119
5.334415 97.770 -103.9942
5.373071 97.841 -104.4957
5.412006 97.908 -105.0138
5.451224 97.971 -105.5471
5.490725 98.029 -106.0953
5.530514 98.084 -106.6588
5.570590 98.133 -107.2376
5.610957 98.179 -107.8303
5.651616 98.220 -108.4337
5.692570 98.256 -109.0435
5.733821 98.289 -109.6546
5.775370 98.317 -110.2625
5.817221 98.341 -110.8635
5.859375 98.361 -111.4559
5.901834 98.376 -112.0389
5.944602 98.387 -112.6126
5.987679 98.395 -113.1765
6.031068 98.398 -113.7287
6.074771 98.398 -114.2664
6.118792 98.396 -114.7864
6.163131 98.392 -115.2852
6.207792 98.386 -115.7599
6.252776 98.378 -116.2089
6.298086 98.369 -116.6317
6.343725 98.358 -117.0288
6.389694 98.347 -117.4013
6.435996 98.337 -117.7503
6.482634 98.327 -118.0767
6.529610 98.318 -118.3810
6.576926 98.312 -118.6633
6.624585 98.308 -118.9237
6.672590 98.306 -119.1631
6.720942 98.307 -119.3834
6.769645 98.312 -119.5883
6.818700 98.319 -119.7823
6.868111 98.331 -119.9698
6.917881 98.345 -120.1549
6.968010 98.364 -120.3404
7.018504 98.387 -120.5281
7.069362 98.414 -120.7201
7.120590 98.444 -120.9187
7.172189 98.477 -121.1274
7.224161 98.513 -121.3498
7.276511 98.551 -121.5894
7.329239 98.591 -121.8486
7.382350 98.633 -122.1288
7.435845 98.675 -122.4300
7.489729 98.718 -122.7519
7.544002 98.762 -123.0938
7.598669 98.805 -123.4552
7.653732 98.846 -123.8358
7.709194 98.886 -124.2351
7.765058 98.924 -124.6522
7.821327 98.960 -125.0852
7.878004 98.994 -125.5314
7.935091 99.025 -125.9872
7.992592 99.053 -126.4494
8.050510 99.078 -126.9152
8.108847 99.100 -127.3824
8.167607 99.118 -127.8493
8.226793 99.134 -128.3132
8.286408 99.147 -128.7713
8.346454 99.158 -129.2202
8.406936 99.166 -129.6572
8.467856 99.173 -130.0802
8.529218 99.178 -130.4882
8.591024 99.181 -130.8805
8.653278 99.184 -131.2565
8.715983 99.186 -131.6157
8.779143 99.189 -131.9578
8.842760 99.192 -132.2829
8.906839 99.196 -132.5917
8.971381 99.201 -132.8859
9.036392 99.207 -133.1676
9.101873 99.215 -133.4393
9.167829 99.225 -133.7029
9.234263 99.238 -133.9605
9.301178 99.252 -134.2140
9.368578 99.268 -134.4659
9.436467 99.285 -134.7188
9.504847 99.305 -134.9750
9.573723 99.325 -135.2365
9.643099 99.345 -135.5042
9.712976 99.366 -135.7789
9.783361 99.385 -136.0611
9.854255 99.403 -136.3512
9.925663 99.418 -136.6493
9.997588 99.430 -136.9547
10.070035 99.439 -137.2664
10.143007 99.445 -137.5831
10.216507 99.448 -137.9030
10.290540 99.448 -138.2247
10.365109 99.446 -138.5467
10.440219 99.441 -138.8675
10.515873 99.434 -139.1855
10.592076 99.425 -139.4990
10.668830 99.415 -139.8068
10.746141 99.403 -140.1081
10.824012 99.391 -140.4024
10.902447 99.379 -140.6895
10.981451 99.366 -140.9693
11.061027 99.353 -141.2421
11.141180 99.339 -141.5085
11.221913 99.326 -141.7693
11.303232 99.313 -142.0258
11.385140 99.301 -142.2789
11.467641 99.289 -142.5297
11.550741 99.277 -142.7793
11.634442 99.265 -143.0284
11.718750 99.254 -143.2780
11.803669 99.244 -143.5287
11.889203 99.233 -143.7806
11.975357 99.222 -144.0338
12.062136 99.212 -144.2880
12.149543 99.201 -144.5430
12.237583 99.190 -144.7983
12.326262 99.178 -145.0533
12.415583 99.166 -145.3073
12.505552 99.154 -145.5597
12.596172 99.141 -145.8103
12.687449 99.127 -146.0588
12.779387 99.113 -146.3051
12.871992 99.099 -146.5495
12.965268 99.086 -146.7925
13.059220 99.072 -147.0346
13.153852 99.059 -147.2768
13.249170 99.047 -147.5200
13.345179 99.034 -147.7650
13.441884 99.023 -148.0126
13.539289 99.012 -148.2637
13.637401 99.000 -148.5187
13.736223 98.989 -148.7776
13.835761 98.978 -149.0405
13.936021 98.966 -149.3067
14.037007 98.953 -149.5757
14.138725 98.940 -149.8463
14.241180 98.926 -150.1176
14.344377 98.911 -150.3883
14.448323 98.896 -150.6573
14.553021 98.880 -150.9238
14.658478 98.864 -151.1871
14.764700 98.847 -151.4468
14.871691 98.832 -151.7031
14.979457 98.816 -151.9565
15.088005 98.802 -152.2078
15.197339 98.788 -152.4580
15.307465 98.776 -152.7086
15.418389 98.765 -152.9608
15.530117 98.754 -153.2158
15.642655 98.744 -153.4747
15.756008 98.734 -153.7381
15.870182 98.725 -154.0063
15.985184 98.715 -154.2789
16.101019 98.706 -154.5552
16.217694 98.696 -154.8342
16.335214 98.685 -155.1146
16.453586 98.674 -155.3947
16.572815 98.663 -155.6732
16.692909 98.652 -155.9486
16.813872 98.640 -156.2200
16.935713 98.630 -156.4866
17.058436 98.619 -156.7485
17.182048 98.610 -157.0056
17.306556 98.601 -157.2589
17.431967 98.593 -157.5090
17.558286 98.586 -157.7571
17.685521 98.580 -158.0042
17.813677 98.574 -158.2511
17.942762 98.568 -158.4983
18.072783 98.563 -158.7462
18.203746 98.557 -158.9945
18.335658 98.551 -159.2428
18.468526 98.546 -159.4902
18.602356 98.540 -159.7359
18.737156 98.533 -159.9791
18.872934 98.527 -160.2189
19.009695 98.521 -160.4550
19.147447 98.514 -160.6870
19.286197 98.508 -160.9152
19.425953 98.502 -161.1398
19.566721 98.496 -161.3615
19.708510 98.491 -161.5807
19.851326 98.485 -161.7981
19.995177 98.479 -162.0141
20.140070 98.473 -162.2291
20.286013 98.467 -162.4430
20.433014 98.460 -162.6559
20.581080 98.453 -162.8678
20.730219 98.446 -163.0785
20.880439 98.439 -163.2882
21.031747 98.431 -163.4970
21.184152 98.424 -163.7053
21.337661 98.417 -163.9136
21.492282 98.410 -164.1225
21.648024 98.403 -164.3324
21.804895 98.395 -164.5436
21.962902 98.388 -164.7563
22.122054 98.380 -164.9702
22.282360 98.372 -165.1850
22.443827 98.363 -165.4002
22.606464 98.354 -165.6153
22.770280 98.345 -165.8300
22.935283 98.336 -166.0443
23.101481 98.326 -166.2583
23.268884 98.317 -166.4726
23.437500 98.308 -166.6878
23.607338 98.299 -166.9046
23.778406 98.290 -167.1235
23.950714 98.281 -167.3449
24.124271 98.272 -167.5686
24.299086 98.262 -167.7941
24.475167 98.252 -168.0207
24.652524 98.243 -168.2475
24.831166 98.233 -168.4735
25.011103 98.223 -168.6983
25.192344 98.213 -168.9214
25.374898 98.204 -169.1428
25.558775 98.194 -169.3628
25.743984 98.186 -169.5818
25.930536 98.178 -169.8002
26.118439 98.170 -170.0182
26.307704 98.162 -170.2359
26.498341 98.154 -170.4530
26.690359 98.146 -170.6690
26.883768 98.139 -170.8835
27.078579 98.131 -171.0961
27.274801 98.123 -171.3065
27.472446 98.116 -171.5147
27.671522 98.108 -171.7207
27.872042 98.100 -171.9247
28.074014 98.093 -172.1266
28.277450 98.085 -172.3267
28.482360 98.077 -172.5249
28.688755 98.068 -172.7213
28.896645 98.060 -172.9159
29.106042 98.051 -173.1091
29.316957 98.042 -173.3011
29.529400 98.034 -173.4926
29.743382 98.025 -173.6840
29.958915 98.016 -173.8757
30.176009 98.007 -174.0679
30.394677 97.998 -174.2604
30.614929 97.989 -174.4532
30.836778 97.979 -174.6459
31.060234 97.969 -174.8386
31.285309 97.959 -175.0313
31.512015 97.950 -175.2244
31.740364 97.940 -175.4184
31.970368 97.930 -175.6138
32.202039 97.920 -175.8110
32.435388 97.911 -176.0101
32.670428 97.901 -176.2110
32.907171 97.891 -176.4134
33.145630 97.881 -176.6171
33.385817 97.871 -176.8217
33.627745 97.861 -177.0271
33.871425 97.851 -177.2333
34.116871 97.841 -177.4399
34.364096 97.832 -177.6467
34.613113 97.822 -177.8535
34.863934 97.811 -178.0595
35.116572 97.801 -178.2644
35.371041 97.791 -178.4677
35.627354 97.780 -178.6691
35.885525 97.770 -178.8683
36.145566 97.759 -179.0653
36.407492 97.748 -179.2602
36.671316 97.737 -179.4531
36.937051 97.726 -179.6441
37.204712 97.715 -179.8336
37.474313 97.704 179.9784
37.745867 97.693 179.7917
38.019389 97.681 179.6064
38.294893 97.670 179.4231
38.572394 97.658 179.2421
38.851905 97.646 179.0638
39.133442 97.633 178.8882
39.417019 97.621 178.7149
39.702651 97.610 178.5428
39.990353 97.598 178.3709
40.280140 97.587 178.1978
40.572026 97.577 178.0225
40.866028 97.566 177.8442
41.162160 97.555 177.6627
41.460438 97.545 177.4782
41.760877 97.533 177.2912
42.063494 97.522 177.1025
42.368303 97.510 176.9130
42.675322 97.498 176.7233
42.984565 97.485 176.5341
43.296048 97.472 176.3455
43.609789 97.459 176.1577
43.925804 97.445 175.9706
44.244108 97.432 175.7841
44.564719 97.418 175.5986
44.887654 97.403 175.4141
45.212928 97.389 175.2311
45.540560 97.374 175.0499
45.870565 97.359 174.8707
46.202962 97.344 174.6937
46.537768 97.329 174.5190
46.875000 97.314 174.3464
47.214676 97.299 174.1758
47.556813 97.284 174.0070
47.901429 97.269 173.8397
48.248542 97.254 173.6736
48.598171 97.239 173.5090
48.950334 97.224 173.3459
49.305048 97.209 173.1847
49.662333 97.195 173.0254
50.022206 97.180 172.8677
50.384688 97.165 172.7115
50.749796 97.150 172.5562
51.117550 97.136 172.4018
51.487969 97.121 172.2484
51.861072 97.106 172.0962
52.236879 97.091 171.9454
52.615409 97.076 171.7960
52.996681 97.062 171.6476
53.380717 97.048 171.5000
53.767536 97.034 171.3526
54.157158 97.020 171.2051
54.549603 97.007 171.0571
54.944892 96.994 170.9078
55.343045 96.982 170.7562
55.744084 96.970 170.6013
56.148028 96.959 170.4425
56.554900 96.948 170.2798
56.964720 96.936 170.1138
57.377510 96.925 169.9452
57.793291 96.914 169.7744
58.212085 96.902 169.6011
58.633914 96.890 169.4250
59.058799 96.877 169.2458
59.486764 96.864 169.0643
59.917829 96.849 168.8819
60.352019 96.834 168.7006
60.789354 96.817 168.5220
61.229859 96.799 168.3469
61.673556 96.781 168.1748
62.120468 96.762 168.0052
62.570618 96.743 167.8376
63.024031 96.723 167.6718
63.480729 96.703 167.5075
63.940736 96.683 167.3443
64.404077 96.663 167.1816
64.870776 96.642 167.0192
65.340856 96.622 166.8572
65.814343 96.601 166.6961
66.291261 96.580 166.5361
66.771635 96.559 166.3776
67.255489 96.538 166.2204
