* Measurement data measured by REW V5.31
* Source: EXCL: Microphone (USB Sound Device        ), MICROPHONE (Master Volume), L, volume: 0.390
* Format: 256k Log Swept Sine, 1 sweep at -10.0 dBFS with no timing reference
* Dated: Oct 1, 2024 12:03:26 AM
* REW Settings:
*  C-weighting compensation: Off
*  Target level: 75.0 dB
* Note: ELISE AUDIO x Kinera Dark Phoenix
* Measurement: L Oct 1
* Smoothing: 1/12 octave
* Frequency Step: 96 ppo
* Start Frequency: 0.36621094 Hz
*
* Freq(Hz)	SPL(dB)	Phase(degrees)
0.366211	89.018	160.8597
0.368865	89.012	160.8397
0.371538	89.003	160.8096
0.374230	88.992	160.7719
0.376942	88.979	160.7285
0.379673	88.966	160.6807
0.382424	88.952	160.6296
0.385196	88.937	160.5756
0.387987	88.923	160.5192
0.390798	88.908	160.4605
0.393630	88.893	160.3996
0.396483	88.878	160.3365
0.399356	88.862	160.2712
0.402250	88.847	160.2038
0.405165	88.832	160.1342
0.408101	88.816	160.0623
0.411058	88.800	159.9883
0.414037	88.784	159.9119
0.417037	88.768	159.8333
0.420059	88.752	159.7524
0.423103	88.736	159.6692
0.426169	88.720	159.5837
0.429257	88.703	159.4958
0.432368	88.687	159.4055
0.435501	88.670	159.3129
0.438656	88.653	159.2178
0.441835	88.636	159.1203
0.445037	88.619	159.0203
0.448262	88.602	158.9178
0.451510	88.585	158.8129
0.454782	88.567	158.7054
0.458077	88.550	158.5954
0.461397	88.532	158.4829
0.464740	88.514	158.3678
0.468108	88.496	158.2502
0.471500	88.478	158.1300
0.474917	88.460	158.0071
0.478358	88.442	157.8817
0.481825	88.423	157.7536
0.485316	88.405	157.6228
0.488833	88.386	157.4895
0.492375	88.367	157.3534
0.495943	88.348	157.2147
0.499537	88.329	157.0734
0.503157	88.310	156.9293
0.506803	88.290	156.7826
0.510475	88.271	156.6332
0.514175	88.251	156.4811
0.517900	88.231	156.3263
0.521653	88.211	156.1688
0.525434	88.191	156.0087
0.529241	88.171	155.8458
0.533076	88.151	155.6803
0.536939	88.130	155.5122
0.540830	88.109	155.3414
0.544749	88.088	155.1679
0.548696	88.067	154.9919
0.552673	88.046	154.8132
0.556677	88.025	154.6319
0.560711	88.003	154.4481
0.564774	87.982	154.2618
0.568867	87.960	154.0729
0.572989	87.938	153.8816
0.577141	87.916	153.6879
0.581324	87.894	153.4917
0.585536	87.871	153.2932
0.589779	87.849	153.0924
0.594053	87.826	152.8893
0.598358	87.803	152.6840
0.602694	87.780	152.4766
0.607061	87.757	152.2671
0.611460	87.733	152.0556
0.615891	87.710	151.8421
0.620354	87.686	151.6268
0.624849	87.662	151.4096
0.629377	87.638	151.1908
0.633938	87.614	150.9704
0.638532	87.589	150.7484
0.643159	87.565	150.5251
0.647819	87.540	150.3005
0.652514	87.515	150.0747
0.657242	87.490	149.8479
0.662005	87.464	149.6202
0.666802	87.439	149.3917
0.671634	87.413	149.1626
0.676501	87.387	148.9331
0.681403	87.361	148.7032
0.686341	87.335	148.4733
0.691314	87.308	148.2433
0.696324	87.281	148.0137
0.701370	87.254	147.7843
0.706452	87.227	147.5555
0.711571	87.199	147.3273
0.716728	87.170	147.0996
0.721921	87.140	146.8723
0.727153	87.108	146.6448
0.732422	87.074	146.4167
0.737729	87.038	146.1869
0.743075	87.000	145.9546
0.748460	86.960	145.7190
0.753883	86.919	145.4794
0.759346	86.877	145.2354
0.764849	86.834	144.9868
0.770391	86.790	144.7332
0.775974	86.746	144.4745
0.781597	86.701	144.2107
0.787261	86.656	143.9416
0.792966	86.610	143.6672
0.798712	86.563	143.3874
0.804500	86.517	143.1021
0.810329	86.469	142.8114
0.816201	86.421	142.5151
0.822116	86.372	142.2132
0.828073	86.323	141.9057
0.834074	86.272	141.5925
0.840118	86.221	141.2735
0.846206	86.169	140.9489
0.852338	86.117	140.6184
0.858514	86.063	140.2822
0.864735	86.008	139.9401
0.871001	85.953	139.5923
0.877313	85.896	139.2386
0.883670	85.839	138.8791
0.890074	85.780	138.5139
0.896524	85.720	138.1429
0.903020	85.658	137.7662
0.909564	85.596	137.3839
0.916155	85.532	136.9960
0.922794	85.467	136.6026
0.929481	85.400	136.2037
0.936216	85.331	135.7996
0.943000	85.261	135.3904
0.949834	85.190	134.9761
0.956717	85.116	134.5570
0.963649	85.041	134.1332
0.970632	84.964	133.7050
0.977666	84.885	133.2727
0.984750	84.804	132.8364
0.991886	84.721	132.3966
0.999074	84.636	131.9534
1.006314	84.548	131.5074
1.013606	84.458	131.0589
1.020951	84.365	130.6084
1.028349	84.270	130.1563
1.035801	84.173	129.7032
1.043307	84.072	129.2496
1.050867	83.969	128.7962
1.058482	83.862	128.3435
1.066152	83.753	127.8922
1.073878	83.640	127.4427
1.081660	83.524	126.9955
1.089498	83.404	126.5508
1.097393	83.280	126.1085
1.105345	83.152	125.6682
1.113355	83.020	125.2294
1.121423	82.882	124.7911
1.129549	82.740	124.3530
1.137734	82.593	123.9141
1.145979	82.440	123.4742
1.154283	82.283	123.0325
1.162647	82.121	122.5887
1.171072	81.955	122.1422
1.179558	81.784	121.6925
1.188106	81.608	121.2392
1.196715	81.428	120.7816
1.205387	81.244	120.3191
1.214122	81.056	119.8512
1.222920	80.864	119.3771
1.231782	80.668	118.8961
1.240708	80.469	118.4074
1.249699	80.267	117.9102
1.258754	80.061	117.4036
1.267876	79.853	116.8865
1.277063	79.643	116.3580
1.286318	79.430	115.8168
1.295639	79.214	115.2617
1.305027	78.997	114.6914
1.314484	78.779	114.1044
1.324009	78.559	113.4991
1.333604	78.339	112.8737
1.343268	78.118	112.2265
1.353002	77.896	111.5553
1.362806	77.675	110.8579
1.372681	77.455	110.1320
1.382628	77.235	109.3749
1.392647	77.016	108.5839
1.402739	76.799	107.7560
1.412904	76.584	106.8880
1.423142	76.371	105.9766
1.433455	76.160	105.0181
1.443843	75.951	104.0091
1.454305	75.743	102.9454
1.464844	75.536	101.8230
1.475459	75.327	100.6366
1.486150	75.114	99.3800
1.496920	74.898	98.0452
1.507767	74.676	96.6218
1.518693	74.450	95.0975
1.529698	74.218	93.4570
1.540783	73.981	91.6819
1.551948	73.741	89.7501
1.563194	73.497	87.6351
1.574521	73.251	85.3053
1.585931	73.003	82.7226
1.597423	72.755	79.8416
1.608999	72.509	76.6088
1.620658	72.264	72.9623
1.632402	72.023	68.8325
1.644232	71.787	64.1456
1.656146	71.557	58.8314
1.668147	71.335	52.8372
1.680235	71.122	46.1492
1.692411	70.920	38.8192
1.704675	70.731	30.9858
1.717028	70.556	22.8755
1.729470	70.398	14.7720
1.742003	70.259	6.9585
1.754626	70.141	-0.3395
1.767341	70.045	-6.9853
1.780147	69.975	-12.9299
1.793047	69.934	-18.1910
1.806040	69.923	-22.8270
1.819128	69.945	-26.9153
1.832310	70.004	-30.5380
1.845587	70.101	-33.7728
1.858961	70.236	-36.6867
1.872432	70.411	-39.3343
1.886001	70.625	-41.7585
1.899667	70.874	-43.9923
1.913433	71.158	-46.0617
1.927299	71.473	-47.9868
1.941265	71.816	-49.7840
1.955332	72.184	-51.4665
1.969501	72.573	-53.0451
1.983773	72.980	-54.5288
1.998148	73.402	-55.9253
2.012627	73.834	-57.2408
2.027212	74.273	-58.4808
2.041902	74.715	-59.6497
2.056698	75.155	-60.7514
2.071602	75.591	-61.7892
2.086614	76.018	-62.7661
2.101734	76.432	-63.6846
2.116964	76.831	-64.5472
2.132304	77.209	-65.3565
2.147756	77.566	-66.1155
2.163320	77.898	-66.8280
2.178996	78.205	-67.4987
2.194786	78.488	-68.1338
2.210690	78.749	-68.7400
2.226710	78.989	-69.3240
2.242845	79.211	-69.8911
2.259098	79.417	-70.4451
2.275468	79.610	-70.9880
2.291957	79.789	-71.5206
2.308566	79.957	-72.0431
2.325295	80.114	-72.5550
2.342145	80.261	-73.0554
2.359117	80.400	-73.5432
2.376212	80.531	-74.0173
2.393431	80.655	-74.4763
2.410775	80.774	-74.9189
2.428244	80.887	-75.3435
2.445840	80.998	-75.7487
2.463564	81.106	-76.1331
2.481416	81.213	-76.4954
2.499397	81.319	-76.8343
2.517509	81.426	-77.1492
2.535752	81.533	-77.4399
2.554127	81.640	-77.7072
2.572635	81.747	-77.9522
2.591277	81.851	-78.1772
2.610055	81.953	-78.3840
2.628968	82.052	-78.5745
2.648019	82.147	-78.7501
2.667208	82.238	-78.9119
2.686535	82.325	-79.0605
2.706003	82.409	-79.1965
2.725612	82.490	-79.3203
2.745363	82.569	-79.4322
2.765257	82.645	-79.5322
2.785295	82.721	-79.6206
2.805478	82.795	-79.6975
2.825808	82.869	-79.7627
2.846285	82.944	-79.8162
2.866910	83.018	-79.8579
2.887685	83.094	-79.8873
2.908611	83.171	-79.9039
2.929688	83.249	-79.9071
2.950917	83.328	-79.8964
2.972301	83.406	-79.8714
2.993839	83.485	-79.8322
3.015534	83.563	-79.7797
3.037386	83.641	-79.7149
3.059396	83.719	-79.6393
3.081565	83.797	-79.5545
3.103896	83.875	-79.4622
3.126388	83.953	-79.3644
3.149043	84.032	-79.2627
3.171862	84.111	-79.1591
3.194847	84.191	-79.0550
3.217998	84.273	-78.9517
3.241317	84.356	-78.8502
3.264805	84.440	-78.7506
3.288463	84.526	-78.6525
3.312293	84.614	-78.5548
3.336295	84.704	-78.4566
3.360471	84.795	-78.3572
3.384822	84.887	-78.2567
3.409350	84.981	-78.1563
3.434056	85.076	-78.0573
3.458940	85.172	-77.9618
3.484005	85.269	-77.8720
3.509252	85.366	-77.7901
3.534681	85.463	-77.7183
3.560295	85.561	-77.6588
3.586094	85.659	-77.6134
3.612081	85.757	-77.5833
3.638255	85.855	-77.5694
3.664620	85.952	-77.5717
3.691175	86.050	-77.5896
3.717923	86.148	-77.6222
3.744864	86.246	-77.6685
3.772001	86.345	-77.7278
3.799335	86.443	-77.7995
3.826866	86.541	-77.8832
3.854597	86.638	-77.9786
3.882529	86.734	-78.0855
3.910664	86.830	-78.2041
3.939002	86.924	-78.3342
3.967546	87.016	-78.4762
3.996296	87.107	-78.6304
4.025255	87.196	-78.7972
4.054423	87.283	-78.9768
4.083804	87.368	-79.1694
4.113396	87.452	-79.3745
4.143204	87.534	-79.5912
4.173227	87.614	-79.8185
4.203468	87.692	-80.0549
4.233928	87.768	-80.2990
4.264609	87.843	-80.5493
4.295512	87.915	-80.8046
4.326639	87.985	-81.0642
4.357992	88.054	-81.3275
4.389572	88.119	-81.5948
4.421380	88.183	-81.8664
4.453419	88.244	-82.1428
4.485691	88.303	-82.4243
4.518196	88.359	-82.7101
4.550936	88.413	-82.9992
4.583914	88.465	-83.2901
4.617131	88.515	-83.5812
4.650589	88.564	-83.8706
4.684289	88.610	-84.1570
4.718233	88.656	-84.4391
4.752424	88.700	-84.7164
4.786862	88.742	-84.9889
4.821549	88.782	-85.2568
4.856488	88.821	-85.5207
4.891680	88.859	-85.7808
4.927127	88.895	-86.0371
4.962831	88.930	-86.2895
4.998794	88.964	-86.5376
5.035017	88.999	-86.7809
5.071503	89.032	-87.0190
5.108253	89.066	-87.2513
5.145270	89.100	-87.4775
5.182555	89.134	-87.6977
5.220110	89.168	-87.9123
5.257937	89.202	-88.1223
5.296038	89.236	-88.3288
5.334415	89.271	-88.5333
5.373071	89.307	-88.7372
5.412006	89.343	-88.9416
5.451224	89.380	-89.1474
5.490725	89.418	-89.3550
5.530514	89.458	-89.5646
5.570590	89.498	-89.7764
5.610957	89.540	-89.9911
5.651616	89.583	-90.2096
5.692570	89.627	-90.4337
5.733821	89.671	-90.6651
5.775370	89.717	-90.9053
5.817221	89.763	-91.1559
5.859375	89.810	-91.4177
5.901834	89.858	-91.6910
5.944602	89.907	-91.9760
5.987679	89.956	-92.2726
6.031068	90.005	-92.5809
6.074771	90.055	-92.9011
6.118792	90.104	-93.2336
6.163131	90.153	-93.5789
6.207792	90.202	-93.9374
6.252776	90.250	-94.3095
6.298086	90.297	-94.6948
6.343725	90.343	-95.0928
6.389694	90.389	-95.5022
6.435996	90.433	-95.9214
6.482634	90.477	-96.3490
6.529610	90.519	-96.7836
6.576926	90.559	-97.2243
6.624585	90.598	-97.6707
6.672590	90.635	-98.1222
6.720942	90.671	-98.5778
6.769645	90.705	-99.0358
6.818700	90.738	-99.4942
6.868111	90.770	-99.9508
6.917881	90.801	-100.4037
6.968010	90.830	-100.8515
7.018504	90.858	-101.2936
7.069362	90.886	-101.7293
7.120590	90.913	-102.1579
7.172189	90.939	-102.5786
7.224161	90.966	-102.9902
7.276511	90.992	-103.3915
7.329239	91.020	-103.7817
7.382350	91.048	-104.1604
7.435845	91.077	-104.5280
7.489729	91.108	-104.8852
7.544002	91.140	-105.2332
7.598669	91.174	-105.5732
7.653732	91.211	-105.9061
7.709194	91.250	-106.2327
7.765058	91.292	-106.5541
7.821327	91.336	-106.8716
7.878004	91.383	-107.1876
7.935091	91.434	-107.5046
7.992592	91.486	-107.8252
8.050510	91.542	-108.1516
8.108847	91.601	-108.4855
8.167607	91.662	-108.8279
8.226793	91.725	-109.1806
8.286408	91.791	-109.5451
8.346454	91.858	-109.9233
8.406936	91.926	-110.3167
8.467856	91.995	-110.7262
8.529218	92.065	-111.1519
8.591024	92.135	-111.5934
8.653278	92.205	-112.0501
8.715983	92.274	-112.5213
8.779143	92.342	-113.0064
8.842760	92.408	-113.5045
8.906839	92.472	-114.0140
8.971381	92.535	-114.5327
9.036392	92.594	-115.0579
9.101873	92.651	-115.5868
9.167829	92.705	-116.1170
9.234263	92.756	-116.6462
9.301178	92.804	-117.1718
9.368578	92.848	-117.6908
9.436467	92.890	-118.1998
9.504847	92.928	-118.6956
9.573723	92.964	-119.1756
9.643099	92.996	-119.6376
9.712976	93.025	-120.0797
9.783361	93.051	-120.4996
9.854255	93.073	-120.8954
9.925663	93.092	-121.2655
9.997588	93.109	-121.6094
10.070035	93.123	-121.9268
10.143007	93.135	-122.2181
10.216507	93.147	-122.4840
10.290540	93.159	-122.7255
10.365109	93.171	-122.9441
10.440219	93.184	-123.1420
10.515873	93.200	-123.3223
10.592076	93.217	-123.4880
10.668830	93.237	-123.6422
10.746141	93.261	-123.7881
10.824012	93.287	-123.9293
10.902447	93.316	-124.0694
10.981451	93.348	-124.2120
11.061027	93.382	-124.3603
11.141180	93.419	-124.5169
11.221913	93.457	-124.6843
11.303232	93.497	-124.8647
11.385140	93.537	-125.0598
11.467641	93.579	-125.2709
11.550741	93.620	-125.4984
11.634442	93.661	-125.7426
11.718750	93.702	-126.0034
11.803669	93.742	-126.2802
11.889203	93.781	-126.5722
11.975357	93.818	-126.8780
12.062136	93.854	-127.1963
12.149543	93.888	-127.5255
12.237583	93.919	-127.8640
12.326262	93.948	-128.2102
12.415583	93.975	-128.5623
12.505552	93.999	-128.9187
12.596172	94.021	-129.2781
12.687449	94.041	-129.6391
12.779387	94.058	-130.0005
12.871992	94.073	-130.3614
12.965268	94.086	-130.7212
13.059220	94.098	-131.0792
13.153852	94.108	-131.4353
13.249170	94.117	-131.7894
13.345179	94.126	-132.1414
13.441884	94.134	-132.4917
13.539289	94.141	-132.8407
13.637401	94.148	-133.1888
13.736223	94.154	-133.5364
13.835761	94.160	-133.8842
13.936021	94.166	-134.2325
14.037007	94.172	-134.5820
14.138725	94.177	-134.9328
14.241180	94.181	-135.2854
14.344377	94.186	-135.6399
14.448323	94.190	-135.9963
14.553021	94.193	-136.3545
14.658478	94.197	-136.7144
14.764700	94.200	-137.0757
14.871691	94.203	-137.4380
14.979457	94.207	-137.8009
15.088005	94.210	-138.1640
15.197339	94.214	-138.5269
15.307465	94.218	-138.8892
15.418389	94.222	-139.2505
15.530117	94.227	-139.6106
15.642655	94.232	-139.9693
15.756008	94.238	-140.3267
15.870182	94.245	-140.6826
15.985184	94.252	-141.0371
16.101019	94.260	-141.3905
16.217694	94.269	-141.7429
16.335214	94.278	-142.0945
16.453586	94.289	-142.4453
16.572815	94.300	-142.7955
16.692909	94.313	-143.1451
16.813872	94.326	-143.4937
16.935713	94.340	-143.8413
17.058436	94.355	-144.1875
17.182048	94.371	-144.5316
17.306556	94.387	-144.8734
17.431967	94.403	-145.2120
17.558286	94.420	-145.5470
17.685521	94.436	-145.8779
17.813677	94.453	-146.2041
17.942762	94.469	-146.5253
18.072783	94.486	-146.8414
18.203746	94.503	-147.1522
18.335658	94.520	-147.4579
18.468526	94.536	-147.7585
18.602356	94.553	-148.0545
18.737156	94.570	-148.3461
18.872934	94.587	-148.6338
19.009695	94.604	-148.9179
19.147447	94.621	-149.1988
19.286197	94.637	-149.4767
19.425953	94.653	-149.7521
19.566721	94.668	-150.0250
19.708510	94.682	-150.2956
19.851326	94.696	-150.5642
19.995177	94.709	-150.8310
20.140070	94.720	-151.0960
20.286013	94.731	-151.3598
20.433014	94.740	-151.6224
20.581080	94.749	-151.8845
20.730219	94.757	-152.1465
20.880439	94.763	-152.4088
21.031747	94.769	-152.6720
21.184152	94.775	-152.9367
21.337661	94.779	-153.2033
21.492282	94.783	-153.4722
21.648024	94.787	-153.7440
21.804895	94.789	-154.0188
21.962902	94.791	-154.2972
22.122054	94.792	-154.5793
22.282360	94.793	-154.8654
22.443827	94.793	-155.1558
22.606464	94.793	-155.4509
22.770280	94.793	-155.7509
22.935283	94.792	-156.0561
23.101481	94.791	-156.3667
23.268884	94.790	-156.6827
23.437500	94.789	-157.0043
23.607338	94.787	-157.3312
23.778406	94.786	-157.6631
23.950714	94.785	-157.9995
24.124271	94.783	-158.3398
24.299086	94.782	-158.6833
24.475167	94.781	-159.0291
24.652524	94.781	-159.3765
24.831166	94.781	-159.7247
25.011103	94.781	-160.0732
25.192344	94.782	-160.4214
25.374898	94.784	-160.7689
25.558775	94.787	-161.1155
25.743984	94.790	-161.4609
25.930536	94.794	-161.8047
26.118439	94.798	-162.1463
26.307704	94.803	-162.4851
26.498341	94.808	-162.8203
26.690359	94.813	-163.1509
26.883768	94.818	-163.4758
27.078579	94.822	-163.7940
27.274801	94.827	-164.1047
27.472446	94.832	-164.4076
27.671522	94.836	-164.7026
27.872042	94.840	-164.9902
28.074014	94.845	-165.2712
28.277450	94.849	-165.5466
28.482360	94.853	-165.8177
28.688755	94.856	-166.0853
28.896645	94.859	-166.3502
29.106042	94.861	-166.6127
29.316957	94.862	-166.8727
29.529400	94.862	-167.1300
29.743382	94.861	-167.3845
29.958915	94.859	-167.6362
30.176009	94.856	-167.8853
30.394677	94.854	-168.1327
30.614929	94.850	-168.3797
30.836778	94.847	-168.6276
31.060234	94.843	-168.8778
31.285309	94.839	-169.1313
31.512015	94.835	-169.3888
31.740364	94.830	-169.6502
31.970368	94.825	-169.9149
32.202039	94.819	-170.1821
32.435388	94.813	-170.4511
32.670428	94.808	-170.7213
32.907171	94.802	-170.9926
33.145630	94.798	-171.2655
33.385817	94.794	-171.5407
33.627745	94.791	-171.8191
33.871425	94.789	-172.1012
34.116871	94.787	-172.3872
34.364096	94.786	-172.6767
34.613113	94.785	-172.9687
34.863934	94.785	-173.2623
35.116572	94.785	-173.5567
35.371041	94.785	-173.8512
35.627354	94.785	-174.1461
35.885525	94.785	-174.4418
36.145566	94.786	-174.7388
36.407492	94.786	-175.0374
36.671316	94.785	-175.3370
36.937051	94.783	-175.6365
37.204712	94.780	-175.9341
37.474313	94.776	-176.2280
37.745867	94.770	-176.5166
38.019389	94.763	-176.7993
38.294893	94.756	-177.0761
38.572394	94.747	-177.3477
38.851905	94.738	-177.6146
39.133442	94.728	-177.8771
39.417019	94.718	-178.1350
39.702651	94.706	-178.3878
39.990353	94.694	-178.6351
40.280140	94.682	-178.8773
40.572026	94.670	-179.1154
40.866028	94.658	-179.3507
41.162160	94.647	-179.5843
41.460438	94.635	-179.8156
41.760877	94.623	179.9569
42.063494	94.611	179.7360
42.368303	94.600	179.5239
42.675322	94.590	179.3210
42.984565	94.582	179.1251
43.296048	94.576	178.9314
43.609789	94.574	178.7345
43.925804	94.573	178.5293
44.244108	94.574	178.3127
44.564719	94.577	178.0839
44.887654	94.579	177.8429
45.212928	94.582	177.5902
45.540560	94.585	177.3255
45.870565	94.588	177.0485
46.202962	94.590	176.7596
46.537768	94.590	176.4612
46.875000	94.589	176.1570
47.214676	94.585	175.8512
47.556813	94.581	175.5463
47.901429	94.576	175.2424
48.248542	94.570	174.9375
48.598171	94.564	174.6296
48.950334	94.556	174.3188
49.305048	94.546	174.0076
49.662333	94.535	173.7003
50.022206	94.522	173.4003
50.384688	94.509	173.1085
50.749796	94.496	172.8230
51.117550	94.482	172.5403
51.487969	94.469	172.2587
51.861072	94.454	171.9786
52.236879	94.439	171.7030
52.615409	94.423	171.4350
52.996681	94.408	171.1757
53.380717	94.393	170.9229
53.767536	94.380	170.6723
54.157158	94.368	170.4189
54.549603	94.357	170.1590
54.944892	94.347	169.8905
55.343045	94.337	169.6132
55.744084	94.326	169.3274
56.148028	94.316	169.0342
56.554900	94.304	168.7352
56.964720	94.291	168.4321
57.377510	94.278	168.1272
57.793291	94.263	167.8225
58.212085	94.248	167.5194
58.633914	94.232	167.2187
59.058799	94.215	166.9208
59.486764	94.197	166.6263
59.917829	94.178	166.3361
60.352019	94.159	166.0510
60.789354	94.138	165.7712
61.229859	94.118	165.4962
61.673556	94.097	165.2248
62.120468	94.075	164.9560
62.570618	94.054	164.6892
63.024031	94.032	164.4243
63.480729	94.010	164.1618
63.940736	93.988	163.9021
64.404077	93.965	163.6456
64.870776	93.943	163.3922
65.340856	93.921	163.1418
65.814343	93.899	162.8938
66.291261	93.877	162.6483
66.771635	93.855	162.4053
67.255489	93.834	162.1651
67.742850	93.812	161.9282
68.233743	93.791	161.6945
68.728193	93.769	161.4637
69.226226	93.749	161.2345
69.727867	93.728	161.0056
70.233144	93.707	160.7756
70.742083	93.687	160.5434
