* Measurement data measured by REW V5.30.9
* Source: EXCL: Microphone (USB Sound Device        ), no input selected, L, volume: no control
* Format: 256k Log Swept Sine, 1 sweep at -9.0 dBFS with no timing reference
* Dated: Mar 24, 2024 3:57:12 PM
* REW Settings:
*  C-weighting compensation: Off
*  Target level: 75.0 dB
* Note: EPZ Q1 Pro R
* Measurement: R EPZ Q1 Pro
* Smoothing: 1/12 octave
* Frequency Step: 96 ppo
* Start Frequency: 0.36621094 Hz
*
* Freq(Hz) SPL(dB) Phase(degrees)
0.366211 89.766 158.4159
0.368865 89.760 158.3932
0.371538 89.750 158.3593
0.374230 89.739 158.3165
0.376942 89.725 158.2673
0.379673 89.711 158.2131
0.382424 89.696 158.1551
0.385196 89.681 158.0939
0.387987 89.665 158.0299
0.390798 89.649 157.9632
0.393630 89.633 157.8940
0.396483 89.617 157.8224
0.399356 89.601 157.7482
0.402250 89.585 157.6716
0.405165 89.568 157.5924
0.408101 89.552 157.5107
0.411058 89.535 157.4264
0.414037 89.518 157.3395
0.417037 89.501 157.2501
0.420059 89.484 157.1580
0.423103 89.467 157.0632
0.426169 89.450 156.9657
0.429257 89.432 156.8656
0.432367 89.415 156.7626
0.435501 89.397 156.6570
0.438656 89.379 156.5485
0.441835 89.361 156.4373
0.445037 89.343 156.3232
0.448262 89.325 156.2062
0.451510 89.307 156.0864
0.454782 89.288 155.9637
0.458077 89.270 155.8380
0.461397 89.251 155.7094
0.464740 89.232 155.5779
0.468108 89.213 155.4433
0.471500 89.194 155.3058
0.474917 89.175 155.1653
0.478358 89.155 155.0217
0.481825 89.136 154.8751
0.485316 89.116 154.7254
0.488833 89.096 154.5727
0.492375 89.076 154.4169
0.495943 89.056 154.2579
0.499537 89.036 154.0959
0.503157 89.015 153.9307
0.506803 88.995 153.7624
0.510475 88.974 153.5910
0.514174 88.953 153.4165
0.517900 88.932 153.2388
0.521653 88.911 153.0580
0.525433 88.890 152.8741
0.529241 88.868 152.6870
0.533076 88.847 152.4968
0.536939 88.825 152.3035
0.540830 88.803 152.1071
0.544749 88.781 151.9076
0.548696 88.759 151.7050
0.552673 88.736 151.4994
0.556677 88.714 151.2908
0.560711 88.691 151.0791
0.564774 88.668 150.8644
0.568867 88.645 150.6469
0.572989 88.621 150.4263
0.577141 88.598 150.2029
0.581324 88.574 149.9767
0.585536 88.551 149.7477
0.589779 88.527 149.5160
0.594053 88.503 149.2816
0.598358 88.478 149.0445
0.602694 88.454 148.8049
0.607061 88.429 148.5628
0.611460 88.404 148.3183
0.615891 88.379 148.0715
0.620354 88.354 147.8224
0.624849 88.329 147.5712
0.629377 88.303 147.3179
0.633938 88.278 147.0627
0.638532 88.252 146.8057
0.643159 88.226 146.5469
0.647819 88.199 146.2866
0.652514 88.173 146.0248
0.657242 88.146 145.7617
0.662005 88.119 145.4974
0.666802 88.092 145.2321
0.671634 88.065 144.9660
0.676501 88.038 144.6993
0.681403 88.010 144.4321
0.686341 87.982 144.1646
0.691314 87.954 143.8970
0.696324 87.925 143.6296
0.701369 87.897 143.3624
0.706452 87.868 143.0957
0.711571 87.838 142.8295
0.716727 87.807 142.5637
0.721921 87.775 142.2981
0.727153 87.742 142.0323
0.732422 87.706 141.7653
0.737729 87.667 141.4963
0.743075 87.626 141.2241
0.748460 87.584 140.9478
0.753883 87.540 140.6665
0.759346 87.494 140.3798
0.764849 87.448 140.0873
0.770391 87.401 139.7888
0.775974 87.354 139.4840
0.781597 87.306 139.1727
0.787261 87.257 138.8550
0.792965 87.208 138.5306
0.798712 87.158 138.1995
0.804499 87.107 137.8616
0.810329 87.056 137.5168
0.816201 87.004 137.1651
0.822116 86.951 136.8062
0.828073 86.898 136.4403
0.834073 86.843 136.0671
0.840118 86.788 135.6867
0.846205 86.732 135.2990
0.852337 86.675 134.9038
0.858514 86.617 134.5013
0.864735 86.558 134.0912
0.871001 86.498 133.6737
0.877313 86.437 133.2486
0.883670 86.375 132.8160
0.890074 86.311 132.3759
0.896523 86.246 131.9282
0.903020 86.180 131.4730
0.909564 86.113 131.0103
0.916155 86.044 130.5401
0.922793 85.974 130.0627
0.929480 85.902 129.5779
0.936216 85.828 129.0859
0.943000 85.753 128.5869
0.949833 85.676 128.0810
0.956716 85.598 127.5684
0.963649 85.517 127.0492
0.970632 85.435 126.5238
0.977666 85.350 125.9923
0.984750 85.264 125.4550
0.991886 85.175 124.9124
0.999074 85.085 124.3647
1.006313 84.991 123.8123
1.013605 84.896 123.2558
1.020950 84.798 122.6956
1.028349 84.697 122.1322
1.035801 84.594 121.5662
1.043306 84.488 120.9982
1.050867 84.379 120.4290
1.058482 84.267 119.8592
1.066152 84.152 119.2893
1.073878 84.033 118.7200
1.081659 83.911 118.1517
1.089498 83.785 117.5843
1.097393 83.654 117.0175
1.105345 83.517 116.4506
1.113355 83.376 115.8824
1.121422 83.228 115.3118
1.129549 83.073 114.7376
1.137734 82.912 114.1588
1.145978 82.744 113.5743
1.154283 82.570 112.9832
1.162647 82.390 112.3846
1.171072 82.203 111.7775
1.179558 82.011 111.1610
1.188106 81.813 110.5340
1.196715 81.610 109.8955
1.205387 81.402 109.2442
1.214122 81.190 108.5789
1.222920 80.973 107.8983
1.231781 80.752 107.2009
1.240708 80.528 106.4852
1.249698 80.301 105.7494
1.258754 80.072 104.9917
1.267875 79.840 104.2102
1.277063 79.606 103.4028
1.286317 79.372 102.5671
1.295638 79.137 101.7007
1.305027 78.902 100.8009
1.314484 78.667 99.8649
1.324009 78.434 98.8895
1.333603 78.202 97.8713
1.343267 77.973 96.8069
1.353001 77.747 95.6924
1.362805 77.525 94.5237
1.372681 77.307 93.2966
1.382628 77.095 92.0064
1.392647 76.890 90.6484
1.402739 76.691 89.2177
1.412904 76.500 87.7093
1.423142 76.318 86.1180
1.433455 76.145 84.4383
1.443842 75.981 82.6646
1.454305 75.828 80.7905
1.464843 75.683 78.8086
1.475458 75.548 76.7094
1.486150 75.421 74.4820
1.496919 75.301 72.1133
1.507766 75.188 69.5887
1.518692 75.082 66.8925
1.529697 74.981 64.0085
1.540782 74.887 60.9202
1.551947 74.799 57.6123
1.563193 74.717 54.0715
1.574521 74.642 50.2878
1.585931 74.573 46.2571
1.597423 74.510 41.9825
1.608998 74.454 37.4771
1.620658 74.405 32.7657
1.632402 74.363 27.8854
1.644231 74.328 22.8848
1.656146 74.300 17.8226
1.668147 74.279 12.7622
1.680235 74.266 7.7683
1.692410 74.261 2.9006
1.704674 74.263 -1.7899
1.717027 74.274 -6.2638
1.729469 74.292 -10.4939
1.742002 74.319 -14.4652
1.754625 74.355 -18.1732
1.767340 74.399 -21.6217
1.780147 74.453 -24.8214
1.793046 74.517 -27.7878
1.806040 74.592 -30.5403
1.819127 74.680 -33.1013
1.832309 74.781 -35.4947
1.845587 74.898 -37.7445
1.858961 75.033 -39.8724
1.872431 75.185 -41.8960
1.886000 75.355 -43.8287
1.899666 75.543 -45.6801
1.913432 75.747 -47.4575
1.927298 75.967 -49.1659
1.941264 76.200 -50.8091
1.955331 76.446 -52.3902
1.969500 76.703 -53.9112
1.983772 76.968 -55.3741
1.998147 77.241 -56.7803
2.012626 77.520 -58.1308
2.027211 77.801 -59.4265
2.041901 78.084 -60.6681
2.056697 78.366 -61.8562
2.071601 78.646 -62.9910
2.086613 78.920 -64.0731
2.101733 79.188 -65.1028
2.116963 79.447 -66.0806
2.132303 79.694 -67.0074
2.147755 79.930 -67.8848
2.163318 80.151 -68.7153
2.178995 80.358 -69.5030
2.194785 80.551 -70.2531
2.210689 80.731 -70.9724
2.226709 80.898 -71.6676
2.242844 81.054 -72.3441
2.259097 81.201 -73.0059
2.275467 81.339 -73.6551
2.291956 81.468 -74.2929
2.308565 81.590 -74.9193
2.325294 81.705 -75.5338
2.342144 81.814 -76.1355
2.359116 81.917 -76.7231
2.376211 82.014 -77.2952
2.393430 82.107 -77.8503
2.410774 82.196 -78.3864
2.428243 82.282 -78.9020
2.445839 82.365 -79.3949
2.463562 82.445 -79.8633
2.481415 82.525 -80.3054
2.499396 82.603 -80.7194
2.517508 82.680 -81.1043
2.535750 82.757 -81.4594
2.554126 82.833 -81.7850
2.572634 82.907 -82.0824
2.591276 82.979 -82.3535
2.610054 83.048 -82.6004
2.628967 83.114 -82.8251
2.648018 83.176 -83.0292
2.667206 83.234 -83.2139
2.686534 83.290 -83.3799
2.706002 83.343 -83.5280
2.725610 83.393 -83.6585
2.745361 83.441 -83.7719
2.765255 83.489 -83.8682
2.785294 83.535 -83.9478
2.805477 83.581 -84.0107
2.825807 83.628 -84.0568
2.846284 83.676 -84.0860
2.866909 83.725 -84.0980
2.887684 83.776 -84.0922
2.908609 83.829 -84.0677
2.929686 83.883 -84.0234
2.950916 83.939 -83.9582
2.972299 83.997 -83.8713
2.993838 84.055 -83.7628
3.015532 84.114 -83.6336
3.037384 84.173 -83.4852
3.059394 84.234 -83.3198
3.081564 84.295 -83.1398
3.103894 84.357 -82.9480
3.126386 84.421 -82.7473
3.149041 84.486 -82.5406
3.171861 84.554 -82.3306
3.194845 84.623 -82.1202
3.217996 84.695 -81.9113
3.241315 84.769 -81.7057
3.264803 84.847 -81.5037
3.288461 84.928 -81.3051
3.312291 85.012 -81.1084
3.336293 85.099 -80.9120
3.360469 85.190 -80.7150
3.384820 85.284 -80.5178
3.409348 85.380 -80.3218
3.434054 85.480 -80.1292
3.458938 85.581 -79.9430
3.484003 85.684 -79.7663
3.509250 85.789 -79.6024
3.534679 85.895 -79.4545
3.560293 86.001 -79.3257
3.586092 86.108 -79.2184
3.612079 86.216 -79.1346
3.638253 86.323 -79.0753
3.664618 86.431 -79.0404
3.691173 86.540 -79.0290
3.717921 86.649 -79.0398
3.744862 86.758 -79.0712
3.771999 86.869 -79.1221
3.799332 86.979 -79.1916
3.826864 87.090 -79.2789
3.854595 87.200 -79.3837
3.882527 87.309 -79.5056
3.910661 87.417 -79.6445
3.938999 87.524 -79.8005
3.967543 87.628 -79.9739
3.996294 87.730 -80.1650
4.025252 87.830 -80.3745
4.054421 87.928 -80.6026
4.083801 88.023 -80.8494
4.113394 88.116 -81.1143
4.143201 88.207 -81.3960
4.173225 88.295 -81.6927
4.203466 88.381 -82.0023
4.233926 88.465 -82.3226
4.264606 88.546 -82.6516
4.295509 88.625 -82.9876
4.326636 88.701 -83.3293
4.357989 88.773 -83.6763
4.389569 88.843 -84.0288
4.421378 88.910 -84.3876
4.453417 88.973 -84.7534
4.485688 89.033 -85.1264
4.518193 89.090 -85.5057
4.550934 89.145 -85.8898
4.583912 89.196 -86.2763
4.617129 89.245 -86.6628
4.650587 89.291 -87.0468
4.684287 89.335 -87.4260
4.718231 89.377 -87.7987
4.752421 89.416 -88.1643
4.786859 89.453 -88.5228
4.821547 89.488 -88.8748
4.856485 89.520 -89.2208
4.891677 89.550 -89.5610
4.927125 89.578 -89.8951
4.962829 89.605 -90.2223
4.998791 89.630 -90.5415
5.035015 89.654 -90.8516
5.071500 89.678 -91.1514
5.108251 89.702 -91.4400
5.145267 89.725 -91.7167
5.182552 89.748 -91.9816
5.220107 89.770 -92.2353
5.257934 89.792 -92.4786
5.296035 89.815 -92.7130
5.334412 89.838 -92.9398
5.373067 89.861 -93.1603
5.412003 89.886 -93.3756
5.451221 89.912 -93.5865
5.490722 89.939 -93.7930
5.530510 89.968 -93.9953
5.570587 89.999 -94.1937
5.610953 90.031 -94.3892
5.651613 90.065 -94.5833
5.692567 90.101 -94.7785
5.733818 90.138 -94.9770
5.775367 90.177 -95.1814
5.817218 90.218 -95.3936
5.859372 90.260 -95.6146
5.901831 90.304 -95.8450
5.944598 90.350 -96.0850
5.987675 90.397 -96.3352
6.031065 90.446 -96.5963
6.074768 90.496 -96.8695
6.118788 90.547 -97.1561
6.163127 90.598 -97.4576
6.207788 90.650 -97.7749
6.252772 90.701 -98.1087
6.298082 90.754 -98.4589
6.343721 90.806 -98.8249
6.389690 90.858 -99.2059
6.435992 90.910 -99.6011
6.482630 90.961 -100.0095
6.529606 91.011 -100.4304
6.576922 91.060 -100.8635
6.624581 91.108 -101.3085
6.672585 91.155 -101.7650
6.720938 91.200 -102.2320
6.769640 91.245 -102.7079
6.818696 91.287 -103.1907
6.868107 91.329 -103.6785
6.917876 91.369 -104.1696
6.968006 91.408 -104.6629
7.018499 91.445 -105.1578
7.069358 91.481 -105.6535
7.120586 91.516 -106.1490
7.172184 91.549 -106.6430
7.224157 91.582 -107.1338
7.276506 91.614 -107.6198
7.329235 91.646 -108.0999
7.382345 91.677 -108.5736
7.435841 91.708 -109.0406
7.489724 91.739 -109.5010
7.543997 91.770 -109.9545
7.598664 91.802 -110.4011
7.653728 91.834 -110.8406
7.709189 91.867 -111.2730
7.765053 91.902 -111.6983
7.821322 91.937 -112.1171
7.877998 91.973 -112.5304
7.935086 92.011 -112.9392
7.992587 92.050 -113.3446
8.050504 92.091 -113.7476
8.108841 92.133 -114.1488
8.167601 92.177 -114.5488
8.226787 92.223 -114.9485
8.286402 92.270 -115.3489
8.346449 92.318 -115.7512
8.406931 92.367 -116.1562
8.467851 92.417 -116.5646
8.529212 92.468 -116.9765
8.591018 92.520 -117.3922
8.653272 92.572 -117.8115
8.715977 92.625 -118.2346
8.779137 92.678 -118.6614
8.842754 92.731 -119.0917
8.906833 92.783 -119.5250
8.971375 92.836 -119.9607
9.036386 92.888 -120.3977
9.101867 92.939 -120.8351
9.167823 92.989 -121.2721
9.234257 93.039 -121.7080
9.301172 93.088 -122.1418
9.368572 93.137 -122.5728
9.436460 93.184 -122.9997
9.504841 93.231 -123.4217
9.573717 93.277 -123.8381
9.643092 93.322 -124.2483
9.712970 93.367 -124.6521
9.783354 93.411 -125.0489
9.854248 93.455 -125.4386
9.925656 93.499 -125.8209
9.997581 93.542 -126.1959
10.070028 93.585 -126.5639
10.143000 93.628 -126.9252
10.216500 93.671 -127.2803
10.290533 93.713 -127.6296
10.365103 93.756 -127.9736
10.440212 93.798 -128.3128
10.515866 93.840 -128.6479
10.592069 93.882 -128.9794
10.668823 93.924 -129.3079
10.746134 93.966 -129.6339
10.824005 94.007 -129.9576
10.902440 94.048 -130.2794
10.981443 94.088 -130.5997
11.061020 94.127 -130.9186
11.141172 94.166 -131.2361
11.221906 94.204 -131.5525
11.303225 94.241 -131.8675
11.385133 94.277 -132.1814
11.467634 94.313 -132.4939
11.550734 94.347 -132.8052
11.634435 94.381 -133.1152
11.718742 94.413 -133.4240
11.803661 94.445 -133.7316
11.889195 94.476 -134.0383
11.975349 94.506 -134.3441
12.062128 94.534 -134.6493
12.149535 94.563 -134.9543
12.237576 94.590 -135.2592
12.326254 94.616 -135.5645
12.415575 94.641 -135.8704
12.505544 94.666 -136.1772
12.596164 94.690 -136.4853
12.687441 94.712 -136.7947
12.779379 94.734 -137.1056
12.871984 94.755 -137.4183
12.965260 94.775 -137.7326
13.059211 94.794 -138.0487
13.153843 94.811 -138.3664
13.249161 94.829 -138.6857
13.345170 94.845 -139.0067
13.441875 94.860 -139.3291
13.539280 94.875 -139.6532
13.637391 94.889 -139.9787
13.736214 94.902 -140.3061
13.835752 94.915 -140.6353
13.936011 94.928 -140.9667
14.036998 94.940 -141.3006
14.138716 94.952 -141.6374
14.241171 94.964 -141.9775
14.344368 94.976 -142.3212
14.448313 94.988 -142.6689
14.553011 95.000 -143.0210
14.658468 95.011 -143.3775
14.764689 95.023 -143.7386
14.871680 95.034 -144.1042
14.979446 95.045 -144.4742
15.087994 95.056 -144.8483
15.197328 95.067 -145.2261
15.307454 95.078 -145.6072
15.418378 95.089 -145.9910
15.530106 95.100 -146.3770
15.642643 95.111 -146.7647
15.755996 95.121 -147.1535
15.870171 95.132 -147.5432
15.985172 95.144 -147.9333
16.101007 95.155 -148.3235
16.217682 95.167 -148.7138
16.335201 95.179 -149.1039
16.453573 95.192 -149.4936
16.572803 95.205 -149.8831
16.692898 95.218 -150.2720
16.813862 95.232 -150.6601
16.935701 95.246 -151.0474
17.058424 95.261 -151.4333
17.182035 95.275 -151.8176
17.306543 95.290 -152.1996
17.431953 95.305 -152.5791
17.558273 95.319 -152.9554
17.685509 95.334 -153.3282
17.813665 95.349 -153.6969
17.942751 95.363 -154.0612
18.072771 95.378 -154.4210
18.203733 95.393 -154.7761
18.335646 95.407 -155.1263
18.468513 95.421 -155.4719
18.602345 95.436 -155.8128
18.737144 95.449 -156.1491
18.872921 95.463 -156.4810
19.009682 95.476 -156.8086
19.147434 95.489 -157.1319
19.286184 95.501 -157.4512
19.425940 95.512 -157.7664
19.566708 95.523 -158.0776
19.708496 95.533 -158.3850
19.851313 95.542 -158.6889
19.995163 95.550 -158.9893
20.140057 95.558 -159.2868
20.285999 95.565 -159.5817
20.433001 95.571 -159.8743
20.581066 95.576 -160.1653
20.730206 95.581 -160.4549
20.880424 95.584 -160.7437
21.031733 95.587 -161.0320
21.184137 95.588 -161.3201
21.337646 95.589 -161.6083
21.492268 95.589 -161.8971
21.648010 95.589 -162.1865
21.804880 95.587 -162.4770
21.962887 95.585 -162.7690
22.122040 95.582 -163.0628
22.282345 95.579 -163.3589
22.443811 95.576 -163.6576
22.606449 95.571 -163.9594
22.770266 95.567 -164.2646
22.935268 95.562 -164.5731
23.101467 95.557 -164.8851
23.268869 95.551 -165.2004
23.437485 95.546 -165.5188
23.607323 95.540 -165.8398
23.778391 95.534 -166.1632
23.950699 95.528 -166.4884
24.124256 95.522 -166.8152
24.299070 95.516 -167.1431
24.475151 95.511 -167.4720
24.652508 95.505 -167.8014
24.831150 95.500 -168.1311
25.011087 95.496 -168.4607
25.192327 95.491 -168.7896
25.374882 95.487 -169.1174
25.558758 95.483 -169.4435
25.743967 95.479 -169.7673
25.930519 95.476 -170.0883
26.118422 95.472 -170.4061
26.307686 95.469 -170.7202
26.498322 95.466 -171.0304
26.690340 95.463 -171.3366
26.883749 95.460 -171.6386
27.078560 95.457 -171.9363
27.274782 95.454 -172.2298
27.472427 95.450 -172.5189
27.671503 95.446 -172.8035
27.872023 95.442 -173.0839
28.073996 95.438 -173.3600
28.277431 95.432 -173.6321
28.482342 95.427 -173.9004
28.688736 95.420 -174.1653
28.896626 95.413 -174.4272
29.106022 95.405 -174.6866
29.316936 95.397 -174.9436
29.529379 95.388 -175.1989
29.743361 95.378 -175.4528
29.958893 95.367 -175.7058
30.175987 95.356 -175.9583
30.394655 95.344 -176.2108
30.614908 95.331 -176.4640
30.836756 95.318 -176.7182
31.060211 95.305 -176.9739
31.285286 95.291 -177.2314
31.511992 95.277 -177.4907
31.740341 95.262 -177.7518
31.970345 95.247 -178.0148
32.202015 95.232 -178.2795
32.435364 95.217 -178.5458
32.670403 95.203 -178.8136
32.907146 95.188 -179.0829
33.145607 95.173 -179.3533
33.385796 95.158 -179.6248
33.627724 95.144 -179.8967
33.871403 95.129 179.8314
34.116848 95.115 179.5602
34.364071 95.100 179.2904
34.613087 95.086 179.0223
34.863907 95.072 178.7566
35.116547 95.057 178.4935
35.371017 95.043 178.2331
35.627331 95.028 177.9757
35.885502 95.014 177.7215
36.145542 94.999 177.4706
36.407467 94.983 177.2233
36.671291 94.967 176.9801
36.937027 94.951 176.7411
37.204689 94.934 176.5066
37.474289 94.916 176.2764
37.745842 94.899 176.0502
38.019363 94.880 175.8275
38.294868 94.862 175.6072
38.572369 94.843 175.3887
38.851879 94.823 175.1711
39.133415 94.804 174.9539
39.416992 94.784 174.7371
39.702625 94.763 174.5207
39.990326 94.742 174.3051
40.280113 94.720 174.0905
40.571999 94.699 173.8770
40.866001 94.677 173.6643
41.162132 94.655 173.4522
41.460411 94.633 173.2404
41.760849 94.611 173.0286
42.063465 94.589 172.8172
42.368275 94.567 172.6066
42.675293 94.545 172.3974
42.984535 94.522 172.1903
43.296021 94.500 171.9858
43.609760 94.477 171.7841
43.925774 94.455 171.5851
44.244080 94.432 171.3887
44.564690 94.409 171.1949
44.887623 94.387 171.0035
45.212898 94.364 170.8145
45.540531 94.341 170.6274
45.870537 94.317 170.4420
46.202934 94.294 170.2574
46.537739 94.270 170.0732
46.874969 94.246 169.8895
47.214645 94.222 169.7064
47.556782 94.197 169.5249
47.901398 94.172 169.3457
48.248512 94.146 169.1694
48.598141 94.120 168.9959
48.950302 94.094 168.8250
49.305016 94.068 168.6561
49.662300 94.041 168.4890
50.022175 94.015 168.3235
50.384655 93.989 168.1599
50.749763 93.962 167.9984
51.117516 93.935 167.8395
51.487934 93.908 167.6831
51.861038 93.880 167.5291
52.236843 93.853 167.3773
52.615372 93.825 167.2276
52.996643 93.797 167.0806
53.380680 93.769 166.9370
53.767498 93.741 166.7979
54.157120 93.713 166.6638
54.549564 93.685 166.5341
54.944855 93.658 166.4073
55.343006 93.632 166.2806
55.744045 93.606 166.1518
56.147991 93.582 166.0191
56.554863 93.557 165.8821
56.964684 93.533 165.7411
57.377472 93.509 165.5969
57.793251 93.484 165.4503
58.212044 93.458 165.3019
58.633873 93.432 165.1532
59.058758 93.404 165.0062
59.486721 93.376 164.8633
59.917786 93.346 164.7263
60.351974 93.316 164.5962
60.789310 93.286 164.4731
61.229816 93.255 164.3560
61.673512 93.224 164.2440
62.120422 93.192 164.1354
62.570572 93.161 164.0284
63.023983 93.130 163.9210
63.480682 93.098 163.8119
63.940689 93.066 163.7009
64.404030 93.034 163.5880
64.870728 93.001 163.4735
65.340805 92.967 163.3575
65.814293 92.933 163.2421
66.291214 92.897 163.1316
66.771591 92.861 163.0322
67.255447 92.825 162.9474
67.742805 92.792 162.8752
68.233696 92.761 162.8076
68.728142 92.734 162.7333
69.226173 92.709 162.6425
69.727814 92.685 162.5308
70.233093 92.658 162.4025
70.742035 92.628 162.2708
71.254662 92.595 162.1537
71.771004 92.559 162.0665
72.291084 92.524 162.0143
72.814934 92.490 161.9906
73.342583 92.459 161.9832
73.874054 92.430 161.9821
74.409378 92.401 161.9840
74.948578 92.373 161.9901
75.491684 92.344 162.0014
76.038727 92.316 162.0172
76.589737 92.287 162.0339
77.144737 92.259 162.0475
77.703758 92.231 162.0546
78.266830 92.203 162.0535
78.833984 92.176 162.0437
79.405251 92.148 162.0248
79.980652 92.122 161.9962
80.560226 92.096 161.9567
81.143997 92.071 161.9055
81.732002 92.046 161.8428
82.324265 92.021 161.7711
82.920822 91.995 161.6940
83.521698 91.969 161.6161
84.126930 91.941 161.5413
84.736549 91.911 161.4724
85.350586 91.880 161.4125
85.969070 91.847 161.3645
86.592041 91.812 161.3309
87.219521 91.777 161.3127
87.851547 91.741 161.3091
