* Measurement data measured by REW V5.30.3
* Source: EXCL: Microphone (Realtek(R) Audio), MICROPHONE (Master Volume), L, volume: 1.000
* Format: 256k Log Swept Sine, 1 sweep at -20.0 dBFS with no timing reference
* Dated: Jan 10, 2024 12:21:13 AM
* REW Settings:
*  C-weighting compensation: Off
*  Target level: 75.0 dB
* Note: EPZ X Tipsy Star One R
* Measurement: R EPZ X Tipsy Star One
* Smoothing: 1/12 octave
* Frequency Step: 96 ppo
* Start Frequency: 0.36621094 Hz
*
* Freq(Hz) SPL(dB) Phase(degrees)
0.366211 78.171 158.1774
0.368865 78.166 158.1477
0.371538 78.159 158.1034
0.374230 78.150 158.0478
0.376942 78.140 157.9839
0.379673 78.130 157.9140
0.382424 78.119 157.8395
0.385196 78.107 157.7612
0.387987 78.096 157.6796
0.390798 78.084 157.5950
0.393630 78.072 157.5076
0.396483 78.060 157.4173
0.399356 78.048 157.3242
0.402250 78.036 157.2283
0.405165 78.023 157.1296
0.408101 78.011 157.0280
0.411058 77.999 156.9234
0.414037 77.986 156.8160
0.417037 77.973 156.7056
0.420059 77.961 156.5922
0.423103 77.948 156.4758
0.426169 77.935 156.3563
0.429257 77.922 156.2337
0.432367 77.909 156.1080
0.435501 77.896 155.9791
0.438656 77.882 155.8470
0.441835 77.869 155.7117
0.445037 77.856 155.5732
0.448262 77.842 155.4313
0.451510 77.828 155.2861
0.454782 77.815 155.1376
0.458077 77.801 154.9857
0.461397 77.787 154.8304
0.464740 77.773 154.6716
0.468108 77.759 154.5094
0.471500 77.744 154.3436
0.474917 77.730 154.1743
0.478358 77.715 154.0014
0.481825 77.701 153.8249
0.485316 77.686 153.6449
0.488833 77.671 153.4611
0.492375 77.656 153.2737
0.495943 77.641 153.0825
0.499537 77.626 152.8877
0.503157 77.611 152.6890
0.506803 77.596 152.4866
0.510475 77.580 152.2804
0.514174 77.565 152.0704
0.517900 77.549 151.8565
0.521653 77.533 151.6387
0.525433 77.517 151.4170
0.529241 77.501 151.1915
0.533076 77.485 150.9620
0.536939 77.469 150.7285
0.540830 77.453 150.4911
0.544749 77.436 150.2497
0.548696 77.419 150.0043
0.552673 77.403 149.7550
0.556677 77.386 149.5016
0.560711 77.369 149.2442
0.564774 77.352 148.9828
0.568867 77.335 148.7173
0.572989 77.317 148.4478
0.577141 77.300 148.1743
0.581324 77.282 147.8967
0.585536 77.264 147.6152
0.589779 77.247 147.3295
0.594053 77.229 147.0399
0.598358 77.210 146.7462
0.602694 77.192 146.4486
0.607061 77.174 146.1469
0.611460 77.155 145.8413
0.615891 77.137 145.5317
0.620354 77.118 145.2181
0.624849 77.099 144.9007
0.629377 77.080 144.5793
0.633938 77.061 144.2540
0.638532 77.041 143.9249
0.643159 77.022 143.5920
0.647819 77.002 143.2554
0.652514 76.983 142.9150
0.657242 76.963 142.5708
0.662005 76.943 142.2231
0.666802 76.923 141.8717
0.671634 76.902 141.5168
0.676501 76.882 141.1583
0.681403 76.861 140.7964
0.686341 76.840 140.4311
0.691314 76.819 140.0624
0.696324 76.798 139.6904
0.701369 76.777 139.3151
0.706452 76.755 138.9364
0.711571 76.734 138.5543
0.716727 76.712 138.1686
0.721921 76.689 137.7789
0.727153 76.666 137.3847
0.732422 76.642 136.9850
0.737729 76.617 136.5788
0.743075 76.591 136.1651
0.748460 76.565 135.7430
0.753883 76.537 135.3116
0.759346 76.508 134.8705
0.764849 76.479 134.4193
0.770391 76.449 133.9577
0.775974 76.417 133.4854
0.781597 76.386 133.0023
0.787261 76.353 132.5083
0.792965 76.320 132.0031
0.798712 76.285 131.4867
0.804499 76.251 130.9589
0.810329 76.215 130.4196
0.816201 76.179 129.8687
0.822116 76.143 129.3062
0.828073 76.105 128.7318
0.834073 76.068 128.1455
0.840118 76.029 127.5472
0.846205 75.990 126.9369
0.852337 75.951 126.3143
0.858514 75.912 125.6796
0.864735 75.872 125.0326
0.871001 75.831 124.3733
0.877313 75.791 123.7016
0.883670 75.750 123.0174
0.890074 75.709 122.3209
0.896523 75.668 121.6120
0.903020 75.627 120.8906
0.909564 75.586 120.1569
0.916155 75.545 119.4107
0.922793 75.504 118.6522
0.929480 75.463 117.8815
0.936216 75.422 117.0985
0.943000 75.382 116.3033
0.949833 75.342 115.4961
0.956716 75.302 114.6770
0.963649 75.263 113.8460
0.970632 75.225 113.0034
0.977666 75.187 112.1492
0.984750 75.150 111.2836
0.991886 75.114 110.4068
0.999074 75.079 109.5189
1.006313 75.045 108.6201
1.013605 75.012 107.7107
1.020950 74.980 106.7908
1.028349 74.950 105.8607
1.035801 74.921 104.9204
1.043306 74.893 103.9703
1.050867 74.867 103.0104
1.058482 74.844 102.0410
1.066152 74.822 101.0619
1.073878 74.801 100.0731
1.081659 74.783 99.0741
1.089498 74.767 98.0644
1.097393 74.753 97.0428
1.105345 74.741 96.0081
1.113355 74.730 94.9590
1.121422 74.721 93.8941
1.129549 74.713 92.8126
1.137734 74.707 91.7137
1.145978 74.702 90.5970
1.154283 74.698 89.4624
1.162647 74.696 88.3098
1.171072 74.696 87.1391
1.179558 74.696 85.9505
1.188106 74.699 84.7442
1.196715 74.703 83.5205
1.205387 74.708 82.2797
1.214122 74.715 81.0222
1.222920 74.724 79.7486
1.231781 74.734 78.4593
1.240708 74.746 77.1551
1.249698 74.760 75.8367
1.258754 74.775 74.5048
1.267875 74.792 73.1604
1.277063 74.812 71.8044
1.286317 74.833 70.4378
1.295638 74.856 69.0618
1.305027 74.881 67.6775
1.314484 74.908 66.2860
1.324009 74.937 64.8888
1.333603 74.968 63.4871
1.343267 75.002 62.0822
1.353001 75.037 60.6755
1.362805 75.075 59.2685
1.372681 75.115 57.8626
1.382628 75.158 56.4591
1.392647 75.203 55.0595
1.402739 75.250 53.6650
1.412904 75.300 52.2770
1.423142 75.353 50.8965
1.433455 75.408 49.5244
1.443842 75.467 48.1615
1.454305 75.529 46.8081
1.464843 75.594 45.4642
1.475458 75.663 44.1294
1.486150 75.737 42.8036
1.496919 75.815 41.4866
1.507766 75.897 40.1786
1.518692 75.984 38.8799
1.529697 76.075 37.5911
1.540782 76.171 36.3126
1.551947 76.271 35.0452
1.563193 76.375 33.7894
1.574521 76.483 32.5456
1.585931 76.595 31.3145
1.597423 76.710 30.0965
1.608998 76.829 28.8917
1.620658 76.950 27.7007
1.632402 77.074 26.5235
1.644231 77.201 25.3604
1.656146 77.330 24.2115
1.668147 77.461 23.0768
1.680235 77.593 21.9563
1.692410 77.727 20.8499
1.704674 77.862 19.7576
1.717027 77.998 18.6793
1.729469 78.134 17.6146
1.742002 78.270 16.5634
1.754625 78.405 15.5253
1.767340 78.540 14.5000
1.780147 78.675 13.4871
1.793046 78.808 12.4859
1.806040 78.939 11.4958
1.819127 79.070 10.5160
1.832309 79.200 9.5457
1.845587 79.330 8.5839
1.858961 79.459 7.6299
1.872431 79.589 6.6834
1.886000 79.720 5.7441
1.899666 79.851 4.8123
1.913432 79.983 3.8880
1.927298 80.116 2.9716
1.941264 80.249 2.0635
1.955331 80.383 1.1640
1.969500 80.518 0.2735
1.983772 80.653 -0.6078
1.998147 80.788 -1.4796
2.012626 80.924 -2.3415
2.027211 81.060 -3.1933
2.041901 81.196 -4.0349
2.056697 81.332 -4.8660
2.071601 81.467 -5.6865
2.086613 81.602 -6.4964
2.101733 81.737 -7.2954
2.116963 81.871 -8.0837
2.132303 82.005 -8.8614
2.147755 82.138 -9.6287
2.163318 82.269 -10.3861
2.178995 82.400 -11.1343
2.194785 82.530 -11.8742
2.210689 82.659 -12.6069
2.226709 82.787 -13.3334
2.242844 82.914 -14.0545
2.259097 83.040 -14.7707
2.275467 83.166 -15.4821
2.291956 83.290 -16.1888
2.308565 83.414 -16.8906
2.325294 83.538 -17.5872
2.342144 83.660 -18.2785
2.359116 83.782 -18.9640
2.376211 83.903 -19.6435
2.393430 84.023 -20.3168
2.410774 84.143 -20.9834
2.428243 84.263 -21.6433
2.445839 84.381 -22.2960
2.463562 84.499 -22.9416
2.481415 84.617 -23.5797
2.499396 84.734 -24.2105
2.517508 84.851 -24.8340
2.535750 84.967 -25.4506
2.554126 85.082 -26.0609
2.572634 85.197 -26.6655
2.591276 85.311 -27.2653
2.610054 85.424 -27.8610
2.628967 85.536 -28.4532
2.648018 85.647 -29.0420
2.667206 85.757 -29.6274
2.686534 85.867 -30.2094
2.706002 85.975 -30.7879
2.725610 86.083 -31.3624
2.745361 86.190 -31.9329
2.765255 86.296 -32.4989
2.785294 86.402 -33.0603
2.805477 86.507 -33.6167
2.825807 86.611 -34.1680
2.846284 86.715 -34.7139
2.866909 86.819 -35.2544
2.887684 86.922 -35.7895
2.908609 87.024 -36.3195
2.929686 87.126 -36.8447
2.950916 87.228 -37.3658
2.972299 87.329 -37.8834
2.993838 87.429 -38.3977
3.015532 87.528 -38.9092
3.037384 87.627 -39.4178
3.059394 87.724 -39.9234
3.081564 87.821 -40.4259
3.103894 87.918 -40.9249
3.126386 88.014 -41.4203
3.149041 88.109 -41.9118
3.171861 88.204 -42.3989
3.194845 88.298 -42.8816
3.217996 88.393 -43.3594
3.241315 88.487 -43.8323
3.264803 88.580 -44.3002
3.288461 88.674 -44.7632
3.312291 88.767 -45.2215
3.336293 88.859 -45.6756
3.360469 88.951 -46.1256
3.384820 89.043 -46.5720
3.409348 89.134 -47.0150
3.434054 89.224 -47.4547
3.458938 89.315 -47.8913
3.484003 89.404 -48.3249
3.509250 89.494 -48.7555
3.534679 89.583 -49.1831
3.560293 89.672 -49.6079
3.586092 89.761 -50.0297
3.612079 89.850 -50.4487
3.638253 89.939 -50.8648
3.664618 90.028 -51.2781
3.691173 90.116 -51.6886
3.717921 90.205 -52.0964
3.744862 90.293 -52.5016
3.771999 90.381 -52.9045
3.799332 90.469 -53.3052
3.826864 90.557 -53.7039
3.854595 90.644 -54.1009
3.882527 90.731 -54.4964
3.910661 90.819 -54.8905
3.938999 90.906 -55.2834
3.967543 90.994 -55.6752
3.996294 91.081 -56.0660
4.025252 91.168 -56.4558
4.054421 91.256 -56.8444
4.083801 91.343 -57.2320
4.113394 91.431 -57.6186
4.143201 91.518 -58.0044
4.173225 91.605 -58.3896
4.203466 91.692 -58.7746
4.233926 91.780 -59.1597
4.264606 91.867 -59.5453
4.295509 91.954 -59.9317
4.326636 92.041 -60.3193
4.357989 92.127 -60.7082
4.389569 92.214 -61.0985
4.421378 92.301 -61.4903
4.453417 92.388 -61.8835
4.485688 92.474 -62.2781
4.518193 92.561 -62.6742
4.550934 92.647 -63.0718
4.583912 92.733 -63.4710
4.617129 92.819 -63.8721
4.650587 92.905 -64.2751
4.684287 92.990 -64.6804
4.718231 93.075 -65.0881
4.752421 93.160 -65.4983
4.786859 93.244 -65.9112
4.821547 93.328 -66.3269
4.856485 93.412 -66.7452
4.891677 93.495 -67.1661
4.927125 93.578 -67.5893
4.962829 93.661 -68.0149
4.998791 93.743 -68.4427
5.035015 93.824 -68.8726
5.071500 93.905 -69.3046
5.108251 93.985 -69.7389
5.145267 94.064 -70.1755
5.182552 94.143 -70.6147
5.220107 94.221 -71.0564
5.257934 94.298 -71.5003
5.296035 94.375 -71.9462
5.334412 94.451 -72.3937
5.373067 94.526 -72.8423
5.412003 94.600 -73.2917
5.451221 94.674 -73.7418
5.490722 94.747 -74.1926
5.530510 94.819 -74.6441
5.570587 94.890 -75.0965
5.610953 94.960 -75.5496
5.651613 95.029 -76.0031
5.692567 95.098 -76.4565
5.733818 95.165 -76.9092
5.775367 95.232 -77.3609
5.817218 95.298 -77.8111
5.859372 95.363 -78.2597
5.901831 95.428 -78.7067
5.944598 95.491 -79.1522
5.987675 95.554 -79.5960
6.031065 95.616 -80.0381
6.074768 95.677 -80.4779
6.118788 95.738 -80.9151
6.163127 95.798 -81.3493
6.207788 95.857 -81.7803
6.252772 95.916 -82.2080
6.298082 95.974 -82.6324
6.343721 96.032 -83.0535
6.389690 96.090 -83.4714
6.435992 96.146 -83.8861
6.482630 96.203 -84.2974
6.529606 96.260 -84.7052
6.576922 96.316 -85.1095
6.624581 96.372 -85.5102
6.672585 96.428 -85.9074
6.720938 96.484 -86.3013
6.769640 96.540 -86.6922
6.818696 96.596 -87.0804
6.868107 96.651 -87.4661
6.917876 96.708 -87.8495
6.968006 96.764 -88.2309
7.018499 96.820 -88.6103
7.069358 96.877 -88.9881
7.120586 96.934 -89.3644
7.172184 96.991 -89.7399
7.224157 97.048 -90.1149
7.276506 97.105 -90.4898
7.329235 97.163 -90.8650
7.382345 97.221 -91.2407
7.435841 97.279 -91.6171
7.489724 97.338 -91.9945
7.543997 97.396 -92.3732
7.598664 97.455 -92.7536
7.653728 97.514 -93.1359
7.709189 97.573 -93.5205
7.765053 97.632 -93.9075
7.821322 97.691 -94.2969
7.877998 97.750 -94.6887
7.935086 97.808 -95.0831
7.992587 97.867 -95.4800
8.050504 97.925 -95.8795
8.108841 97.983 -96.2816
8.167601 98.041 -96.6861
8.226787 98.099 -97.0930
8.286402 98.156 -97.5019
8.346449 98.212 -97.9126
8.406931 98.269 -98.3250
8.467851 98.325 -98.7387
8.529212 98.380 -99.1536
8.591018 98.435 -99.5695
8.653272 98.489 -99.9861
8.715977 98.543 -100.4029
8.779137 98.597 -100.8198
8.842754 98.650 -101.2366
8.906833 98.702 -101.6530
8.971375 98.754 -102.0689
9.036386 98.806 -102.4842
9.101867 98.858 -102.8987
9.167823 98.909 -103.3124
9.234257 98.960 -103.7251
9.301172 99.011 -104.1370
9.368572 99.062 -104.5480
9.436460 99.113 -104.9584
9.504841 99.163 -105.3682
9.573717 99.214 -105.7775
9.643092 99.264 -106.1866
9.712970 99.314 -106.5955
9.783354 99.364 -107.0047
9.854248 99.415 -107.4142
9.925656 99.465 -107.8242
9.997581 99.515 -108.2350
10.070028 99.565 -108.6467
10.143000 99.614 -109.0594
10.216500 99.664 -109.4733
10.290533 99.713 -109.8883
10.365103 99.763 -110.3046
10.440212 99.811 -110.7222
10.515866 99.860 -111.1408
10.592069 99.908 -111.5606
10.668823 99.956 -111.9813
10.746134 100.004 -112.4029
10.824005 100.051 -112.8252
10.902440 100.098 -113.2481
10.981443 100.144 -113.6714
11.061020 100.190 -114.0950
11.141172 100.235 -114.5188
11.221906 100.280 -114.9427
11.303225 100.325 -115.3668
11.385133 100.370 -115.7910
11.467634 100.414 -116.2153
11.550734 100.457 -116.6398
11.634435 100.500 -117.0646
11.718742 100.543 -117.4899
11.803661 100.586 -117.9156
11.889195 100.628 -118.3418
11.975349 100.669 -118.7686
12.062128 100.710 -119.1960
12.149535 100.751 -119.6238
12.237576 100.790 -120.0519
12.326254 100.829 -120.4799
12.415575 100.868 -120.9075
12.505544 100.905 -121.3342
12.596164 100.942 -121.7594
12.687441 100.978 -122.1826
12.779379 101.013 -122.6030
12.871984 101.047 -123.0201
12.965260 101.081 -123.4331
13.059211 101.114 -123.8416
13.153843 101.147 -124.2451
13.249161 101.179 -124.6434
13.345170 101.212 -125.0364
13.441875 101.244 -125.4245
13.539280 101.277 -125.8081
13.637391 101.310 -126.1880
13.736214 101.343 -126.5651
13.835752 101.378 -126.9409
13.936011 101.413 -127.3167
14.036998 101.448 -127.6942
14.138716 101.485 -128.0748
14.241171 101.522 -128.4601
14.344368 101.559 -128.8515
14.448313 101.597 -129.2502
14.553011 101.634 -129.6568
14.658468 101.671 -130.0718
14.764689 101.707 -130.4951
14.871680 101.743 -130.9260
14.979446 101.777 -131.3638
15.087994 101.809 -131.8069
15.197328 101.840 -132.2539
15.307454 101.869 -132.7028
15.418378 101.897 -133.1518
15.530106 101.923 -133.5991
15.642643 101.947 -134.0431
15.755996 101.970 -134.4826
15.870171 101.992 -134.9166
15.985172 102.014 -135.3451
16.101007 102.035 -135.7681
16.217682 102.056 -136.1863
16.335201 102.076 -136.6009
16.453573 102.097 -137.0131
16.572803 102.118 -137.4245
16.692898 102.139 -137.8363
16.813862 102.160 -138.2496
16.935701 102.180 -138.6651
17.058424 102.200 -139.0825
17.182035 102.219 -139.5014
17.306543 102.236 -139.9205
17.431953 102.253 -140.3379
17.558273 102.268 -140.7516
17.685509 102.281 -141.1591
17.813665 102.294 -141.5583
17.942751 102.306 -141.9475
18.072771 102.318 -142.3255
18.203733 102.330 -142.6924
18.335646 102.343 -143.0487
18.468513 102.357 -143.3965
18.602345 102.373 -143.7384
18.737144 102.391 -144.0778
18.872921 102.411 -144.4183
19.009682 102.432 -144.7635
19.147434 102.455 -145.1163
19.286184 102.479 -145.4788
19.425940 102.503 -145.8518
19.566708 102.526 -146.2351
19.708496 102.549 -146.6272
19.851313 102.570 -147.0253
19.995163 102.590 -147.4267
20.140057 102.609 -147.8281
20.285999 102.626 -148.2267
20.433001 102.643 -148.6209
20.581066 102.659 -149.0099
20.730206 102.676 -149.3944
20.880424 102.693 -149.7766
21.031733 102.711 -150.1593
21.184137 102.730 -150.5459
21.337646 102.750 -150.9398
21.492268 102.769 -151.3430
21.648010 102.787 -151.7566
21.804880 102.804 -152.1794
21.962887 102.818 -152.6084
22.122040 102.829 -153.0390
22.282345 102.837 -153.4653
22.443811 102.842 -153.8809
22.606449 102.844 -154.2801
22.770266 102.845 -154.6586
22.935268 102.845 -155.0143
23.101467 102.847 -155.3477
23.268869 102.850 -155.6624
23.437485 102.856 -155.9645
23.607323 102.865 -156.2616
23.778391 102.878 -156.5622
23.950699 102.893 -156.8742
24.124256 102.911 -157.2038
24.299070 102.928 -157.5546
24.475151 102.945 -157.9274
24.652508 102.960 -158.3198
24.831150 102.972 -158.7275
25.011087 102.980 -159.1441
25.192327 102.984 -159.5628
25.374882 102.984 -159.9769
25.558758 102.982 -160.3808
25.743967 102.977 -160.7704
25.930519 102.970 -161.1433
26.118422 102.962 -161.4991
26.307686 102.955 -161.8388
26.498322 102.947 -162.1642
26.690340 102.941 -162.4783
26.883749 102.937 -162.7842
27.078560 102.933 -163.0851
27.274782 102.932 -163.3842
27.472427 102.931 -163.6844
27.671503 102.933 -163.9886
27.872023 102.936 -164.2991
28.073996 102.940 -164.6181
28.277431 102.944 -164.9470
28.482342 102.950 -165.2872
28.688736 102.956 -165.6394
28.896626 102.962 -166.0047
29.106022 102.969 -166.3836
29.316936 102.975 -166.7771
29.529379 102.980 -167.1856
29.743361 102.984 -167.6090
29.958893 102.986 -168.0458
30.175987 102.985 -168.4930
30.394655 102.982 -168.9454
30.614908 102.974 -169.3960
30.836756 102.964 -169.8369
31.060211 102.950 -170.2602
31.285286 102.934 -170.6602
31.511992 102.919 -171.0340
31.740341 102.904 -171.3832
31.970345 102.892 -171.7134
32.202015 102.882 -172.0327
32.435364 102.876 -172.3505
32.670403 102.871 -172.6743
32.907146 102.868 -173.0081
33.145607 102.863 -173.3512
33.385796 102.856 -173.6986
33.627724 102.846 -174.0428
33.871403 102.834 -174.3752
34.116848 102.820 -174.6892
34.364071 102.805 -174.9819
34.613087 102.790 -175.2540
34.863907 102.776 -175.5101
35.116547 102.765 -175.7563
35.371017 102.754 -175.9995
35.627331 102.745 -176.2450
35.885502 102.737 -176.4962
36.145542 102.728 -176.7551
36.407467 102.719 -177.0223
36.671291 102.709 -177.2980
36.937027 102.698 -177.5826
37.204689 102.686 -177.8760
37.474289 102.673 -178.1778
37.745842 102.657 -178.4863
38.019363 102.639 -178.7982
38.294868 102.618 -179.1090
38.572369 102.596 -179.4130
38.851879 102.573 -179.7057
39.133415 102.550 -179.9843
39.416992 102.528 179.7511
39.702625 102.509 179.4963
39.990326 102.494 179.2439
40.280113 102.483 178.9848
40.571999 102.475 178.7106
40.866001 102.469 178.4162
41.162132 102.463 178.1020
41.460411 102.457 177.7742
41.760849 102.449 177.4430
42.063465 102.439 177.1200
42.368275 102.428 176.8138
42.675293 102.419 176.5274
42.984535 102.412 176.2567
43.296021 102.408 175.9919
43.609760 102.407 175.7209
43.925774 102.407 175.4335
44.244080 102.405 175.1254
44.564690 102.398 174.8011
44.887623 102.385 174.4744
45.212898 102.364 174.1667
45.540531 102.335 173.9026
45.870537 102.301 173.7021
46.202934 102.268 173.5730
46.537739 102.241 173.5032
46.874969 102.223 173.4601
47.214645 102.215 173.3980
47.556782 102.215 173.2735
47.901398 102.215 173.0618
48.248512 102.208 172.7669
48.598141 102.187 172.4199
48.950302 102.152 172.0667
49.305016 102.104 171.7507
49.662300 102.050 171.4983
50.022175 101.995 171.3117
50.384655 101.947 171.1722
50.749763 101.906 171.0488
51.117516 101.875 170.9095
51.487934 101.851 170.7283
51.861038 101.831 170.4901
52.236843 101.812 170.1922
52.615372 101.790 169.8451
52.996643 101.763 169.4696
53.380680 101.731 169.0906
53.767498 101.696 168.7286
54.157120 101.661 168.3934
54.549564 101.629 168.0840
54.944855 101.600 167.7935
55.343006 101.574 167.5165
55.744045 101.552 167.2520
56.147991 101.532 167.0009
56.554863 101.514 166.7629
56.964684 101.499 166.5333
57.377472 101.486 166.3044
57.793251 101.472 166.0692
58.212044 101.456 165.8251
58.633873 101.434 165.5762
59.058758 101.406 165.3338
59.486721 101.371 165.1121
59.917786 101.331 164.9197
60.351974 101.290 164.7516
60.789310 101.249 164.5896
61.229816 101.211 164.4103
61.673512 101.175 164.1941
62.120422 101.140 163.9276
62.570572 101.108 163.5997
63.023983 101.076 163.2020
63.480682 101.044 162.7369
63.940689 101.011 162.2217
64.404030 100.978 161.6781
64.870728 100.946 161.1140
65.340805 100.917 160.5239
65.814293 100.882 159.9193
66.291214 100.835 159.3613
66.771591 100.774 158.9531
67.255447 100.710 158.7831
67.742805 100.660 158.8632
68.233696 100.636 159.1167
68.728142 100.639 159.4316
69.226173 100.660 159.7212
69.727814 100.688 159.9421
70.233093 100.712 160.0771
70.742035 100.724 160.1251
71.254662 100.717 160.1073
71.771004 100.688 160.0646
72.291084 100.641 160.0334
72.814934 100.584 160.0206
73.342583 100.524 160.0022
73.874054 100.467 159.9433
74.409378 100.414 159.8170
74.948578 100.366 159.6137
75.491684 100.320 159.3449
76.038727 100.276 159.0437
76.589737 100.235 158.7535
77.144737 100.197 158.5102
77.703758 100.165 158.3302
78.266830 100.138 158.2115
78.833984 100.113 158.1408
79.405251 100.085 158.0992
79.980652 100.051 158.0654
80.560226 100.003 158.0151
81.143997 99.939 157.9203
81.732002 99.856 157.7560
82.324265 99.751 157.5197
82.920822 99.627 157.2426
