* Measurement data measured by REW V5.31
* Source: EXCL: Microphone (USB Sound Device        ), MICROPHONE (Master Volume), L, volume: 0.390
* Format: 256k Log Swept Sine, 1 sweep at -10.0 dBFS with no timing reference
* Dated: Sep 13, 2024 12:26:54 AM
* REW Settings:
*  C-weighting compensation: Off
*  Target level: 75.0 dB
* Note: FIIO FD15 Red
* Measurement: L FIIO FD15 Red
* Smoothing: 1/12 octave
* Frequency Step: 96 ppo
* Start Frequency: 0.36621094 Hz
*
* Freq(Hz)	SPL(dB)	Phase(degrees)
0.366211	77.971	-172.3918
0.368865	77.974	-172.4001
0.371538	77.978	-172.4125
0.374230	77.983	-172.4279
0.376942	77.988	-172.4453
0.379673	77.994	-172.4641
0.382424	78.000	-172.4837
0.385196	78.006	-172.5041
0.387987	78.012	-172.5249
0.390798	78.019	-172.5462
0.393630	78.025	-172.5679
0.396483	78.032	-172.5899
0.399356	78.038	-172.6122
0.402250	78.045	-172.6349
0.405165	78.051	-172.6580
0.408101	78.058	-172.6814
0.411058	78.065	-172.7051
0.414037	78.072	-172.7293
0.417037	78.079	-172.7538
0.420059	78.085	-172.7787
0.423103	78.092	-172.8041
0.426169	78.099	-172.8298
0.429257	78.106	-172.8560
0.432368	78.114	-172.8826
0.435501	78.121	-172.9096
0.438656	78.128	-172.9370
0.441835	78.135	-172.9650
0.445037	78.142	-172.9934
0.448262	78.150	-173.0223
0.451510	78.157	-173.0516
0.454782	78.165	-173.0815
0.458077	78.172	-173.1119
0.461397	78.180	-173.1428
0.464740	78.187	-173.1743
0.468108	78.195	-173.2063
0.471500	78.203	-173.2389
0.474917	78.211	-173.2721
0.478358	78.219	-173.3058
0.481825	78.226	-173.3402
0.485316	78.234	-173.3752
0.488833	78.243	-173.4108
0.492375	78.251	-173.4471
0.495943	78.259	-173.4841
0.499537	78.267	-173.5218
0.503157	78.275	-173.5601
0.506803	78.284	-173.5992
0.510475	78.292	-173.6391
0.514175	78.300	-173.6797
0.517900	78.309	-173.7210
0.521653	78.317	-173.7632
0.525434	78.326	-173.8062
0.529241	78.335	-173.8501
0.533076	78.344	-173.8948
0.536939	78.352	-173.9404
0.540830	78.361	-173.9869
0.544749	78.370	-174.0343
0.548696	78.379	-174.0828
0.552673	78.388	-174.1322
0.556677	78.397	-174.1826
0.560711	78.407	-174.2340
0.564774	78.416	-174.2866
0.568867	78.425	-174.3402
0.572989	78.435	-174.3950
0.577141	78.444	-174.4509
0.581324	78.454	-174.5080
0.585536	78.463	-174.5663
0.589779	78.473	-174.6260
0.594053	78.483	-174.6869
0.598358	78.493	-174.7491
0.602694	78.503	-174.8128
0.607061	78.513	-174.8778
0.611460	78.523	-174.9443
0.615891	78.533	-175.0123
0.620354	78.543	-175.0819
0.624849	78.553	-175.1531
0.629377	78.563	-175.2259
0.633938	78.574	-175.3004
0.638532	78.584	-175.3766
0.643159	78.595	-175.4547
0.647819	78.606	-175.5346
0.652514	78.616	-175.6165
0.657242	78.627	-175.7003
0.662005	78.638	-175.7862
0.666802	78.649	-175.8742
0.671634	78.660	-175.9643
0.676501	78.671	-176.0568
0.681403	78.682	-176.1515
0.686341	78.694	-176.2487
0.691314	78.705	-176.3484
0.696324	78.716	-176.4507
0.701370	78.727	-176.5557
0.706452	78.739	-176.6635
0.711571	78.750	-176.7742
0.716728	78.760	-176.8881
0.721921	78.770	-177.0052
0.727153	78.778	-177.1258
0.732422	78.785	-177.2501
0.737729	78.791	-177.3785
0.743075	78.794	-177.5112
0.748460	78.797	-177.6483
0.753883	78.798	-177.7901
0.759346	78.799	-177.9366
0.764849	78.799	-178.0879
0.770391	78.799	-178.2440
0.775974	78.799	-178.4049
0.781597	78.799	-178.5706
0.787261	78.798	-178.7411
0.792966	78.797	-178.9164
0.798712	78.796	-179.0965
0.804500	78.794	-179.2813
0.810329	78.792	-179.4708
0.816201	78.790	-179.6650
0.822116	78.788	-179.8638
0.828073	78.785	179.9327
0.834074	78.782	179.7247
0.840118	78.778	179.5121
0.846206	78.774	179.2949
0.852338	78.770	179.0733
0.858514	78.765	178.8473
0.864735	78.760	178.6168
0.871001	78.754	178.3820
0.877313	78.747	178.1429
0.883670	78.740	177.8994
0.890074	78.733	177.6518
0.896524	78.724	177.4000
0.903020	78.715	177.1441
0.909564	78.705	176.8841
0.916155	78.695	176.6201
0.922794	78.683	176.3521
0.929481	78.671	176.0801
0.936216	78.658	175.8044
0.943000	78.644	175.5247
0.949834	78.629	175.2414
0.956717	78.613	174.9543
0.963649	78.596	174.6635
0.970632	78.578	174.3692
0.977666	78.559	174.0712
0.984750	78.538	173.7698
0.991886	78.517	173.4649
0.999074	78.494	173.1566
1.006314	78.469	172.8448
1.013606	78.443	172.5298
1.020951	78.416	172.2114
1.028349	78.387	171.8898
1.035801	78.357	171.5648
1.043307	78.325	171.2366
1.050867	78.291	170.9050
1.058482	78.256	170.5699
1.066152	78.219	170.2312
1.073878	78.179	169.8883
1.081660	78.138	169.5406
1.089498	78.095	169.1870
1.097393	78.049	168.8260
1.105345	78.001	168.4559
1.113355	77.951	168.0746
1.121423	77.899	167.6807
1.129549	77.844	167.2727
1.137734	77.787	166.8496
1.145979	77.727	166.4109
1.154283	77.665	165.9559
1.162647	77.601	165.4844
1.171072	77.534	164.9960
1.179558	77.465	164.4905
1.188106	77.394	163.9678
1.196715	77.320	163.4275
1.205387	77.244	162.8696
1.214122	77.165	162.2938
1.222920	77.085	161.7000
1.231782	77.002	161.0879
1.240708	76.917	160.4575
1.249699	76.830	159.8086
1.258754	76.741	159.1411
1.267876	76.650	158.4548
1.277063	76.556	157.7496
1.286318	76.461	157.0255
1.295639	76.364	156.2823
1.305027	76.265	155.5201
1.314484	76.165	154.7387
1.324009	76.062	153.9382
1.333604	75.958	153.1185
1.343268	75.853	152.2798
1.353002	75.746	151.4219
1.362806	75.637	150.5450
1.372681	75.528	149.6490
1.382628	75.417	148.7342
1.392647	75.304	147.8004
1.402739	75.191	146.8475
1.412904	75.076	145.8753
1.423142	74.960	144.8828
1.433455	74.842	143.8688
1.443843	74.723	142.8307
1.454305	74.600	141.7647
1.464844	74.474	140.6649
1.475459	74.342	139.5241
1.486150	74.204	138.3342
1.496920	74.058	137.0869
1.507767	73.904	135.7748
1.518693	73.742	134.3911
1.529698	73.572	132.9289
1.540783	73.394	131.3820
1.551948	73.210	129.7438
1.563194	73.020	128.0080
1.574521	72.826	126.1677
1.585931	72.627	124.2160
1.597423	72.426	122.1459
1.608999	72.223	119.9501
1.620658	72.019	117.6216
1.632402	71.816	115.1537
1.644232	71.616	112.5402
1.656146	71.419	109.7758
1.668147	71.227	106.8564
1.680235	71.042	103.7799
1.692411	70.865	100.5462
1.704675	70.698	97.1579
1.717028	70.543	93.6206
1.729470	70.401	89.9436
1.742003	70.276	86.1396
1.754626	70.168	82.2243
1.767341	70.080	78.2165
1.780147	70.015	74.1366
1.793047	69.974	70.0054
1.806040	69.960	65.8430
1.819128	69.974	61.6674
1.832310	70.019	57.4948
1.845587	70.094	53.3406
1.858961	70.202	49.2221
1.872432	70.340	45.1594
1.886001	70.509	41.1749
1.899667	70.706	37.2914
1.913433	70.931	33.5296
1.927299	71.180	29.9068
1.941265	71.453	26.4359
1.955332	71.746	23.1251
1.969501	72.058	19.9783
1.983773	72.386	16.9957
1.998148	72.727	14.1744
2.012627	73.079	11.5090
2.027212	73.439	8.9924
2.041902	73.804	6.6166
2.056698	74.171	4.3725
2.071602	74.539	2.2510
2.086614	74.903	0.2426
2.101734	75.261	-1.6619
2.116964	75.611	-3.4718
2.132304	75.950	-5.1964
2.147756	76.276	-6.8448
2.163320	76.588	-8.4265
2.178996	76.886	-9.9511
2.194786	77.171	-11.4282
2.210690	77.445	-12.8669
2.226710	77.709	-14.2744
2.242845	77.966	-15.6559
2.259098	78.217	-17.0142
2.275468	78.463	-18.3501
2.291957	78.705	-19.6635
2.308566	78.943	-20.9537
2.325295	79.177	-22.2197
2.342145	79.408	-23.4604
2.359117	79.635	-24.6748
2.376212	79.858	-25.8622
2.393431	80.077	-27.0219
2.410775	80.293	-28.1533
2.428244	80.504	-29.2563
2.445840	80.712	-30.3309
2.463564	80.916	-31.3774
2.481416	81.117	-32.3965
2.499397	81.313	-33.3895
2.517509	81.505	-34.3585
2.535752	81.693	-35.3066
2.554127	81.876	-36.2382
2.572635	82.053	-37.1580
2.591277	82.226	-38.0710
2.610055	82.393	-38.9813
2.628968	82.554	-39.8908
2.648019	82.709	-40.8000
2.667208	82.859	-41.7083
2.686535	83.004	-42.6140
2.706003	83.143	-43.5150
2.725612	83.278	-44.4091
2.745363	83.408	-45.2936
2.765257	83.534	-46.1661
2.785295	83.656	-47.0244
2.805478	83.775	-47.8660
2.825808	83.890	-48.6888
2.846285	84.003	-49.4916
2.866910	84.113	-50.2732
2.887685	84.221	-51.0338
2.908611	84.326	-51.7748
2.929688	84.429	-52.4989
2.950917	84.528	-53.2097
2.972301	84.623	-53.9110
2.993839	84.714	-54.6055
3.015534	84.802	-55.2945
3.037386	84.885	-55.9784
3.059396	84.965	-56.6565
3.081565	85.040	-57.3271
3.103896	85.113	-57.9884
3.126388	85.182	-58.6382
3.149043	85.248	-59.2739
3.171862	85.313	-59.8930
3.194847	85.374	-60.4932
3.217998	85.435	-61.0722
3.241317	85.493	-61.6283
3.264805	85.549	-62.1606
3.288463	85.604	-62.6693
3.312293	85.657	-63.1554
3.336295	85.707	-63.6207
3.360471	85.755	-64.0671
3.384822	85.800	-64.4958
3.409350	85.842	-64.9080
3.434056	85.882	-65.3038
3.458940	85.920	-65.6830
3.484005	85.956	-66.0453
3.509252	85.992	-66.3899
3.534681	86.027	-66.7158
3.560295	86.062	-67.0220
3.586094	86.097	-67.3070
3.612081	86.133	-67.5698
3.638255	86.170	-67.8088
3.664620	86.208	-68.0231
3.691175	86.246	-68.2120
3.717923	86.284	-68.3754
3.744864	86.323	-68.5140
3.772001	86.362	-68.6296
3.799335	86.402	-68.7240
3.826866	86.442	-68.7997
3.854597	86.484	-68.8593
3.882529	86.527	-68.9053
3.910664	86.573	-68.9403
3.939002	86.620	-68.9662
3.967546	86.671	-68.9846
3.996296	86.725	-68.9960
4.025255	86.782	-69.0000
4.054423	86.842	-68.9957
4.083804	86.906	-68.9824
4.113396	86.973	-68.9601
4.143204	87.044	-68.9304
4.173227	87.117	-68.8959
4.203468	87.193	-68.8602
4.233928	87.271	-68.8271
4.264609	87.352	-68.8007
4.295512	87.435	-68.7845
4.326639	87.520	-68.7819
4.357992	87.607	-68.7946
4.389572	87.697	-68.8237
4.421380	87.789	-68.8687
4.453419	87.883	-68.9287
4.485691	87.979	-69.0031
4.518196	88.078	-69.0917
4.550936	88.178	-69.1950
4.583914	88.280	-69.3141
4.617131	88.382	-69.4503
4.650589	88.484	-69.6050
4.684289	88.586	-69.7797
4.718233	88.687	-69.9756
4.752424	88.787	-70.1936
4.786862	88.887	-70.4337
4.821549	88.986	-70.6954
4.856488	89.083	-70.9778
4.891680	89.180	-71.2789
4.927127	89.275	-71.5972
4.962831	89.370	-71.9305
4.998794	89.462	-72.2772
5.035017	89.552	-72.6359
5.071503	89.640	-73.0060
5.108253	89.725	-73.3871
5.145270	89.807	-73.7796
5.182555	89.886	-74.1837
5.220110	89.963	-74.5989
5.257937	90.037	-75.0237
5.296038	90.108	-75.4560
5.334415	90.177	-75.8928
5.373071	90.243	-76.3313
5.412006	90.306	-76.7689
5.451224	90.367	-77.2037
5.490725	90.426	-77.6348
5.530514	90.481	-78.0621
5.570590	90.534	-78.4858
5.610957	90.584	-78.9058
5.651616	90.632	-79.3210
5.692570	90.678	-79.7301
5.733821	90.722	-80.1310
5.775370	90.765	-80.5219
5.817221	90.807	-80.9009
5.859375	90.848	-81.2671
5.901834	90.887	-81.6199
5.944602	90.926	-81.9597
5.987679	90.965	-82.2871
6.031068	91.003	-82.6027
6.074771	91.041	-82.9072
6.118792	91.079	-83.2012
6.163131	91.119	-83.4846
6.207792	91.159	-83.7577
6.252776	91.201	-84.0205
6.298086	91.244	-84.2733
6.343725	91.289	-84.5173
6.389694	91.335	-84.7543
6.435996	91.382	-84.9867
6.482634	91.432	-85.2168
6.529610	91.483	-85.4469
6.576926	91.537	-85.6785
6.624585	91.593	-85.9127
6.672590	91.650	-86.1501
6.720942	91.710	-86.3917
6.769645	91.771	-86.6391
6.818700	91.834	-86.8940
6.868111	91.899	-87.1584
6.917881	91.964	-87.4340
6.968010	92.031	-87.7219
7.018504	92.098	-88.0227
7.069362	92.166	-88.3362
7.120590	92.234	-88.6622
7.172189	92.302	-89.0005
7.224161	92.370	-89.3507
7.276511	92.438	-89.7128
7.329239	92.504	-90.0867
7.382350	92.570	-90.4720
7.435845	92.635	-90.8679
7.489729	92.699	-91.2729
7.544002	92.761	-91.6854
7.598669	92.822	-92.1035
7.653732	92.881	-92.5255
7.709194	92.939	-92.9504
7.765058	92.995	-93.3771
7.821327	93.049	-93.8046
7.878004	93.102	-94.2314
7.935091	93.154	-94.6559
7.992592	93.204	-95.0762
8.050510	93.253	-95.4909
8.108847	93.302	-95.8992
8.167607	93.349	-96.3005
8.226793	93.396	-96.6947
8.286408	93.443	-97.0813
8.346454	93.489	-97.4600
8.406936	93.536	-97.8305
8.467856	93.582	-98.1929
8.529218	93.630	-98.5475
8.591024	93.678	-98.8950
8.653278	93.726	-99.2366
8.715983	93.776	-99.5734
8.779143	93.827	-99.9063
8.842760	93.879	-100.2364
8.906839	93.931	-100.5645
8.971381	93.985	-100.8917
9.036392	94.040	-101.2193
9.101873	94.096	-101.5486
9.167829	94.152	-101.8807
9.234263	94.209	-102.2162
9.301178	94.267	-102.5555
9.368578	94.325	-102.8989
9.436467	94.383	-103.2468
9.504847	94.440	-103.5991
9.573723	94.497	-103.9558
9.643099	94.553	-104.3166
9.712976	94.608	-104.6808
9.783361	94.660	-105.0477
9.854255	94.710	-105.4162
9.925663	94.757	-105.7856
9.997588	94.800	-106.1552
10.070035	94.840	-106.5240
10.143007	94.878	-106.8910
10.216507	94.913	-107.2552
10.290540	94.945	-107.6160
10.365109	94.976	-107.9728
10.440219	95.005	-108.3251
10.515873	95.033	-108.6729
10.592076	95.061	-109.0157
10.668830	95.088	-109.3539
10.746141	95.114	-109.6874
10.824012	95.141	-110.0168
10.902447	95.167	-110.3427
10.981451	95.193	-110.6655
11.061027	95.220	-110.9861
11.141180	95.246	-111.3049
11.221913	95.272	-111.6227
11.303232	95.298	-111.9400
11.385140	95.325	-112.2576
11.467641	95.350	-112.5756
11.550741	95.376	-112.8945
11.634442	95.402	-113.2144
11.718750	95.427	-113.5351
11.803669	95.452	-113.8568
11.889203	95.477	-114.1791
11.975357	95.502	-114.5018
12.062136	95.526	-114.8244
12.149543	95.550	-115.1466
12.237583	95.573	-115.4680
12.326262	95.596	-115.7885
12.415583	95.619	-116.1075
12.505552	95.641	-116.4252
12.596172	95.662	-116.7414
12.687449	95.683	-117.0563
12.779387	95.703	-117.3701
12.871992	95.723	-117.6832
12.965268	95.743	-117.9960
13.059220	95.763	-118.3090
13.153852	95.783	-118.6226
13.249170	95.803	-118.9374
13.345179	95.823	-119.2538
13.441884	95.843	-119.5721
13.539289	95.863	-119.8926
13.637401	95.882	-120.2152
13.736223	95.901	-120.5402
13.835761	95.920	-120.8671
13.936021	95.939	-121.1958
14.037007	95.956	-121.5260
14.138725	95.974	-121.8573
14.241180	95.990	-122.1894
14.344377	96.006	-122.5219
14.448323	96.022	-122.8546
14.553021	96.037	-123.1873
14.658478	96.052	-123.5200
14.764700	96.066	-123.8528
14.871691	96.081	-124.1860
14.979457	96.096	-124.5199
15.088005	96.111	-124.8548
15.197339	96.126	-125.1911
15.307465	96.141	-125.5292
15.418389	96.157	-125.8694
15.530117	96.172	-126.2118
15.642655	96.187	-126.5565
15.756008	96.202	-126.9033
15.870182	96.217	-127.2520
15.985184	96.231	-127.6021
16.101019	96.245	-127.9532
16.217694	96.259	-128.3047
16.335214	96.272	-128.6560
16.453586	96.286	-129.0068
16.572815	96.299	-129.3564
16.692909	96.313	-129.7048
16.813872	96.326	-130.0518
16.935713	96.341	-130.3972
17.058436	96.355	-130.7415
17.182048	96.370	-131.0846
17.306556	96.386	-131.4270
17.431967	96.402	-131.7689
17.558286	96.417	-132.1105
17.685521	96.433	-132.4519
17.813677	96.449	-132.7930
17.942762	96.464	-133.1339
18.072783	96.480	-133.4739
18.203746	96.495	-133.8130
18.335658	96.510	-134.1505
18.468526	96.524	-134.4860
18.602356	96.539	-134.8193
18.737156	96.553	-135.1499
18.872934	96.568	-135.4777
19.009695	96.582	-135.8029
19.147447	96.597	-136.1253
19.286197	96.611	-136.4453
19.425953	96.626	-136.7632
19.566721	96.640	-137.0794
19.708510	96.655	-137.3940
19.851326	96.669	-137.7075
19.995177	96.682	-138.0198
20.140070	96.695	-138.3311
20.286013	96.708	-138.6414
20.433014	96.720	-138.9505
20.581080	96.732	-139.2585
20.730219	96.743	-139.5655
20.880439	96.754	-139.8713
21.031747	96.765	-140.1760
21.184152	96.775	-140.4799
21.337661	96.785	-140.7831
21.492282	96.795	-141.0859
21.648024	96.805	-141.3884
21.804895	96.814	-141.6908
21.962902	96.823	-141.9931
22.122054	96.831	-142.2955
22.282360	96.839	-142.5979
22.443827	96.847	-142.9004
22.606464	96.854	-143.2029
22.770280	96.860	-143.5057
22.935283	96.867	-143.8087
23.101481	96.873	-144.1122
23.268884	96.879	-144.4165
23.437500	96.884	-144.7217
23.607338	96.889	-145.0280
23.778406	96.894	-145.3354
23.950714	96.898	-145.6440
24.124271	96.902	-145.9536
24.299086	96.906	-146.2639
24.475167	96.909	-146.5746
24.652524	96.912	-146.8855
24.831166	96.915	-147.1962
25.011103	96.918	-147.5064
25.192344	96.920	-147.8160
25.374898	96.923	-148.1249
25.558775	96.926	-148.4331
25.743984	96.929	-148.7404
25.930536	96.931	-149.0469
26.118439	96.934	-149.3524
26.307704	96.937	-149.6569
26.498341	96.940	-149.9602
26.690359	96.943	-150.2626
26.883768	96.946	-150.5637
27.078579	96.948	-150.8636
27.274801	96.951	-151.1624
27.472446	96.954	-151.4597
27.671522	96.956	-151.7555
27.872042	96.958	-152.0494
28.074014	96.959	-152.3411
28.277450	96.960	-152.6304
28.482360	96.961	-152.9169
28.688755	96.962	-153.2008
28.896645	96.962	-153.4821
29.106042	96.962	-153.7612
29.316957	96.963	-154.0386
29.529400	96.962	-154.3149
29.743382	96.962	-154.5905
29.958915	96.962	-154.8657
30.176009	96.962	-155.1407
30.394677	96.961	-155.4159
30.614929	96.960	-155.6909
30.836778	96.959	-155.9659
31.060234	96.957	-156.2411
31.285309	96.956	-156.5164
31.512015	96.954	-156.7922
31.740364	96.952	-157.0686
31.970368	96.949	-157.3458
32.202039	96.947	-157.6239
32.435388	96.944	-157.9026
32.670428	96.941	-158.1818
32.907171	96.938	-158.4611
33.145630	96.934	-158.7404
33.385817	96.931	-159.0197
33.627745	96.927	-159.2991
33.871425	96.924	-159.5785
34.116871	96.920	-159.8582
34.364096	96.917	-160.1382
34.613113	96.913	-160.4182
34.863934	96.909	-160.6982
35.116572	96.905	-160.9777
35.371041	96.901	-161.2563
35.627354	96.897	-161.5336
35.885525	96.892	-161.8094
36.145566	96.887	-162.0833
36.407492	96.881	-162.3550
36.671316	96.876	-162.6243
36.937051	96.870	-162.8910
37.204712	96.864	-163.1551
37.474313	96.857	-163.4167
37.745867	96.851	-163.6759
38.019389	96.844	-163.9330
38.294893	96.838	-164.1882
38.572394	96.831	-164.4420
38.851905	96.824	-164.6946
39.133442	96.817	-164.9460
39.417019	96.809	-165.1968
39.702651	96.802	-165.4467
39.990353	96.794	-165.6960
40.280140	96.786	-165.9447
40.572026	96.778	-166.1929
40.866028	96.770	-166.4407
41.162160	96.762	-166.6882
41.460438	96.753	-166.9354
41.760877	96.745	-167.1824
42.063494	96.736	-167.4290
42.368303	96.727	-167.6747
42.675322	96.718	-167.9196
42.984565	96.708	-168.1635
43.296048	96.698	-168.4064
43.609789	96.689	-168.6483
43.925804	96.679	-168.8893
44.244108	96.669	-169.1294
44.564719	96.658	-169.3683
44.887654	96.648	-169.6056
45.212928	96.637	-169.8412
45.540560	96.626	-170.0751
45.870565	96.615	-170.3076
46.202962	96.604	-170.5392
46.537768	96.593	-170.7703
46.875000	96.582	-171.0005
47.214676	96.570	-171.2299
47.556813	96.559	-171.4578
47.901429	96.547	-171.6837
48.248542	96.535	-171.9078
48.598171	96.523	-172.1302
48.950334	96.512	-172.3517
49.305048	96.500	-172.5726
49.662333	96.488	-172.7928
50.022206	96.476	-173.0120
50.384688	96.464	-173.2295
50.749796	96.451	-173.4448
51.117550	96.439	-173.6577
51.487969	96.426	-173.8685
51.861072	96.414	-174.0775
52.236879	96.401	-174.2850
52.615409	96.389	-174.4909
52.996681	96.376	-174.6949
53.380717	96.364	-174.8967
53.767536	96.351	-175.0959
54.157158	96.339	-175.2931
54.549603	96.328	-175.4887
54.944892	96.317	-175.6838
55.343045	96.306	-175.8796
55.744084	96.295	-176.0771
56.148028	96.285	-176.2772
56.554900	96.275	-176.4800
56.964720	96.265	-176.6859
57.377510	96.254	-176.8949
57.793291	96.243	-177.1068
58.212085	96.232	-177.3210
58.633914	96.220	-177.5363
59.058799	96.206	-177.7508
59.486764	96.192	-177.9628
59.917829	96.177	-178.1714
60.352019	96.162	-178.3765
60.789354	96.146	-178.5789
61.229859	96.130	-178.7793
61.673556	96.114	-178.9780
62.120468	96.097	-179.1749
62.570618	96.081	-179.3696
63.024031	96.064	-179.5623
63.480729	96.047	-179.7529
63.940736	96.029	-179.9418
64.404077	96.012	179.8708
64.870776	95.995	179.6854
65.340856	95.978	179.5018
65.814343	95.960	179.3203
66.291261	95.943	179.1406
66.771635	95.926	178.9628
67.255489	95.908	178.7866
67.742850	95.890	178.6122
68.233743	95.872	178.4399
