* Measurement data measured by REW V5.20.13
* Source: EXCL: Mic in at front panel (Pink) (Realtek(R) Audio), MICROPHONE (Master Volume), L, volume: 0.250
* Format: 256k Log Swept Sine, 1 sweep at -12.0 dBFS with no timing reference
* Dated: Apr 5, 2023 5:54:13 PM
* REW Settings:
*  C-weighting compensation: Off
*  Target level: 75.0 dB
* Note: Hidizs MS5 Treble TK2 L
* Measurement: Hidizs MS5 Treble L
* Smoothing: 1/12 octave
* Frequency Step: 1/48 octave
* Start Frequency: 20.000 Hz
*
* Freq(Hz)	SPL(dB)	Phase(degrees)
20.000000	100.209	-172.6885
20.299999	100.223	-172.9968
20.600000	100.237	-173.3057
20.900000	100.252	-173.6182
21.200001	100.266	-173.9326
21.400000	100.275	-174.1393
21.799999	100.292	-174.5399
22.000000	100.301	-174.7334
22.400000	100.320	-175.1127
22.700001	100.336	-175.4006
23.000000	100.350	-175.6968
23.299999	100.362	-175.9942
23.600000	100.371	-176.2802
24.000000	100.379	-176.6256
24.299999	100.387	-176.8568
24.700001	100.401	-177.1499
25.000000	100.415	-177.3808
25.400000	100.431	-177.7184
25.799999	100.441	-178.0700
26.200001	100.446	-178.3945
26.500000	100.450	-178.6094
26.900000	100.460	-178.8777
27.200001	100.471	-179.0941
27.600000	100.487	-179.4303
28.000000	100.496	-179.8072
28.500000	100.495	179.7460
29.000000	100.492	179.3864
29.500000	100.501	179.0551
30.000000	100.514	178.6553
30.400000	100.517	178.2950
30.700001	100.513	178.0394
31.100000	100.504	177.7598
31.500000	100.502	177.5405
32.000000	100.512	177.2574
32.500000	100.526	176.8729
33.000000	100.525	176.4350
33.500000	100.508	176.0763
34.000000	100.497	175.8376
34.500000	100.504	175.6032
35.000000	100.519	175.2549
35.500000	100.520	174.8154
36.000000	100.502	174.4205
36.500000	100.483	174.1520
37.000000	100.480	173.9485
37.500000	100.493	173.6827
38.200001	100.506	173.1235
38.700001	100.495	172.6971
39.500000	100.462	172.2334
40.000000	100.455	172.0600
40.599998	100.468	171.8217
41.200001	100.488	171.4421
41.799999	100.492	170.9640
42.500000	100.471	170.4569
43.099998	100.449	170.1568
43.700001	100.440	169.9271
44.400002	100.447	169.6024
45.000000	100.454	169.2089
45.500000	100.448	168.8327
46.200001	100.422	168.3435
46.799999	100.392	168.0323
47.500000	100.366	167.7758
48.200001	100.358	167.5292
48.700001	100.358	167.3085
49.400002	100.356	166.9229
50.000000	100.346	166.5474
50.799999	100.317	166.0468
51.500000	100.279	165.6671
52.200001	100.236	165.3774
53.000000	100.191	165.1546
53.799999	100.160	165.0010
54.500000	100.146	164.8749
55.200001	100.144	164.7192
56.000000	100.152	164.4632
57.000000	100.164	163.9756
58.000000	100.151	163.3639
59.000000	100.109	162.8380
60.000000	100.062	162.5192
60.799999	100.037	162.3601
61.500000	100.026	162.2335
62.200001	100.024	162.0886
63.000000	100.029	161.8804
64.000000	100.039	161.5374
65.000000	100.046	161.1152
66.000000	100.045	160.6574
67.000000	100.039	160.1917
68.000000	100.029	159.7288
69.000000	100.016	159.2755
70.000000	100.002	158.8401
71.000000	99.989	158.4291
72.000000	99.979	158.0272
73.000000	99.970	157.6077
74.000000	99.953	157.1673
75.000000	99.925	156.7391
76.199997	99.877	156.2885
77.500000	99.817	155.8642
78.800003	99.754	155.4401
80.000000	99.696	155.0090
81.199997	99.638	154.5288
82.500000	99.578	153.9731
83.800003	99.524	153.4254
85.000000	99.483	152.9490
86.199997	99.454	152.4958
87.500000	99.433	152.0189
88.500000	99.422	151.6554
90.000000	99.407	151.0983
91.199997	99.383	150.6624
92.500000	99.336	150.3142
93.800003	99.283	150.1560
95.000000	99.243	150.0816
96.199997	99.209	149.9955
97.500000	99.179	149.8500
98.800003	99.160	149.5823
100.000000	99.141	149.2110
101.500000	99.108	148.6827
103.000000	99.068	148.1959
104.400002	99.031	147.8006
106.000000	98.990	147.4091
107.500000	98.952	147.0950
109.000000	98.917	146.8093
110.599998	98.882	146.4873
112.000000	98.854	146.1544
113.800003	98.827	145.6143
115.000000	98.821	145.1634
117.199997	98.834	144.1259
118.000000	98.838	143.6973
120.599998	98.785	142.5751
122.000000	98.727	142.3684
124.099998	98.648	142.3059
125.000000	98.618	142.2505
126.500000	98.568	142.0598
128.000000	98.520	141.7644
131.500000	98.421	140.9194
132.000000	98.408	140.7991
134.000000	98.352	140.3367
136.000000	98.294	139.8997
138.000000	98.237	139.4705
140.000000	98.182	139.0468
143.000000	98.098	138.4442
145.000000	98.040	138.0641
147.500000	97.967	137.5997
150.000000	97.893	137.1247
152.500000	97.822	136.6445
155.000000	97.756	136.1739
157.500000	97.695	135.7288
160.000000	97.634	135.3312
162.500000	97.571	134.9734
165.000000	97.515	134.6336
167.500000	97.474	134.3149
170.000000	97.446	134.0152
172.500000	97.414	133.6561
175.000000	97.358	133.1932
177.500000	97.285	132.7119
180.000000	97.216	132.2648
182.500000	97.155	131.8388
185.000000	97.096	131.4144
187.500000	97.036	130.9821
190.000000	96.973	130.5201
192.500000	96.908	130.0058
195.000000	96.843	129.4935
197.500000	96.780	129.1244
200.000000	96.725	128.9355
203.000000	96.667	128.7262
206.000000	96.605	128.3865
209.000000	96.539	127.9854
212.000000	96.474	127.5899
214.000000	96.431	127.3302
218.000000	96.345	126.8120
220.000000	96.303	126.5574
224.000000	96.221	126.0666
227.000000	96.161	125.7180
230.000000	96.102	125.3828
233.000000	96.044	125.0539
236.000000	95.986	124.7271
240.000000	95.909	124.2951
243.000000	95.852	123.9757
247.000000	95.777	123.5554
250.000000	95.722	123.2449
254.000000	95.648	122.8405
258.000000	95.576	122.4479
262.000000	95.505	122.0654
265.000000	95.453	121.7837
269.000000	95.385	121.4132
272.000000	95.334	121.1379
276.000000	95.267	120.7734
280.000000	95.201	120.4144
285.000000	95.120	119.9767
290.000000	95.040	119.5490
295.000000	94.961	119.1294
300.000000	94.884	118.7234
304.000000	94.824	118.4084
307.000000	94.780	118.1755
311.000000	94.721	117.8682
315.000000	94.663	117.5645
320.000000	94.593	117.1911
325.000000	94.524	116.8257
330.000000	94.455	116.4677
335.000000	94.388	116.1167
340.000000	94.323	115.7731
345.000000	94.258	115.4359
350.000000	94.194	115.1045
355.000000	94.132	114.7794
360.000000	94.070	114.4609
365.000000	94.010	114.1483
370.000000	93.951	113.8415
375.000000	93.893	113.5405
382.000000	93.813	113.1290
387.000000	93.757	112.8422
395.000000	93.670	112.3972
400.000000	93.617	112.1277
406.000000	93.554	111.8123
412.000000	93.493	111.5054
418.000000	93.433	111.2068
425.000000	93.365	110.8682
431.000000	93.308	110.5846
437.000000	93.253	110.3066
444.000000	93.190	109.9903
450.000000	93.136	109.7264
455.000000	93.092	109.5119
462.000000	93.031	109.2209
468.000000	92.980	108.9813
475.000000	92.922	108.7137
482.000000	92.865	108.4587
487.000000	92.826	108.2844
494.000000	92.772	108.0520
500.000000	92.727	107.8641
508.000000	92.670	107.6291
515.000000	92.621	107.4357
522.000000	92.573	107.2521
530.000000	92.521	107.0547
538.000000	92.471	106.8717
545.000000	92.430	106.7231
552.000000	92.390	106.5850
560.000000	92.347	106.4399
570.000000	92.296	106.2752
580.000000	92.249	106.1280
590.000000	92.206	105.9986
600.000000	92.167	105.8828
608.000000	92.139	105.7946
615.000000	92.116	105.7171
622.000000	92.096	105.6375
630.000000	92.075	105.5442
640.000000	92.052	105.4282
650.000000	92.033	105.3189
660.000000	92.015	105.2173
670.000000	91.999	105.1217
680.000000	91.985	105.0327
690.000000	91.972	104.9507
700.000000	91.961	104.8766
710.000000	91.951	104.8114
720.000000	91.943	104.7562
730.000000	91.936	104.7115
740.000000	91.931	104.6768
750.000000	91.928	104.6512
762.000000	91.927	104.6323
775.000000	91.929	104.6265
788.000000	91.935	104.6339
800.000000	91.943	104.6513
812.000000	91.954	104.6781
825.000000	91.970	104.7153
838.000000	91.990	104.7588
850.000000	92.011	104.8019
862.000000	92.036	104.8450
875.000000	92.066	104.8901
885.000000	92.090	104.9230
900.000000	92.131	104.9671
912.000000	92.166	104.9956
925.000000	92.207	105.0176
938.000000	92.249	105.0299
950.000000	92.291	105.0315
962.000000	92.333	105.0225
975.000000	92.380	105.0001
988.000000	92.428	104.9641
1000.000000	92.472	104.9189
1015.000000	92.528	104.8466
1030.000000	92.583	104.7568
1044.000000	92.634	104.6578
1060.000000	92.691	104.5284
1075.000000	92.742	104.3940
1090.000000	92.791	104.2485
1106.000000	92.840	104.0842
1120.000000	92.881	103.9352
1138.000000	92.928	103.7410
1150.000000	92.957	103.6125
1172.000000	93.006	103.3828
1180.000000	93.022	103.3016
1206.000000	93.070	103.0480
1220.000000	93.092	102.9200
1241.000000	93.118	102.7455
1250.000000	93.127	102.6799
1265.000000	93.140	102.5862
1280.000000	93.149	102.5150
1315.000000	93.160	102.4546
1320.000000	93.161	102.4599
1340.000000	93.162	102.5206
1360.000000	93.163	102.6497
1380.000000	93.166	102.8518
1400.000000	93.174	103.1216
1430.000000	93.203	103.6015
1450.000000	93.234	103.9242
1475.000000	93.280	104.2899
1500.000000	93.326	104.6024
1525.000000	93.363	104.8899
1550.000000	93.390	105.2047
1575.000000	93.409	105.5888
1600.000000	93.426	106.0622
1625.000000	93.444	106.6261
1650.000000	93.467	107.2733
1675.000000	93.494	107.9963
1700.000000	93.529	108.7936
1725.000000	93.572	109.6658
1750.000000	93.627	110.6059
1775.000000	93.697	111.5925
1800.000000	93.782	112.5981
1825.000000	93.878	113.6066
1850.000000	93.983	114.6190
1875.000000	94.097	115.6454
1900.000000	94.220	116.6976
1925.000000	94.355	117.7881
1950.000000	94.505	118.9287
1975.000000	94.677	120.1195
2000.000000	94.883	121.3282
2030.000000	95.180	122.6898
2060.000000	95.524	123.7743
2090.000000	95.890	124.4328
2120.000000	96.243	124.6472
2140.000000	96.459	124.5959
2180.000000	96.836	124.2488
2200.000000	97.001	124.0400
2240.000000	97.302	123.6649
2270.000000	97.518	123.4193
2300.000000	97.731	123.1560
2330.000000	97.938	122.8269
2360.000000	98.134	122.4130
2400.000000	98.364	121.7675
2430.000000	98.513	121.2711
2470.000000	98.683	120.6729
2500.000000	98.795	120.3063
2540.000000	98.934	119.9454
2580.000000	99.074	119.7142
2620.000000	99.223	119.5603
2650.000000	99.344	119.4487
2690.000000	99.516	119.2384
2720.000000	99.648	118.9982
2760.000000	99.821	118.5406
2800.000000	99.980	117.9267
2850.000000	100.149	116.9804
2900.000000	100.274	115.9064
2950.000000	100.353	114.7841
3000.000000	100.384	113.6905
3040.000000	100.376	112.8840
3070.000000	100.352	112.3401
3110.000000	100.298	111.7193
3150.000000	100.220	111.2416
3200.000000	100.096	110.8793
3250.000000	99.950	110.8085
3300.000000	99.789	111.0480
3350.000000	99.622	111.5981
3400.000000	99.458	112.4404
3450.000000	99.301	113.5435
3500.000000	99.156	114.8755
3550.000000	99.024	116.4128
3600.000000	98.908	118.1415
3650.000000	98.808	120.0527
3700.000000	98.729	122.1346
3750.000000	98.676	124.3685
3820.000000	98.649	127.7034
3870.000000	98.669	130.1944
3950.000000	98.771	134.2878
4000.000000	98.880	136.8693
4060.000000	99.057	139.9448
4120.000000	99.285	142.9515
4180.000000	99.563	145.8409
4250.000000	99.950	148.9941
4310.000000	100.333	151.4446
4370.000000	100.759	153.5938
4440.000000	101.304	155.6206
4500.000000	101.798	156.8524
4550.000000	102.218	157.4614
4620.000000	102.793	157.6033
4680.000000	103.248	157.0360
4750.000000	103.698	155.6125
4820.000000	104.030	153.5256
4870.000000	104.180	151.7752
4940.000000	104.262	149.2170
5000.000000	104.216	147.1544
5080.000000	104.008	144.9212
5150.000000	103.720	143.6679
5220.000000	103.364	143.1790
5300.000000	102.914	143.5812
5380.000000	102.456	144.9545
5450.000000	102.078	146.8667
5520.000000	101.739	149.3396
5600.000000	101.422	152.7033
5700.000000	101.149	157.4387
5800.000000	101.019	162.4395
5900.000000	101.020	167.4251
6000.000000	101.131	172.1986
6080.000000	101.283	175.7767
6150.000000	101.451	178.6945
6220.000000	101.642	-178.6048
6300.000000	101.879	-175.7924
6400.000000	102.184	-172.6727
6500.000000	102.483	-169.9347
6600.000000	102.762	-167.4755
6700.000000	103.016	-165.1685
6800.000000	103.253	-162.8911
6900.000000	103.488	-160.5564
7000.000000	103.745	-158.1401
7100.000000	104.052	-155.6978
7200.000000	104.433	-153.3683
7300.000000	104.905	-151.3728
7400.000000	105.468	-150.0169
7500.000000	106.098	-149.6808
7620.000000	106.862	-151.1852
7750.000000	107.532	-155.6454
7880.000000	107.835	-162.7184
8000.000000	107.666	-170.2079
8120.000000	107.055	-176.8255
8250.000000	105.998	178.5005
8380.000000	104.713	176.8442
8500.000000	103.491	177.5434
8620.000000	102.351	179.6518
8750.000000	101.279	-177.2933
8850.000000	100.579	-174.8631
9000.000000	99.691	-171.7072
9120.000000	99.054	-169.9213
9250.000000	98.348	-168.7869
9380.000000	97.543	-168.2099
9500.000000	96.657	-167.6991
9620.000000	95.611	-166.6863
9750.000000	94.305	-164.5210
9880.000000	92.855	-160.9244
10000.000000	91.430	-156.2538
10150.000000	89.599	-148.7038
10300.000000	87.780	-139.5090
10440.000000	86.140	-129.6956
10600.000000	84.378	-117.2931
10750.000000	82.866	-104.7700
10900.000000	81.509	-91.6318
11060.000000	80.239	-77.1605
11200.000000	79.265	-64.2154
11380.000000	78.180	-47.2507
11500.000000	77.550	-35.7593
11720.000000	76.572	-14.3520
11800.000000	76.272	-6.4691
12060.000000	75.497	19.4503
12200.000000	75.211	33.5699
12410.000000	74.970	54.9601
12500.000000	74.943	64.2127
12650.000000	75.014	79.7529
12800.000000	75.248	95.4245
13150.000000	76.580	132.0657
13200.000000	76.875	137.2332
13400.000000	78.354	157.5025
13600.000000	80.379	177.0094
13800.000000	82.994	-164.4520
14000.000000	86.039	-147.7498
14300.000000	90.675	-129.9149
14500.000000	93.337	-125.6123
14750.000000	95.795	-129.7250
15000.000000	97.200	-140.2969
15250.000000	97.840	-151.0290
15500.000000	98.238	-159.2329
15750.000000	98.799	-166.8730
16000.000000	99.379	-178.0648
16250.000000	99.346	165.9850
16500.000000	98.251	150.1636
16750.000000	96.240	138.9709
17000.000000	93.786	131.0557
17250.000000	91.228	123.5353
17500.000000	88.557	116.6079
17750.000000	85.560	113.5516
18000.000000	82.107	117.2234
18250.000000	78.231	127.7425
18500.000000	74.048	143.2541
18750.000000	69.703	161.6622
19000.000000	65.341	-178.2613
19250.000000	61.087	-156.8534
19500.000000	57.044	-134.2769
19750.000000	53.293	-111.1130
20000.000000	49.918	-88.4739
