* Measurement data measured by REW V5.31
* Source: EXCL: Microphone (USB Sound Device        ), MICROPHONE (Master Volume), L, volume: 0.390
* Format: 256k Log Swept Sine, 1 sweep at -5.0 dBFS with no timing reference
* Dated: Sep 4, 2024 12:51:11 AM
* REW Settings:
*  C-weighting compensation: Off
*  Target level: 75.0 dB
* Note: HZSOUND Luna L
* Measurement: L HZSOUND Luna
* Smoothing: 1/12 octave
* Frequency Step: 96 ppo
* Start Frequency: 0.36621094 Hz
*
* Freq(Hz)	SPL(dB)	Phase(degrees)
0.366211	83.610	158.5953
0.368865	83.604	158.5723
0.371538	83.595	158.5379
0.374230	83.584	158.4947
0.376942	83.572	158.4449
0.379673	83.559	158.3901
0.382424	83.545	158.3315
0.385196	83.530	158.2697
0.387987	83.516	158.2052
0.390798	83.501	158.1380
0.393630	83.487	158.0683
0.396483	83.472	157.9961
0.399356	83.457	157.9214
0.402250	83.441	157.8443
0.405165	83.426	157.7647
0.408101	83.411	157.6825
0.411058	83.395	157.5978
0.414037	83.380	157.5106
0.417037	83.364	157.4208
0.420059	83.348	157.3283
0.423103	83.332	157.2332
0.426169	83.316	157.1355
0.429257	83.300	157.0351
0.432368	83.283	156.9319
0.435501	83.267	156.8260
0.438656	83.250	156.7174
0.441835	83.234	156.6060
0.445037	83.217	156.4917
0.448262	83.200	156.3747
0.451510	83.183	156.2548
0.454782	83.166	156.1320
0.458077	83.149	156.0064
0.461397	83.131	155.8778
0.464740	83.114	155.7463
0.468108	83.096	155.6118
0.471500	83.078	155.4744
0.474917	83.060	155.3340
0.478358	83.042	155.1906
0.481825	83.024	155.0442
0.485316	83.006	154.8947
0.488833	82.987	154.7422
0.492375	82.969	154.5867
0.495943	82.950	154.4281
0.499537	82.931	154.2664
0.503157	82.912	154.1016
0.506803	82.893	153.9338
0.510475	82.874	153.7628
0.514175	82.854	153.5888
0.517900	82.835	153.4116
0.521653	82.815	153.2313
0.525434	82.795	153.0480
0.529241	82.775	152.8615
0.533076	82.755	152.6720
0.536939	82.735	152.4793
0.540830	82.715	152.2836
0.544749	82.694	152.0848
0.548696	82.673	151.8830
0.552673	82.652	151.6782
0.556677	82.631	151.4703
0.560711	82.610	151.2595
0.564774	82.589	151.0457
0.568867	82.567	150.8290
0.572989	82.546	150.6094
0.577141	82.524	150.3869
0.581324	82.502	150.1616
0.585536	82.480	149.9335
0.589779	82.458	149.7027
0.594053	82.435	149.4692
0.598358	82.413	149.2331
0.602694	82.390	148.9945
0.607061	82.367	148.7534
0.611460	82.344	148.5098
0.615891	82.321	148.2639
0.620354	82.297	148.0157
0.624849	82.274	147.7654
0.629377	82.250	147.5130
0.633938	82.226	147.2586
0.638532	82.202	147.0023
0.643159	82.178	146.7442
0.647819	82.153	146.4846
0.652514	82.129	146.2233
0.657242	82.104	145.9607
0.662005	82.079	145.6969
0.666802	82.054	145.4320
0.671634	82.029	145.1661
0.676501	82.003	144.8994
0.681403	81.977	144.6322
0.686341	81.951	144.3645
0.691314	81.925	144.0966
0.696324	81.899	143.8286
0.701370	81.872	143.5607
0.706452	81.845	143.2930
0.711571	81.817	143.0257
0.716728	81.789	142.7585
0.721921	81.759	142.4913
0.727153	81.728	142.2237
0.732422	81.695	141.9548
0.737729	81.660	141.6836
0.743075	81.622	141.4092
0.748460	81.583	141.1305
0.753883	81.543	140.8470
0.759346	81.501	140.5579
0.764849	81.458	140.2631
0.770391	81.415	139.9623
0.775974	81.371	139.6553
0.781597	81.326	139.3419
0.787261	81.281	139.0220
0.792966	81.235	138.6957
0.798712	81.189	138.3626
0.804500	81.142	138.0229
0.810329	81.094	137.6764
0.816201	81.045	137.3230
0.822116	80.996	136.9627
0.828073	80.946	136.5954
0.834074	80.895	136.2211
0.840118	80.844	135.8397
0.846206	80.791	135.4511
0.852338	80.738	135.0553
0.858514	80.684	134.6523
0.864735	80.629	134.2421
0.871001	80.573	133.8246
0.877313	80.516	133.3997
0.883670	80.458	132.9677
0.890074	80.399	132.5283
0.896524	80.339	132.0816
0.903020	80.278	131.6278
0.909564	80.216	131.1667
0.916155	80.153	130.6986
0.922794	80.088	130.2234
0.929481	80.022	129.7412
0.936216	79.955	129.2522
0.943000	79.887	128.7565
0.949834	79.817	128.2542
0.956717	79.746	127.7456
0.963649	79.673	127.2308
0.970632	79.599	126.7100
0.977666	79.523	126.1835
0.984750	79.446	125.6515
0.991886	79.367	125.1145
0.999074	79.286	124.5727
1.006314	79.203	124.0265
1.013606	79.119	123.4763
1.020951	79.033	122.9227
1.028349	78.945	122.3660
1.035801	78.855	121.8068
1.043307	78.763	121.2457
1.050867	78.668	120.6833
1.058482	78.572	120.1201
1.066152	78.473	119.5567
1.073878	78.372	118.9936
1.081660	78.268	118.4311
1.089498	78.162	117.8692
1.097393	78.052	117.3074
1.105345	77.939	116.7451
1.113355	77.822	116.1812
1.121423	77.701	115.6146
1.129549	77.576	115.0442
1.137734	77.447	114.4690
1.145979	77.313	113.8882
1.154283	77.176	113.3009
1.162647	77.034	112.7064
1.171072	76.889	112.1038
1.179558	76.740	111.4923
1.188106	76.587	110.8711
1.196715	76.430	110.2392
1.205387	76.270	109.5957
1.214122	76.107	108.9396
1.222920	75.941	108.2699
1.231782	75.772	107.5853
1.240708	75.601	106.8848
1.249699	75.427	106.1671
1.258754	75.251	105.4307
1.267876	75.073	104.6744
1.277063	74.893	103.8965
1.286318	74.712	103.0955
1.295639	74.529	102.2698
1.305027	74.346	101.4175
1.314484	74.162	100.5368
1.324009	73.978	99.6258
1.333604	73.794	98.6824
1.343268	73.611	97.7046
1.353002	73.428	96.6901
1.362806	73.246	95.6368
1.372681	73.066	94.5423
1.382628	72.888	93.4045
1.392647	72.712	92.2210
1.402739	72.538	90.9897
1.412904	72.368	89.7084
1.423142	72.201	88.3751
1.433455	72.037	86.9878
1.443843	71.877	85.5445
1.454305	71.720	84.0428
1.464844	71.565	82.4799
1.475459	71.413	80.8522
1.486150	71.261	79.1551
1.496920	71.108	77.3831
1.507767	70.956	75.5301
1.518693	70.803	73.5895
1.529698	70.648	71.5544
1.540783	70.494	69.4176
1.551948	70.339	67.1721
1.563194	70.185	64.8107
1.574521	70.031	62.3267
1.585931	69.878	59.7140
1.597423	69.728	56.9676
1.608999	69.579	54.0839
1.620658	69.434	51.0610
1.632402	69.292	47.8999
1.644232	69.154	44.6044
1.656146	69.022	41.1821
1.668147	68.895	37.6444
1.680235	68.774	34.0071
1.692411	68.661	30.2900
1.704675	68.556	26.5166
1.717028	68.460	22.7134
1.729470	68.373	18.9086
1.742003	68.298	15.1309
1.754626	68.234	11.4079
1.767341	68.184	7.7640
1.780147	68.147	4.2191
1.793047	68.126	0.7862
1.806040	68.122	-2.5301
1.819128	68.136	-5.7347
1.832310	68.169	-8.8396
1.845587	68.223	-11.8590
1.858961	68.299	-14.8007
1.872432	68.397	-17.6633
1.886001	68.516	-20.4387
1.899667	68.657	-23.1161
1.913433	68.817	-25.6857
1.927299	68.996	-28.1394
1.941265	69.191	-30.4724
1.955332	69.401	-32.6826
1.969501	69.625	-34.7704
1.983773	69.860	-36.7381
1.998148	70.105	-38.5897
2.012627	70.358	-40.3302
2.027212	70.616	-41.9650
2.041902	70.877	-43.5005
2.056698	71.139	-44.9429
2.071602	71.400	-46.2987
2.086614	71.658	-47.5743
2.101734	71.911	-48.7760
2.116964	72.155	-49.9102
2.132304	72.390	-50.9831
2.147756	72.614	-52.0010
2.163320	72.825	-52.9705
2.178996	73.024	-53.8981
2.194786	73.209	-54.7903
2.210690	73.383	-55.6526
2.226710	73.547	-56.4889
2.242845	73.703	-57.3018
2.259098	73.850	-58.0926
2.275468	73.992	-58.8620
2.291957	74.127	-59.6103
2.308566	74.258	-60.3373
2.325295	74.383	-61.0429
2.342145	74.505	-61.7265
2.359117	74.622	-62.3875
2.376212	74.735	-63.0250
2.393431	74.845	-63.6380
2.410775	74.952	-64.2253
2.428244	75.057	-64.7857
2.445840	75.159	-65.3178
2.463564	75.260	-65.8201
2.481416	75.359	-66.2911
2.499397	75.457	-66.7296
2.517509	75.554	-67.1346
2.535752	75.650	-67.5055
2.554127	75.744	-67.8426
2.572635	75.837	-68.1468
2.591277	75.927	-68.4198
2.610055	76.014	-68.6634
2.628968	76.098	-68.8797
2.648019	76.179	-69.0704
2.667208	76.257	-69.2371
2.686535	76.332	-69.3812
2.706003	76.405	-69.5039
2.725612	76.476	-69.6064
2.745363	76.546	-69.6897
2.765257	76.614	-69.7548
2.785295	76.682	-69.8027
2.805478	76.751	-69.8340
2.825808	76.820	-69.8497
2.846285	76.891	-69.8501
2.866910	76.963	-69.8357
2.887685	77.037	-69.8062
2.908611	77.113	-69.7613
2.929688	77.192	-69.6997
2.950917	77.272	-69.6204
2.972301	77.354	-69.5224
2.993839	77.438	-69.4056
3.015534	77.522	-69.2708
3.037386	77.608	-69.1197
3.059396	77.695	-68.9544
3.081565	77.783	-68.7775
3.103896	77.872	-68.5919
3.126388	77.962	-68.4004
3.149043	78.054	-68.2059
3.171862	78.148	-68.0114
3.194847	78.243	-67.8194
3.217998	78.340	-67.6321
3.241317	78.440	-67.4509
3.264805	78.542	-67.2764
3.288463	78.646	-67.1082
3.312293	78.753	-66.9450
3.336295	78.862	-66.7852
3.360471	78.974	-66.6278
3.384822	79.089	-66.4730
3.409350	79.205	-66.3217
3.434056	79.324	-66.1757
3.458940	79.444	-66.0373
3.484005	79.566	-65.9090
3.509252	79.688	-65.7935
3.534681	79.811	-65.6932
3.560295	79.934	-65.6104
3.586094	80.057	-65.5472
3.612081	80.180	-65.5051
3.638255	80.302	-65.4849
3.664620	80.424	-65.4865
3.691175	80.545	-65.5091
3.717923	80.667	-65.5514
3.744864	80.788	-65.6122
3.772001	80.909	-65.6900
3.799335	81.029	-65.7838
3.826866	81.149	-65.8925
3.854597	81.269	-66.0154
3.882529	81.387	-66.1517
3.910664	81.503	-66.3010
3.939002	81.618	-66.4630
3.967546	81.730	-66.6375
3.996296	81.841	-66.8249
4.025255	81.949	-67.0254
4.054423	82.054	-67.2394
4.083804	82.158	-67.4672
4.113396	82.258	-67.7082
4.143204	82.357	-67.9614
4.173227	82.453	-68.2252
4.203468	82.547	-68.4978
4.233928	82.638	-68.7773
4.264609	82.727	-69.0618
4.295512	82.814	-69.3497
4.326639	82.898	-69.6398
4.357992	82.980	-69.9315
4.389572	83.059	-70.2250
4.421380	83.135	-70.5207
4.453419	83.208	-70.8194
4.485691	83.279	-71.1212
4.518196	83.347	-71.4254
4.550936	83.412	-71.7308
4.583914	83.475	-72.0358
4.617131	83.536	-72.3383
4.650589	83.595	-72.6363
4.684289	83.652	-72.9282
4.718233	83.707	-73.2124
4.752424	83.761	-73.4885
4.786862	83.813	-73.7563
4.821549	83.863	-74.0163
4.856488	83.911	-74.2689
4.891680	83.958	-74.5144
4.927127	84.004	-74.7530
4.962831	84.048	-74.9844
4.998794	84.092	-75.2082
5.035017	84.135	-75.4239
5.071503	84.178	-75.6308
5.108253	84.221	-75.8286
5.145270	84.264	-76.0167
5.182555	84.308	-76.1953
5.220110	84.351	-76.3648
5.257937	84.395	-76.5263
5.296038	84.439	-76.6811
5.334415	84.483	-76.8306
5.373071	84.528	-76.9764
5.412006	84.575	-77.1198
5.451224	84.622	-77.2617
5.490725	84.671	-77.4024
5.530514	84.721	-77.5423
5.570590	84.773	-77.6815
5.610957	84.826	-77.8207
5.651616	84.880	-77.9613
5.692570	84.935	-78.1050
5.733821	84.992	-78.2537
5.775370	85.050	-78.4093
5.817221	85.108	-78.5733
5.859375	85.168	-78.7465
5.901834	85.229	-78.9294
5.944602	85.291	-79.1220
5.987679	85.354	-79.3246
6.031068	85.417	-79.5375
6.074771	85.481	-79.7612
6.118792	85.545	-79.9966
6.163131	85.609	-80.2444
6.207792	85.673	-80.5051
6.252776	85.737	-80.7791
6.298086	85.800	-81.0662
6.343725	85.863	-81.3659
6.389694	85.925	-81.6774
6.435996	85.987	-81.9997
6.482634	86.048	-82.3318
6.529610	86.108	-82.6729
6.576926	86.166	-83.0225
6.624585	86.224	-83.3803
6.672590	86.280	-83.7459
6.720942	86.335	-84.1185
6.769645	86.389	-84.4970
6.818700	86.442	-84.8799
6.868111	86.493	-85.2658
6.917881	86.544	-85.6533
6.968010	86.593	-86.0417
7.018504	86.641	-86.4304
7.069362	86.688	-86.8190
7.120590	86.734	-87.2070
7.172189	86.780	-87.5936
7.224161	86.825	-87.9779
7.276511	86.870	-88.3589
7.329239	86.915	-88.7361
7.382350	86.959	-89.1092
7.435845	87.004	-89.4782
7.489729	87.048	-89.8434
7.544002	87.093	-90.2050
7.598669	87.139	-90.5634
7.653732	87.185	-90.9187
7.709194	87.232	-91.2713
7.765058	87.280	-91.6213
7.821327	87.329	-91.9694
7.878004	87.379	-92.3162
7.935091	87.430	-92.6628
7.992592	87.482	-93.0100
8.050510	87.536	-93.3587
8.108847	87.590	-93.7093
8.167607	87.645	-94.0624
8.226793	87.702	-94.4183
8.286408	87.759	-94.7777
8.346454	87.817	-95.1412
8.406936	87.876	-95.5092
8.467856	87.935	-95.8821
8.529218	87.995	-96.2598
8.591024	88.056	-96.6422
8.653278	88.116	-97.0291
8.715983	88.177	-97.4200
8.779143	88.237	-97.8148
8.842760	88.297	-98.2131
8.906839	88.358	-98.6143
8.971381	88.417	-99.0179
9.036392	88.477	-99.4228
9.101873	88.536	-99.8283
9.167829	88.595	-100.2337
9.234263	88.653	-100.6383
9.301178	88.711	-101.0415
9.368578	88.769	-101.4426
9.436467	88.826	-101.8408
9.504847	88.883	-102.2356
9.573723	88.939	-102.6265
9.643099	88.994	-103.0132
9.712976	89.049	-103.3955
9.783361	89.102	-103.7733
9.854255	89.153	-104.1464
9.925663	89.202	-104.5149
9.997588	89.249	-104.8790
10.070035	89.293	-105.2388
10.143007	89.337	-105.5948
10.216507	89.378	-105.9473
10.290540	89.419	-106.2966
10.365109	89.459	-106.6433
10.440219	89.498	-106.9875
10.515873	89.536	-107.3298
10.592076	89.575	-107.6706
10.668830	89.613	-108.0101
10.746141	89.651	-108.3486
10.824012	89.689	-108.6863
10.902447	89.726	-109.0233
10.981451	89.764	-109.3597
11.061027	89.801	-109.6956
11.141180	89.837	-110.0308
11.221913	89.874	-110.3654
11.303232	89.909	-110.6992
11.385140	89.944	-111.0321
11.467641	89.979	-111.3639
11.550741	90.013	-111.6946
11.634442	90.047	-112.0240
11.718750	90.080	-112.3521
11.803669	90.114	-112.6788
11.889203	90.147	-113.0040
11.975357	90.179	-113.3278
12.062136	90.212	-113.6503
12.149543	90.244	-113.9715
12.237583	90.277	-114.2916
12.326262	90.308	-114.6106
12.415583	90.339	-114.9286
12.505552	90.370	-115.2460
12.596172	90.400	-115.5627
12.687449	90.430	-115.8788
12.779387	90.459	-116.1947
12.871992	90.487	-116.5102
12.965268	90.515	-116.8257
13.059220	90.542	-117.1411
13.153852	90.569	-117.4566
13.249170	90.596	-117.7723
13.345179	90.622	-118.0884
13.441884	90.649	-118.4050
13.539289	90.675	-118.7223
13.637401	90.701	-119.0405
13.736223	90.727	-119.3599
13.835761	90.753	-119.6808
13.936021	90.778	-120.0034
14.037007	90.803	-120.3280
14.138725	90.828	-120.6548
14.241180	90.853	-120.9842
14.344377	90.877	-121.3162
14.448323	90.900	-121.6512
14.553021	90.924	-121.9890
14.658478	90.947	-122.3298
14.764700	90.969	-122.6735
14.871691	90.992	-123.0200
14.979457	91.014	-123.3692
15.088005	91.036	-123.7207
15.197339	91.057	-124.0744
15.307465	91.079	-124.4300
15.418389	91.100	-124.7873
15.530117	91.122	-125.1461
15.642655	91.143	-125.5062
15.756008	91.164	-125.8674
15.870182	91.184	-126.2298
15.985184	91.205	-126.5932
16.101019	91.226	-126.9576
16.217694	91.247	-127.3231
16.335214	91.268	-127.6896
16.453586	91.289	-128.0571
16.572815	91.310	-128.4256
16.692909	91.332	-128.7949
16.813872	91.354	-129.1648
16.935713	91.377	-129.5350
17.058436	91.399	-129.9054
17.182048	91.422	-130.2755
17.306556	91.446	-130.6450
17.431967	91.469	-131.0136
17.558286	91.492	-131.3810
17.685521	91.516	-131.7470
17.813677	91.539	-132.1113
17.942762	91.563	-132.4740
18.072783	91.587	-132.8350
18.203746	91.610	-133.1943
18.335658	91.634	-133.5520
18.468526	91.658	-133.9082
18.602356	91.682	-134.2629
18.737156	91.706	-134.6161
18.872934	91.731	-134.9678
19.009695	91.755	-135.3179
19.147447	91.779	-135.6662
19.286197	91.803	-136.0124
19.425953	91.827	-136.3564
19.566721	91.850	-136.6979
19.708510	91.873	-137.0369
19.851326	91.896	-137.3732
19.995177	91.918	-137.7068
20.140070	91.940	-138.0380
20.286013	91.961	-138.3669
20.433014	91.982	-138.6938
20.581080	92.003	-139.0190
20.730219	92.023	-139.3428
20.880439	92.042	-139.6655
21.031747	92.062	-139.9874
21.184152	92.081	-140.3086
21.337661	92.099	-140.6292
21.492282	92.118	-140.9493
21.648024	92.135	-141.2688
21.804895	92.153	-141.5878
21.962902	92.170	-141.9065
22.122054	92.186	-142.2250
22.282360	92.202	-142.5436
22.443827	92.218	-142.8625
22.606464	92.233	-143.1822
22.770280	92.248	-143.5031
22.935283	92.263	-143.8256
23.101481	92.277	-144.1498
23.268884	92.291	-144.4760
23.437500	92.304	-144.8042
23.607338	92.316	-145.1342
23.778406	92.329	-145.4659
23.950714	92.340	-145.7988
24.124271	92.351	-146.1327
24.299086	92.362	-146.4672
24.475167	92.372	-146.8020
24.652524	92.382	-147.1371
24.831166	92.393	-147.4722
25.011103	92.403	-147.8075
25.192344	92.413	-148.1429
25.374898	92.423	-148.4785
25.558775	92.433	-148.8142
25.743984	92.443	-149.1498
25.930536	92.453	-149.4852
26.118439	92.463	-149.8198
26.307704	92.473	-150.1534
26.498341	92.483	-150.4854
26.690359	92.493	-150.8157
26.883768	92.503	-151.1438
27.078579	92.513	-151.4699
27.274801	92.523	-151.7939
27.472446	92.533	-152.1159
27.671522	92.543	-152.4363
27.872042	92.552	-152.7552
28.074014	92.562	-153.0726
28.277450	92.571	-153.3885
28.482360	92.579	-153.7026
28.688755	92.588	-154.0147
28.896645	92.595	-154.3244
29.106042	92.603	-154.6318
29.316957	92.610	-154.9369
29.529400	92.617	-155.2402
29.743382	92.624	-155.5425
29.958915	92.631	-155.8446
30.176009	92.638	-156.1475
30.394677	92.644	-156.4516
30.614929	92.650	-156.7573
30.836778	92.655	-157.0643
31.060234	92.660	-157.3718
31.285309	92.664	-157.6788
31.512015	92.667	-157.9845
31.740364	92.669	-158.2879
31.970368	92.671	-158.5889
32.202039	92.674	-158.8877
32.435388	92.676	-159.1854
32.670428	92.678	-159.4829
32.907171	92.681	-159.7816
33.145630	92.683	-160.0822
33.385817	92.686	-160.3852
33.627745	92.688	-160.6903
33.871425	92.690	-160.9968
34.116871	92.692	-161.3039
34.364096	92.694	-161.6106
34.613113	92.695	-161.9165
34.863934	92.696	-162.2213
35.116572	92.697	-162.5251
35.371041	92.698	-162.8282
35.627354	92.699	-163.1308
35.885525	92.699	-163.4330
36.145566	92.699	-163.7344
36.407492	92.699	-164.0345
36.671316	92.698	-164.3328
36.937051	92.697	-164.6289
37.204712	92.696	-164.9227
37.474313	92.694	-165.2146
37.745867	92.693	-165.5051
38.019389	92.691	-165.7945
38.294893	92.689	-166.0831
38.572394	92.687	-166.3710
38.851905	92.684	-166.6580
39.133442	92.681	-166.9438
39.417019	92.678	-167.2284
39.702651	92.675	-167.5124
39.990353	92.672	-167.7964
40.280140	92.669	-168.0812
40.572026	92.666	-168.3674
40.866028	92.663	-168.6551
41.162160	92.659	-168.9438
41.460438	92.654	-169.2322
41.760877	92.649	-169.5191
42.063494	92.643	-169.8033
42.368303	92.637	-170.0839
42.675322	92.631	-170.3608
42.984565	92.624	-170.6340
43.296048	92.617	-170.9039
43.609789	92.610	-171.1713
43.925804	92.604	-171.4365
44.244108	92.597	-171.7004
44.564719	92.590	-171.9635
44.887654	92.583	-172.2264
45.212928	92.576	-172.4895
45.540560	92.568	-172.7530
45.870565	92.560	-173.0165
46.202962	92.552	-173.2798
46.537768	92.543	-173.5425
46.875000	92.534	-173.8044
47.214676	92.525	-174.0658
47.556813	92.515	-174.3268
47.901429	92.505	-174.5876
48.248542	92.495	-174.8479
48.598171	92.484	-175.1074
48.950334	92.474	-175.3652
49.305048	92.463	-175.6209
49.662333	92.451	-175.8742
50.022206	92.440	-176.1253
50.384688	92.429	-176.3746
50.749796	92.418	-176.6226
51.117550	92.407	-176.8694
51.487969	92.396	-177.1149
51.861072	92.384	-177.3590
52.236879	92.373	-177.6013
52.615409	92.361	-177.8418
52.996681	92.350	-178.0804
53.380717	92.338	-178.3170
53.767536	92.327	-178.5516
54.157158	92.315	-178.7842
54.549603	92.304	-179.0155
54.944892	92.293	-179.2469
55.343045	92.283	-179.4802
55.744084	92.273	-179.7172
56.148028	92.262	-179.9589
56.554900	92.252	179.7951
56.964720	92.241	179.5459
57.377510	92.229	179.2949
57.793291	92.217	179.0429
58.212085	92.204	178.7901
58.633914	92.191	178.5366
59.058799	92.177	178.2831
59.486764	92.162	178.0311
59.917829	92.146	177.7821
60.352019	92.130	177.5374
60.789354	92.113	177.2969
61.229859	92.096	177.0601
61.673556	92.079	176.8260
62.120468	92.061	176.5945
62.570618	92.043	176.3657
63.024031	92.025	176.1398
63.480729	92.006	175.9165
63.940736	91.987	175.6950
64.404077	91.968	175.4745
64.870776	91.948	175.2547
65.340856	91.928	175.0359
65.814343	91.908	174.8187
66.291261	91.887	174.6041
66.771635	91.866	174.3923
67.255489	91.845	174.1836
67.742850	91.823	173.9778
68.233743	91.801	173.7747
68.728193	91.780	173.5742
69.226226	91.758	173.3759
69.727867	91.737	173.1798
70.233144	91.715	172.9858
70.742083	91.693	172.7939
71.254709	91.671	172.6039
