* Measurement data measured by REW V5.31
* Source: EXCL: Microphone (USB Sound Device        ), MICROPHONE (Master Volume), L, volume: 0.390
* Format: 256k Log Swept Sine, 1 sweep at -5.0 dBFS with no timing reference
* Dated: Sep 4, 2024 12:52:33 AM
* REW Settings:
*  C-weighting compensation: Off
*  Target level: 75.0 dB
* Note: HZSOUND Luna R
* Measurement: R HZSOUND Luna
* Smoothing: 1/12 octave
* Frequency Step: 96 ppo
* Start Frequency: 0.36621094 Hz
*
* Freq(Hz)	SPL(dB)	Phase(degrees)
0.366211	83.728	158.1293
0.368865	83.722	158.1059
0.371538	83.713	158.0708
0.374230	83.702	158.0267
0.376942	83.689	157.9759
0.379673	83.676	157.9201
0.382424	83.662	157.8603
0.385196	83.647	157.7973
0.387987	83.633	157.7314
0.390798	83.618	157.6628
0.393630	83.603	157.5917
0.396483	83.588	157.5180
0.399356	83.573	157.4418
0.402250	83.557	157.3631
0.405165	83.542	157.2818
0.408101	83.526	157.1979
0.411058	83.511	157.1115
0.414037	83.495	157.0224
0.417037	83.479	156.9306
0.420059	83.463	156.8362
0.423103	83.447	156.7391
0.426169	83.431	156.6393
0.429257	83.414	156.5367
0.432368	83.398	156.4314
0.435501	83.381	156.3232
0.438656	83.365	156.2122
0.441835	83.348	156.0984
0.445037	83.331	155.9817
0.448262	83.314	155.8621
0.451510	83.297	155.7395
0.454782	83.279	155.6141
0.458077	83.262	155.4857
0.461397	83.244	155.3543
0.464740	83.226	155.2199
0.468108	83.209	155.0824
0.471500	83.191	154.9420
0.474917	83.173	154.7984
0.478358	83.154	154.6519
0.481825	83.136	154.5022
0.485316	83.118	154.3494
0.488833	83.099	154.1935
0.492375	83.080	154.0344
0.495943	83.061	153.8723
0.499537	83.042	153.7069
0.503157	83.023	153.5384
0.506803	83.004	153.3668
0.510475	82.984	153.1920
0.514175	82.965	153.0140
0.517900	82.945	152.8328
0.521653	82.925	152.6484
0.525434	82.905	152.4609
0.529241	82.885	152.2702
0.533076	82.865	152.0763
0.536939	82.844	151.8792
0.540830	82.824	151.6791
0.544749	82.803	151.4757
0.548696	82.782	151.2693
0.552673	82.761	151.0597
0.556677	82.740	150.8471
0.560711	82.718	150.6314
0.564774	82.697	150.4127
0.568867	82.675	150.1910
0.572989	82.653	149.9663
0.577141	82.631	149.7386
0.581324	82.609	149.5081
0.585536	82.587	149.2748
0.589779	82.564	149.0387
0.594053	82.542	148.7998
0.598358	82.519	148.5582
0.602694	82.496	148.3141
0.607061	82.473	148.0674
0.611460	82.450	147.8182
0.615891	82.426	147.5666
0.620354	82.402	147.3127
0.624849	82.379	147.0565
0.629377	82.355	146.7983
0.633938	82.331	146.5380
0.638532	82.306	146.2758
0.643159	82.282	146.0118
0.647819	82.257	145.7461
0.652514	82.232	145.4789
0.657242	82.207	145.2103
0.662005	82.182	144.9404
0.666802	82.157	144.6694
0.671634	82.131	144.3974
0.676501	82.105	144.1247
0.681403	82.079	143.8513
0.686341	82.053	143.5776
0.691314	82.027	143.3036
0.696324	82.000	143.0296
0.701370	81.973	142.7557
0.706452	81.946	142.4820
0.711571	81.918	142.2086
0.716728	81.889	141.9355
0.721921	81.859	141.6624
0.727153	81.828	141.3889
0.732422	81.794	141.1140
0.737729	81.759	140.8369
0.743075	81.721	140.5564
0.748460	81.681	140.2716
0.753883	81.640	139.9817
0.759346	81.598	139.6863
0.764849	81.555	139.3850
0.770391	81.511	139.0774
0.775974	81.467	138.7635
0.781597	81.422	138.4431
0.787261	81.376	138.1161
0.792966	81.330	137.7823
0.798712	81.283	137.4418
0.804500	81.235	137.0943
0.810329	81.187	136.7399
0.816201	81.138	136.3785
0.822116	81.088	136.0099
0.828073	81.038	135.6342
0.834074	80.986	135.2512
0.840118	80.934	134.8609
0.846206	80.881	134.4633
0.852338	80.828	134.0583
0.858514	80.773	133.6458
0.864735	80.717	133.2259
0.871001	80.661	132.7985
0.877313	80.603	132.3637
0.883670	80.545	131.9213
0.890074	80.485	131.4715
0.896524	80.425	131.0142
0.903020	80.363	130.5495
0.909564	80.300	130.0773
0.916155	80.236	129.5979
0.922794	80.171	129.1113
0.929481	80.104	128.6174
0.936216	80.037	128.1166
0.943000	79.967	127.6089
0.949834	79.897	127.0945
0.956717	79.825	126.5735
0.963649	79.752	126.0462
0.970632	79.677	125.5128
0.977666	79.600	124.9735
0.984750	79.522	124.4287
0.991886	79.442	123.8787
0.999074	79.361	123.3238
1.006314	79.278	122.7645
1.013606	79.193	122.2011
1.020951	79.106	121.6342
1.028349	79.017	121.0643
1.035801	78.926	120.4919
1.043307	78.833	119.9176
1.050867	78.738	119.3421
1.058482	78.641	118.7659
1.066152	78.541	118.1896
1.073878	78.439	117.6138
1.081660	78.334	117.0386
1.089498	78.227	116.4642
1.097393	78.116	115.8901
1.105345	78.002	115.3156
1.113355	77.884	114.7395
1.121423	77.763	114.1607
1.129549	77.637	113.5781
1.137734	77.506	112.9906
1.145979	77.372	112.3974
1.154283	77.233	111.7976
1.162647	77.091	111.1904
1.171072	76.944	110.5749
1.179558	76.793	109.9502
1.188106	76.639	109.3156
1.196715	76.481	108.6700
1.205387	76.320	108.0124
1.214122	76.156	107.3419
1.222920	75.989	106.6573
1.231782	75.818	105.9575
1.240708	75.645	105.2413
1.249699	75.470	104.5072
1.258754	75.293	103.7540
1.267876	75.113	102.9802
1.277063	74.932	102.1842
1.286318	74.750	101.3645
1.295639	74.566	100.5192
1.305027	74.382	99.6466
1.314484	74.197	98.7448
1.324009	74.011	97.8118
1.333604	73.826	96.8456
1.343268	73.641	95.8440
1.353002	73.457	94.8048
1.362806	73.274	93.7259
1.372681	73.093	92.6049
1.382628	72.914	91.4398
1.392647	72.737	90.2281
1.402739	72.562	88.9680
1.412904	72.391	87.6573
1.423142	72.223	86.2941
1.433455	72.059	84.8767
1.443843	71.898	83.4031
1.454305	71.741	81.8712
1.464844	71.586	80.2784
1.475459	71.434	78.6210
1.486150	71.282	76.8945
1.496920	71.130	75.0933
1.507767	70.978	73.2114
1.518693	70.826	71.2420
1.529698	70.673	69.1784
1.540783	70.519	67.0134
1.551948	70.366	64.7398
1.563194	70.213	62.3508
1.574521	70.061	59.8398
1.585931	69.911	57.2010
1.597423	69.762	54.4295
1.608999	69.615	51.5220
1.620658	69.472	48.4772
1.632402	69.332	45.2966
1.644232	69.197	41.9844
1.656146	69.066	38.5487
1.668147	68.941	35.0015
1.680235	68.822	31.3590
1.692411	68.711	27.6413
1.704675	68.607	23.8722
1.717028	68.512	20.0779
1.729470	68.427	16.2866
1.742003	68.352	12.5265
1.754626	68.288	8.8247
1.767341	68.237	5.2058
1.780147	68.200	1.6905
1.793047	68.177	-1.7056
1.806040	68.171	-4.9724
1.819128	68.182	-8.1064
1.832310	68.212	-11.1098
1.845587	68.263	-13.9898
1.858961	68.334	-16.7554
1.872432	68.427	-19.4156
1.886001	68.541	-21.9778
1.899667	68.675	-24.4475
1.913433	68.828	-26.8289
1.927299	69.000	-29.1250
1.941265	69.187	-31.3379
1.955332	69.390	-33.4692
1.969501	69.605	-35.5203
1.983773	69.832	-37.4922
1.998148	70.067	-39.3858
2.012627	70.310	-41.2017
2.027212	70.559	-42.9406
2.041902	70.810	-44.6030
2.056698	71.062	-46.1894
2.071602	71.313	-47.7001
2.086614	71.561	-49.1357
2.101734	71.803	-50.4966
2.116964	72.037	-51.7835
2.132304	72.262	-52.9977
2.147756	72.475	-54.1412
2.163320	72.676	-55.2169
2.178996	72.864	-56.2296
2.194786	73.039	-57.1857
2.210690	73.202	-58.0928
2.226710	73.356	-58.9592
2.242845	73.500	-59.7917
2.259098	73.637	-60.5954
2.275468	73.767	-61.3738
2.291957	73.891	-62.1288
2.308566	74.009	-62.8614
2.325295	74.123	-63.5716
2.342145	74.232	-64.2593
2.359117	74.337	-64.9236
2.376212	74.437	-65.5634
2.393431	74.535	-66.1775
2.410775	74.629	-66.7644
2.428244	74.721	-67.3224
2.445840	74.810	-67.8497
2.463564	74.898	-68.3444
2.481416	74.984	-68.8047
2.499397	75.069	-69.2289
2.517509	75.152	-69.6156
2.535752	75.235	-69.9639
2.554127	75.316	-70.2740
2.572635	75.395	-70.5467
2.591277	75.471	-70.7837
2.610055	75.544	-70.9870
2.628968	75.614	-71.1586
2.648019	75.680	-71.3004
2.667208	75.743	-71.4141
2.686535	75.804	-71.5010
2.706003	75.862	-71.5624
2.725612	75.918	-71.5994
2.745363	75.972	-71.6130
2.765257	76.026	-71.6044
2.785295	76.080	-71.5744
2.805478	76.135	-71.5240
2.825808	76.191	-71.4538
2.846285	76.249	-71.3646
2.866910	76.309	-71.2567
2.887685	76.373	-71.1300
2.908611	76.439	-70.9837
2.929688	76.509	-70.8166
2.950917	76.581	-70.6271
2.972301	76.656	-70.4143
2.993839	76.733	-70.1779
3.015534	76.812	-69.9190
3.037386	76.893	-69.6397
3.059396	76.976	-69.3429
3.081565	77.061	-69.0318
3.103896	77.148	-68.7103
3.126388	77.237	-68.3821
3.149043	77.328	-68.0511
3.171862	77.422	-67.7212
3.194847	77.518	-67.3958
3.217998	77.617	-67.0777
3.241317	77.720	-66.7692
3.264805	77.825	-66.4710
3.288463	77.934	-66.1829
3.312293	78.047	-65.9031
3.336295	78.163	-65.6298
3.360471	78.284	-65.3620
3.384822	78.408	-65.0998
3.409350	78.535	-64.8444
3.434056	78.665	-64.5981
3.458940	78.798	-64.3638
3.484005	78.932	-64.1444
3.509252	79.068	-63.9432
3.534681	79.205	-63.7631
3.560295	79.342	-63.6069
3.586094	79.478	-63.4770
3.612081	79.615	-63.3749
3.638255	79.750	-63.3015
3.664620	79.886	-63.2565
3.691175	80.020	-63.2389
3.717923	80.155	-63.2470
3.744864	80.289	-63.2789
3.772001	80.424	-63.3329
3.799335	80.558	-63.4076
3.826866	80.691	-63.5017
3.854597	80.823	-63.6139
3.882529	80.954	-63.7435
3.910664	81.084	-63.8897
3.939002	81.211	-64.0521
3.967546	81.335	-64.2304
3.996296	81.457	-64.4249
4.025255	81.576	-64.6359
4.054423	81.692	-64.8639
4.083804	81.805	-65.1088
4.113396	81.915	-65.3702
4.143204	82.022	-65.6467
4.173227	82.127	-65.9364
4.203468	82.229	-66.2370
4.233928	82.328	-66.5463
4.264609	82.424	-66.8619
4.295512	82.517	-67.1820
4.326639	82.608	-67.5052
4.357992	82.695	-67.8308
4.389572	82.780	-68.1590
4.421380	82.861	-68.4904
4.453419	82.939	-68.8259
4.485691	83.013	-69.1656
4.518196	83.085	-69.5089
4.550936	83.153	-69.8542
4.583914	83.218	-70.1994
4.617131	83.281	-70.5423
4.650589	83.342	-70.8803
4.684289	83.400	-71.2115
4.718233	83.456	-71.5344
4.752424	83.511	-71.8480
4.786862	83.563	-72.1525
4.821549	83.613	-72.4485
4.856488	83.661	-72.7364
4.891680	83.706	-73.0165
4.927127	83.750	-73.2888
4.962831	83.793	-73.5529
4.998794	83.835	-73.8081
5.035017	83.875	-74.0536
5.071503	83.916	-74.2886
5.108253	83.957	-74.5123
5.145270	83.997	-74.7244
5.182555	84.037	-74.9249
5.220110	84.078	-75.1143
5.257937	84.118	-75.2936
5.296038	84.158	-75.4644
5.334415	84.199	-75.6281
5.373071	84.241	-75.7862
5.412006	84.284	-75.9400
5.451224	84.328	-76.0904
5.490725	84.373	-76.2378
5.530514	84.420	-76.3823
5.570590	84.468	-76.5243
5.610957	84.518	-76.6645
5.651616	84.570	-76.8045
5.692570	84.622	-76.9462
5.733821	84.676	-77.0919
5.775370	84.732	-77.2436
5.817221	84.788	-77.4030
5.859375	84.846	-77.5711
5.901834	84.906	-77.7484
5.944602	84.966	-77.9350
5.987679	85.028	-78.1312
6.031068	85.090	-78.3375
6.074771	85.154	-78.5549
6.118792	85.217	-78.7842
6.163131	85.281	-79.0264
6.207792	85.345	-79.2823
6.252776	85.409	-79.5523
6.298086	85.473	-79.8362
6.343725	85.536	-80.1336
6.389694	85.599	-80.4435
6.435996	85.662	-80.7651
6.482634	85.723	-81.0974
6.529610	85.784	-81.4396
6.576926	85.844	-81.7913
6.624585	85.902	-82.1522
6.672590	85.960	-82.5219
6.720942	86.016	-82.8995
6.769645	86.071	-83.2838
6.818700	86.124	-83.6731
6.868111	86.177	-84.0660
6.917881	86.228	-84.4610
6.968010	86.278	-84.8573
7.018504	86.327	-85.2542
7.069362	86.375	-85.6514
7.120590	86.422	-86.0482
7.172189	86.469	-86.4436
7.224161	86.514	-86.8364
7.276511	86.560	-87.2258
7.329239	86.605	-87.6110
7.382350	86.650	-87.9916
7.435845	86.695	-88.3676
7.489729	86.740	-88.7392
7.544002	86.786	-89.1067
7.598669	86.832	-89.4701
7.653732	86.879	-89.8298
7.709194	86.927	-90.1857
7.765058	86.975	-90.5382
7.821327	87.025	-90.8879
7.878004	87.076	-91.2356
7.935091	87.128	-91.5822
7.992592	87.182	-91.9287
8.050510	87.236	-92.2760
8.108847	87.292	-92.6245
8.167607	87.349	-92.9749
8.226793	87.408	-93.3277
8.286408	87.467	-93.6835
8.346454	87.528	-94.0431
8.406936	87.589	-94.4072
8.467856	87.651	-94.7760
8.529218	87.714	-95.1497
8.591024	87.778	-95.5282
8.653278	87.841	-95.9113
8.715983	87.905	-96.2988
8.779143	87.970	-96.6906
8.842760	88.034	-97.0863
8.906839	88.098	-97.4855
8.971381	88.162	-97.8875
9.036392	88.225	-98.2916
9.101873	88.289	-98.6968
9.167829	88.352	-99.1025
9.234263	88.414	-99.5080
9.301178	88.476	-99.9128
9.368578	88.538	-100.3160
9.436467	88.599	-100.7170
9.504847	88.660	-101.1151
9.573723	88.720	-101.5097
9.643099	88.780	-101.9005
9.712976	88.838	-102.2872
9.783361	88.895	-102.6696
9.854255	88.950	-103.0476
9.925663	89.002	-103.4210
9.997588	89.052	-103.7899
10.070035	89.101	-104.1545
10.143007	89.147	-104.5150
10.216507	89.192	-104.8717
10.290540	89.235	-105.2249
10.365109	89.278	-105.5749
10.440219	89.320	-105.9220
10.515873	89.361	-106.2666
10.592076	89.401	-106.6089
10.668830	89.442	-106.9494
10.746141	89.482	-107.2881
10.824012	89.522	-107.6252
10.902447	89.562	-107.9610
10.981451	89.601	-108.2954
11.061027	89.640	-108.6286
11.141180	89.679	-108.9605
11.221913	89.717	-109.2912
11.303232	89.754	-109.6206
11.385140	89.791	-109.9486
11.467641	89.828	-110.2751
11.550741	89.864	-110.6003
11.634442	89.900	-110.9239
11.718750	89.935	-111.2461
11.803669	89.970	-111.5668
11.889203	90.005	-111.8862
11.975357	90.040	-112.2043
12.062136	90.074	-112.5212
12.149543	90.108	-112.8370
12.237583	90.142	-113.1520
12.326262	90.175	-113.4662
12.415583	90.208	-113.7798
12.505552	90.240	-114.0930
12.596172	90.272	-114.4059
12.687449	90.302	-114.7185
12.779387	90.333	-115.0310
12.871992	90.362	-115.3434
12.965268	90.391	-115.6559
13.059220	90.419	-115.9684
13.153852	90.447	-116.2810
13.249170	90.474	-116.5937
13.345179	90.502	-116.9068
13.441884	90.529	-117.2203
13.539289	90.555	-117.5344
13.637401	90.582	-117.8492
13.736223	90.608	-118.1651
13.835761	90.634	-118.4824
13.936021	90.660	-118.8013
14.037007	90.686	-119.1221
14.138725	90.711	-119.4453
14.241180	90.736	-119.7711
14.344377	90.761	-120.0999
14.448323	90.785	-120.4318
14.553021	90.809	-120.7670
14.658478	90.832	-121.1055
14.764700	90.855	-121.4474
14.871691	90.878	-121.7926
14.979457	90.901	-122.1410
15.088005	90.924	-122.4922
15.197339	90.946	-122.8460
15.307465	90.969	-123.2022
15.418389	90.991	-123.5603
15.530117	91.013	-123.9203
15.642655	91.034	-124.2817
15.756008	91.056	-124.6443
15.870182	91.077	-125.0081
15.985184	91.099	-125.3730
16.101019	91.120	-125.7389
16.217694	91.142	-126.1058
16.335214	91.164	-126.4738
16.453586	91.186	-126.8428
16.572815	91.208	-127.2128
16.692909	91.231	-127.5838
16.813872	91.254	-127.9558
16.935713	91.278	-128.3284
17.058436	91.302	-128.7015
17.182048	91.326	-129.0748
17.306556	91.351	-129.4478
17.431967	91.376	-129.8203
17.558286	91.400	-130.1918
17.685521	91.425	-130.5619
17.813677	91.450	-130.9303
17.942762	91.474	-131.2968
18.072783	91.499	-131.6612
18.203746	91.524	-132.0233
18.335658	91.549	-132.3832
18.468526	91.574	-132.7407
18.602356	91.599	-133.0961
18.737156	91.624	-133.4493
18.872934	91.649	-133.8005
19.009695	91.675	-134.1497
19.147447	91.700	-134.4969
19.286197	91.725	-134.8421
19.425953	91.750	-135.1853
19.566721	91.775	-135.5265
19.708510	91.800	-135.8654
19.851326	91.823	-136.2020
19.995177	91.847	-136.5361
20.140070	91.869	-136.8678
20.286013	91.892	-137.1970
20.433014	91.913	-137.5236
20.581080	91.934	-137.8478
20.730219	91.955	-138.1698
20.880439	91.975	-138.4896
21.031747	91.994	-138.8076
21.184152	92.014	-139.1241
21.337661	92.033	-139.4394
21.492282	92.052	-139.7539
21.648024	92.071	-140.0681
21.804895	92.089	-140.3822
21.962902	92.107	-140.6968
22.122054	92.125	-141.0121
22.282360	92.142	-141.3284
22.443827	92.158	-141.6460
22.606464	92.175	-141.9650
22.770280	92.190	-142.2855
22.935283	92.205	-142.6076
23.101481	92.220	-142.9313
23.268884	92.234	-143.2565
23.437500	92.248	-143.5833
23.607338	92.261	-143.9118
23.778406	92.274	-144.2418
23.950714	92.287	-144.5735
24.124271	92.299	-144.9067
24.299086	92.311	-145.2415
24.475167	92.322	-145.5778
24.652524	92.334	-145.9151
24.831166	92.345	-146.2532
25.011103	92.356	-146.5917
25.192344	92.366	-146.9301
25.374898	92.377	-147.2678
25.558775	92.388	-147.6045
25.743984	92.398	-147.9399
25.930536	92.409	-148.2737
26.118439	92.420	-148.6058
26.307704	92.431	-148.9364
26.498341	92.442	-149.2654
26.690359	92.453	-149.5930
26.883768	92.464	-149.9193
27.078579	92.475	-150.2441
27.274801	92.486	-150.5674
27.472446	92.497	-150.8889
27.671522	92.508	-151.2082
27.872042	92.518	-151.5252
28.074014	92.528	-151.8396
28.277450	92.538	-152.1513
28.482360	92.547	-152.4605
28.688755	92.557	-152.7673
28.896645	92.565	-153.0722
29.106042	92.574	-153.3755
29.316957	92.582	-153.6778
29.529400	92.590	-153.9794
29.743382	92.598	-154.2805
29.958915	92.605	-154.5814
30.176009	92.612	-154.8819
30.394677	92.618	-155.1821
30.614929	92.624	-155.4816
30.836778	92.629	-155.7805
31.060234	92.634	-156.0787
31.285309	92.639	-156.3763
31.512015	92.644	-156.6738
31.740364	92.648	-156.9716
31.970368	92.653	-157.2703
32.202039	92.657	-157.5705
32.435388	92.662	-157.8727
32.670428	92.666	-158.1771
32.907171	92.670	-158.4837
33.145630	92.674	-158.7923
33.385817	92.677	-159.1026
33.627745	92.681	-159.4140
33.871425	92.684	-159.7261
34.116871	92.687	-160.0383
34.364096	92.689	-160.3503
34.613113	92.692	-160.6614
34.863934	92.694	-160.9714
35.116572	92.696	-161.2796
35.371041	92.697	-161.5856
35.627354	92.699	-161.8890
35.885525	92.700	-162.1895
36.145566	92.701	-162.4871
36.407492	92.702	-162.7820
36.671316	92.703	-163.0747
36.937051	92.704	-163.3654
37.204712	92.704	-163.6546
37.474313	92.704	-163.9423
37.745867	92.704	-164.2283
38.019389	92.704	-164.5126
38.294893	92.703	-164.7950
38.572394	92.702	-165.0756
38.851905	92.700	-165.3547
39.133442	92.699	-165.6327
39.417019	92.697	-165.9101
39.702651	92.694	-166.1873
39.990353	92.692	-166.4644
40.280140	92.689	-166.7417
40.572026	92.686	-167.0189
40.866028	92.683	-167.2962
41.162160	92.679	-167.5733
41.460438	92.676	-167.8505
41.760877	92.671	-168.1276
42.063494	92.667	-168.4046
42.368303	92.662	-168.6811
42.675322	92.657	-168.9569
42.984565	92.652	-169.2318
43.296048	92.646	-169.5054
43.609789	92.640	-169.7779
43.925804	92.634	-170.0493
44.244108	92.628	-170.3197
44.564719	92.622	-170.5892
44.887654	92.615	-170.8579
45.212928	92.608	-171.1256
45.540560	92.601	-171.3924
45.870565	92.594	-171.6582
46.202962	92.586	-171.9232
46.537768	92.578	-172.1874
46.875000	92.570	-172.4509
47.214676	92.562	-172.7136
47.556813	92.554	-172.9755
47.901429	92.546	-173.2362
48.248542	92.537	-173.4955
48.598171	92.529	-173.7532
48.950334	92.520	-174.0094
49.305048	92.512	-174.2642
49.662333	92.503	-174.5179
50.022206	92.495	-174.7709
50.384688	92.486	-175.0232
50.749796	92.477	-175.2747
51.117550	92.468	-175.5250
51.487969	92.458	-175.7736
51.861072	92.448	-176.0200
52.236879	92.438	-176.2639
52.615409	92.428	-176.5051
52.996681	92.417	-176.7434
53.380717	92.407	-176.9784
53.767536	92.396	-177.2102
54.157158	92.385	-177.4388
54.549603	92.375	-177.6652
54.944892	92.365	-177.8908
55.343045	92.355	-178.1172
55.744084	92.346	-178.3460
56.148028	92.336	-178.5783
56.554900	92.327	-178.8145
56.964720	92.317	-179.0546
57.377510	92.306	-179.2979
57.793291	92.295	-179.5432
58.212085	92.284	-179.7893
58.633914	92.271	179.9653
59.058799	92.258	179.7210
59.486764	92.245	179.4777
59.917829	92.232	179.2347
60.352019	92.218	178.9916
60.789354	92.203	178.7487
61.229859	92.188	178.5068
61.673556	92.172	178.2669
62.120468	92.156	178.0298
62.570618	92.139	177.7957
63.024031	92.122	177.5644
63.480729	92.104	177.3359
63.940736	92.086	177.1103
64.404077	92.068	176.8879
64.870776	92.049	176.6688
65.340856	92.030	176.4530
65.814343	92.011	176.2401
66.291261	91.992	176.0298
66.771635	91.973	175.8217
67.255489	91.953	175.6160
67.742850	91.933	175.4124
68.233743	91.914	175.2110
68.728193	91.894	175.0117
69.226226	91.874	174.8142
69.727867	91.854	174.6185
70.233144	91.834	174.4248
70.742083	91.814	174.2336
71.254709	91.795	174.0457
