* Measurement data measured by REW V5.30 beta 4
* Source: Microphone (Realtek(R) Audio), MICROPHONE (Master Volume), L, volume: 0.250
* Format: 256k Log Swept Sine, 1 sweep at -12.0 dBFS with no timing reference
* Dated: Dec 9, 2023 12:37:05 AM
* REW Settings:
*  C-weighting compensation: Off
*  Target level: 75.0 dB
* Note: 
* Measurement: R ikko 0h300
* Smoothing: 1/24 octave
* Frequency Step: 96 ppo
* Start Frequency: 0.36621094 Hz
*
* Freq(Hz) SPL(dB) Phase(degrees)
0.366211 19.042 -32.0466
0.368865 19.109 -31.1511
0.371538 19.206 -29.8491
0.374230 19.315 -28.3627
0.376942 19.429 -26.7922
0.379673 19.545 -25.1738
0.382424 19.662 -23.5188
0.385196 19.780 -21.8302
0.387987 19.899 -20.1082
0.390798 20.018 -18.3530
0.393630 20.139 -16.5644
0.396483 20.260 -14.7425
0.399356 20.382 -12.8879
0.402250 20.506 -11.0014
0.405165 20.630 -9.0840
0.408101 20.755 -7.1373
0.411058 20.880 -5.1633
0.414037 21.007 -3.1642
0.417037 21.135 -1.1427
0.420059 21.264 0.8978
0.423103 21.393 2.9540
0.426169 21.524 5.0219
0.429257 21.655 7.0973
0.432367 21.787 9.1758
0.435501 21.921 11.2526
0.438656 22.055 13.3228
0.441835 22.190 15.3817
0.445037 22.327 17.4242
0.448262 22.464 19.4454
0.451510 22.602 21.4408
0.454782 22.742 23.4058
0.458077 22.882 25.3361
0.461397 23.023 27.2278
0.464740 23.165 29.0774
0.468108 23.309 30.8818
0.471500 23.453 32.6381
0.474917 23.599 34.3439
0.478358 23.745 35.9974
0.481825 23.893 37.5969
0.485316 24.041 39.1412
0.488833 24.191 40.6296
0.492375 24.342 42.0615
0.495943 24.494 43.4368
0.499537 24.646 44.7554
0.503157 24.801 46.0178
0.506803 24.956 47.2244
0.510475 25.112 48.3759
0.514174 25.270 49.4732
0.517900 25.428 50.5172
0.521653 25.588 51.5090
0.525433 25.749 52.4498
0.529241 25.911 53.3407
0.533076 26.074 54.1829
0.536939 26.239 54.9779
0.540830 26.404 55.7269
0.544749 26.571 56.4311
0.548696 26.739 57.0919
0.552673 26.908 57.7106
0.556677 27.079 58.2883
0.560711 27.250 58.8264
0.564774 27.423 59.3261
0.568867 27.598 59.7886
0.572989 27.773 60.2150
0.577141 27.950 60.6065
0.581324 28.128 60.9641
0.585536 28.307 61.2890
0.589779 28.488 61.5821
0.594053 28.670 61.8444
0.598358 28.853 62.0770
0.602694 29.038 62.2807
0.607061 29.224 62.4564
0.611460 29.411 62.6051
0.615891 29.599 62.7275
0.620354 29.789 62.8245
0.624849 29.981 62.8969
0.629377 30.174 62.9454
0.633938 30.368 62.9708
0.638532 30.563 62.9738
0.643159 30.760 62.9551
0.647819 30.959 62.9154
0.652514 31.159 62.8554
0.657242 31.360 62.7757
0.662005 31.563 62.6770
0.666802 31.767 62.5598
0.671634 31.973 62.4249
0.676501 32.180 62.2726
0.681403 32.389 62.1038
0.686341 32.599 61.9188
0.691314 32.810 61.7184
0.696324 33.024 61.5030
0.701369 33.239 61.2731
0.706452 33.455 61.0295
0.711571 33.673 60.7725
0.716727 33.892 60.5030
0.721921 34.112 60.2223
0.727153 34.331 59.9327
0.732422 34.547 59.6394
0.737729 34.756 59.3507
0.743075 34.963 59.0743
0.748460 35.169 58.8133
0.753883 35.375 58.5680
0.759346 35.582 58.3375
0.764849 35.791 58.1206
0.770391 36.000 57.9158
0.775974 36.211 57.7219
0.781597 36.422 57.5376
0.787261 36.635 57.3617
0.792965 36.848 57.1931
0.798712 37.063 57.0308
0.804499 37.278 56.8737
0.810329 37.494 56.7209
0.816201 37.712 56.5715
0.822116 37.930 56.4247
0.828073 38.149 56.2796
0.834073 38.369 56.1356
0.840118 38.590 55.9919
0.846205 38.811 55.8478
0.852337 39.033 55.7028
0.858514 39.256 55.5562
0.864735 39.480 55.4074
0.871001 39.704 55.2560
0.877313 39.929 55.1014
0.883670 40.154 54.9432
0.890074 40.380 54.7808
0.896523 40.607 54.6139
0.903020 40.834 54.4421
0.909564 41.061 54.2649
0.916155 41.289 54.0821
0.922793 41.516 53.8931
0.929480 41.745 53.6979
0.936216 41.973 53.4959
0.943000 42.202 53.2869
0.949833 42.430 53.0707
0.956716 42.659 52.8470
0.963649 42.888 52.6154
0.970632 43.116 52.3758
0.977666 43.345 52.1280
0.984750 43.573 51.8716
0.991886 43.801 51.6066
0.999074 44.028 51.3326
1.006313 44.256 51.0495
1.013605 44.482 50.7572
1.020950 44.708 50.4554
1.028349 44.934 50.1440
1.035801 45.159 49.8229
1.043306 45.382 49.4918
1.050867 45.605 49.1508
1.058482 45.827 48.7995
1.066152 46.048 48.4381
1.073878 46.268 48.0664
1.081659 46.486 47.6847
1.089498 46.703 47.2938
1.097393 46.919 46.8958
1.105345 47.132 46.4950
1.113355 47.344 46.0959
1.121422 47.554 45.7009
1.129549 47.762 45.3109
1.137734 47.968 44.9259
1.145978 48.171 44.5458
1.154283 48.373 44.1702
1.162647 48.574 43.7987
1.171072 48.772 43.4309
1.179558 48.969 43.0665
1.188106 49.163 42.7050
1.196715 49.356 42.3462
1.205387 49.548 41.9895
1.214122 49.738 41.6347
1.222920 49.926 41.2813
1.231781 50.113 40.9289
1.240708 50.298 40.5773
1.249698 50.482 40.2259
1.258754 50.665 39.8745
1.267875 50.846 39.5227
1.277063 51.027 39.1700
1.286317 51.206 38.8162
1.295638 51.384 38.4609
1.305027 51.562 38.1037
1.314484 51.738 37.7442
1.324009 51.915 37.3822
1.333603 52.090 37.0172
1.343267 52.265 36.6489
1.353001 52.440 36.2770
1.362805 52.615 35.9011
1.372681 52.789 35.5208
1.382628 52.964 35.1359
1.392647 53.139 34.7460
1.402739 53.314 34.3507
1.412904 53.490 33.9497
1.423142 53.667 33.5427
1.433455 53.844 33.1294
1.443842 54.023 32.7096
1.454305 54.202 32.2838
1.464843 54.383 31.8531
1.475458 54.563 31.4201
1.486150 54.742 30.9873
1.496919 54.921 30.5560
1.507766 55.098 30.1266
1.518692 55.274 29.6989
1.529697 55.449 29.2728
1.540782 55.623 28.8480
1.551947 55.795 28.4243
1.563193 55.967 28.0013
1.574521 56.137 27.5787
1.585931 56.306 27.1562
1.597423 56.475 26.7335
1.608998 56.642 26.3103
1.620658 56.808 25.8862
1.632402 56.974 25.4609
1.644231 57.139 25.0340
1.656146 57.303 24.6053
1.668147 57.466 24.1743
1.680235 57.629 23.7407
1.692410 57.791 23.3042
1.704674 57.953 22.8644
1.717027 58.114 22.4210
1.729469 58.275 21.9735
1.742002 58.436 21.5216
1.754625 58.596 21.0650
1.767340 58.757 20.6032
1.780147 58.917 20.1359
1.793046 59.078 19.6627
1.806040 59.238 19.1834
1.819127 59.399 18.6978
1.832309 59.560 18.2064
1.845587 59.720 17.7101
1.858961 59.879 17.2100
1.872431 60.038 16.7070
1.886000 60.195 16.2017
1.899666 60.351 15.6944
1.913432 60.506 15.1855
1.927298 60.660 14.6751
1.941264 60.813 14.1637
1.955331 60.965 13.6512
1.969500 61.117 13.1379
1.983772 61.267 12.6239
1.998147 61.416 12.1093
2.012626 61.565 11.5941
2.027211 61.713 11.0783
2.041901 61.860 10.5619
2.056697 62.006 10.0450
2.071601 62.152 9.5273
2.086613 62.298 9.0089
2.101733 62.442 8.4896
2.116963 62.587 7.9692
2.132303 62.731 7.4475
2.147755 62.875 6.9244
2.163318 63.019 6.3996
2.178995 63.162 5.8726
2.194785 63.305 5.3431
2.210689 63.448 4.8104
2.226709 63.590 4.2739
2.242844 63.730 3.7339
2.259097 63.870 3.1906
2.275467 64.009 2.6445
2.291956 64.146 2.0962
2.308565 64.282 1.5461
2.325294 64.418 0.9946
2.342144 64.552 0.4421
2.359116 64.685 -0.1110
2.376211 64.818 -0.6643
2.393430 64.950 -1.2176
2.410774 65.081 -1.7707
2.428243 65.211 -2.3231
2.445839 65.340 -2.8748
2.463562 65.469 -3.4257
2.481415 65.598 -3.9754
2.499396 65.726 -4.5241
2.517508 65.854 -5.0716
2.535750 65.981 -5.6181
2.554126 66.108 -6.1642
2.572634 66.234 -6.7111
2.591276 66.359 -7.2603
2.610054 66.484 -7.8125
2.628967 66.607 -8.3678
2.648018 66.729 -8.9258
2.667206 66.850 -9.4858
2.686534 66.970 -10.0473
2.706002 67.089 -10.6097
2.725610 67.207 -11.1724
2.745361 67.324 -11.7349
2.765255 67.440 -12.2967
2.785294 67.555 -12.8572
2.805477 67.670 -13.4159
2.825807 67.784 -13.9724
2.846284 67.898 -14.5264
2.866909 68.011 -15.0773
2.887684 68.124 -15.6251
2.908609 68.236 -16.1697
2.929686 68.348 -16.7120
2.950916 68.459 -17.2537
2.972299 68.569 -17.7963
2.993838 68.678 -18.3403
3.015532 68.786 -18.8858
3.037384 68.893 -19.4321
3.059394 68.999 -19.9788
3.081564 69.104 -20.5253
3.103894 69.208 -21.0710
3.126386 69.312 -21.6154
3.149041 69.414 -22.1579
3.171861 69.517 -22.6979
3.194845 69.618 -23.2349
3.217996 69.719 -23.7684
3.241315 69.820 -24.2979
3.264803 69.921 -24.8233
3.288461 70.021 -25.3446
3.312291 70.120 -25.8632
3.336293 70.219 -26.3803
3.360469 70.317 -26.8969
3.384820 70.414 -27.4131
3.409348 70.510 -27.9286
3.434054 70.606 -28.4432
3.458938 70.701 -28.9565
3.484003 70.795 -29.4680
3.509250 70.888 -29.9773
3.534679 70.981 -30.4841
3.560293 71.074 -30.9878
3.586092 71.166 -31.4880
3.612079 71.258 -31.9845
3.638253 71.350 -32.4771
3.664618 71.442 -32.9659
3.691173 71.534 -33.4519
3.717921 71.624 -33.9359
3.744862 71.715 -34.4181
3.771999 71.804 -34.8987
3.799332 71.893 -35.3777
3.826864 71.982 -35.8548
3.854595 72.070 -36.3299
3.882527 72.158 -36.8029
3.910661 72.245 -37.2736
3.938999 72.333 -37.7417
3.967543 72.420 -38.2072
3.996294 72.507 -38.6699
4.025252 72.594 -39.1299
4.054421 72.681 -39.5874
4.083801 72.767 -40.0429
4.113394 72.853 -40.4966
4.143201 72.939 -40.9486
4.173225 73.024 -41.3990
4.203466 73.110 -41.8478
4.233926 73.194 -42.2950
4.264606 73.279 -42.7406
4.295509 73.364 -43.1847
4.326636 73.448 -43.6272
4.357989 73.532 -44.0681
4.389569 73.616 -44.5077
4.421378 73.701 -44.9459
4.453417 73.784 -45.3830
4.485688 73.868 -45.8191
4.518193 73.951 -46.2542
4.550934 74.034 -46.6884
4.583912 74.117 -47.1215
4.617129 74.200 -47.5537
4.650587 74.282 -47.9850
4.684287 74.364 -48.4152
4.718231 74.447 -48.8446
4.752421 74.528 -49.2731
4.786859 74.610 -49.7010
4.821547 74.692 -50.1286
4.856485 74.773 -50.5558
4.891677 74.854 -50.9827
4.927125 74.934 -51.4090
4.962829 75.015 -51.8348
4.998791 75.095 -52.2598
5.035015 75.175 -52.6839
5.071500 75.254 -53.1071
5.108251 75.334 -53.5294
5.145267 75.413 -53.9510
5.182552 75.492 -54.3722
5.220107 75.570 -54.7932
5.257934 75.648 -55.2139
5.296035 75.726 -55.6341
5.334412 75.804 -56.0537
5.373067 75.881 -56.4724
5.412003 75.958 -56.8900
5.451221 76.035 -57.3064
5.490722 76.112 -57.7216
5.530510 76.188 -58.1359
5.570587 76.264 -58.5495
5.610953 76.340 -58.9625
5.651613 76.415 -59.3749
5.692567 76.490 -59.7865
5.733818 76.565 -60.1972
5.775367 76.640 -60.6068
5.817218 76.714 -61.0152
5.859372 76.789 -61.4223
5.901831 76.863 -61.8284
5.944598 76.937 -62.2336
5.987675 77.010 -62.6380
6.031065 77.084 -63.0417
6.074768 77.157 -63.4446
6.118788 77.230 -63.8467
6.163127 77.303 -64.2479
6.207788 77.376 -64.6484
6.252772 77.448 -65.0480
6.298082 77.521 -65.4470
6.343721 77.593 -65.8454
6.389690 77.665 -66.2433
6.435992 77.737 -66.6407
6.482630 77.809 -67.0377
6.529606 77.881 -67.4342
6.576922 77.953 -67.8304
6.624581 78.024 -68.2264
6.672585 78.095 -68.6221
6.720938 78.166 -69.0177
6.769640 78.237 -69.4131
6.818696 78.308 -69.8084
6.868107 78.378 -70.2033
6.917876 78.449 -70.5980
6.968006 78.519 -70.9925
7.018499 78.589 -71.3869
7.069358 78.658 -71.7814
7.120586 78.728 -72.1759
7.172184 78.797 -72.5702
7.224157 78.866 -72.9641
7.276506 78.935 -73.3575
7.329235 79.004 -73.7504
7.382345 79.072 -74.1429
7.435841 79.140 -74.5352
7.489724 79.208 -74.9273
7.543997 79.276 -75.3189
7.598664 79.343 -75.7099
7.653728 79.411 -76.1001
7.709189 79.478 -76.4895
7.765053 79.545 -76.8782
7.821322 79.611 -77.2664
7.877998 79.678 -77.6540
7.935086 79.744 -78.0411
7.992587 79.811 -78.4275
8.050504 79.877 -78.8132
8.108841 79.943 -79.1983
8.167601 80.009 -79.5828
8.226787 80.075 -79.9669
8.286402 80.141 -80.3506
8.346449 80.207 -80.7343
8.406931 80.272 -81.1178
8.467851 80.338 -81.5014
8.529212 80.404 -81.8849
8.591018 80.469 -82.2686
8.653272 80.535 -82.6525
8.715977 80.600 -83.0370
8.779137 80.665 -83.4221
8.842754 80.731 -83.8081
8.906833 80.796 -84.1947
8.971375 80.861 -84.5822
9.036386 80.926 -84.9706
9.101867 80.990 -85.3598
9.167823 81.055 -85.7502
9.234257 81.119 -86.1417
9.301172 81.183 -86.5343
9.368572 81.247 -86.9280
9.436460 81.311 -87.3225
9.504841 81.374 -87.7179
9.573717 81.437 -88.1142
9.643092 81.500 -88.5114
9.712970 81.562 -88.9094
9.783354 81.624 -89.3081
9.854248 81.685 -89.7071
9.925656 81.747 -90.1063
9.997581 81.808 -90.5060
10.070028 81.868 -90.9061
10.143000 81.928 -91.3062
10.216500 81.988 -91.7063
10.290533 82.047 -92.1061
10.365103 82.106 -92.5059
10.440212 82.165 -92.9055
10.515866 82.223 -93.3048
10.592069 82.281 -93.7037
10.668823 82.338 -94.1021
10.746134 82.395 -94.5002
10.824005 82.452 -94.8978
10.902440 82.509 -95.2949
10.981443 82.565 -95.6914
11.061020 82.621 -96.0872
11.141172 82.676 -96.4826
11.221906 82.731 -96.8773
11.303225 82.786 -97.2712
11.385133 82.841 -97.6645
11.467634 82.895 -98.0570
11.550734 82.949 -98.4488
11.634435 83.002 -98.8398
11.718742 83.056 -99.2300
11.803661 83.109 -99.6195
11.889195 83.162 -100.0082
11.975349 83.214 -100.3962
12.062128 83.266 -100.7837
12.149535 83.319 -101.1705
12.237576 83.370 -101.5568
12.326254 83.422 -101.9428
12.415575 83.474 -102.3286
12.505544 83.525 -102.7142
12.596164 83.576 -103.0998
12.687441 83.627 -103.4854
12.779379 83.677 -103.8713
12.871984 83.728 -104.2574
12.965260 83.778 -104.6438
13.059211 83.828 -105.0304
13.153843 83.877 -105.4173
13.249161 83.926 -105.8044
13.345170 83.975 -106.1917
13.441875 84.023 -106.5789
13.539280 84.071 -106.9659
13.637391 84.119 -107.3526
13.736214 84.166 -107.7389
13.835752 84.213 -108.1248
13.936011 84.260 -108.5099
14.036998 84.306 -108.8944
14.138716 84.353 -109.2783
14.241171 84.398 -109.6618
14.344368 84.444 -110.0449
14.448313 84.490 -110.4279
14.553011 84.535 -110.8110
14.658468 84.581 -111.1948
14.764689 84.626 -111.5795
14.871680 84.671 -111.9652
14.979446 84.716 -112.3524
15.087994 84.761 -112.7414
15.197328 84.805 -113.1321
15.307454 84.849 -113.5245
15.418378 84.892 -113.9184
15.530106 84.935 -114.3136
15.642643 84.977 -114.7097
15.755996 85.018 -115.1058
15.870171 85.059 -115.5015
15.985172 85.099 -115.8962
16.101007 85.138 -116.2890
16.217682 85.177 -116.6793
16.335201 85.215 -117.0668
16.453573 85.253 -117.4510
16.572803 85.291 -117.8319
16.692898 85.329 -118.2097
16.813862 85.367 -118.5847
16.935701 85.405 -118.9577
17.058424 85.443 -119.3293
17.182035 85.481 -119.7006
17.306543 85.520 -120.0726
17.431953 85.559 -120.4461
17.558273 85.599 -120.8220
17.685509 85.638 -121.2010
17.813665 85.677 -121.5833
17.942751 85.716 -121.9688
18.072771 85.754 -122.3574
18.203733 85.792 -122.7484
18.335646 85.828 -123.1408
18.468513 85.865 -123.5338
18.602345 85.900 -123.9263
18.737144 85.934 -124.3172
18.872921 85.968 -124.7058
19.009682 86.001 -125.0916
19.147434 86.034 -125.4742
19.286184 86.067 -125.8536
19.425940 86.100 -126.2305
19.566708 86.132 -126.6051
19.708496 86.165 -126.9783
19.851313 86.197 -127.3510
19.995163 86.230 -127.7237
20.140057 86.262 -128.0967
20.285999 86.294 -128.4705
20.433001 86.326 -128.8447
20.581066 86.357 -129.2189
20.730206 86.387 -129.5926
20.880424 86.417 -129.9649
21.031733 86.447 -130.3353
21.184137 86.476 -130.7032
21.337646 86.505 -131.0684
21.492268 86.533 -131.4310
21.648010 86.562 -131.7917
21.804880 86.591 -132.1510
21.962887 86.620 -132.5100
22.122040 86.648 -132.8696
22.282345 86.677 -133.2306
22.443811 86.706 -133.5936
22.606449 86.734 -133.9587
22.770266 86.762 -134.3256
22.935268 86.789 -134.6937
23.101467 86.815 -135.0623
23.268869 86.841 -135.4306
23.437485 86.866 -135.7979
23.607323 86.890 -136.1637
23.778391 86.915 -136.5281
23.950699 86.939 -136.8913
24.124256 86.963 -137.2539
24.299070 86.987 -137.6164
24.475151 87.010 -137.9793
24.652508 87.033 -138.3428
24.831150 87.056 -138.7065
25.011087 87.079 -139.0698
25.192327 87.101 -139.4322
25.374882 87.122 -139.7930
25.558758 87.144 -140.1519
25.743967 87.166 -140.5094
25.930519 87.188 -140.8667
26.118422 87.211 -141.2256
26.307686 87.234 -141.5883
26.498322 87.258 -141.9568
26.690340 87.281 -142.3324
26.883749 87.304 -142.7154
27.078560 87.325 -143.1043
27.274782 87.345 -143.4963
27.472427 87.363 -143.8878
27.671503 87.380 -144.2744
27.872023 87.395 -144.6526
28.073996 87.409 -145.0196
28.277431 87.424 -145.3750
28.482342 87.439 -145.7200
28.688736 87.455 -146.0580
28.896626 87.473 -146.3931
29.106022 87.492 -146.7298
29.316936 87.512 -147.0713
29.529379 87.532 -147.4194
29.743361 87.552 -147.7737
29.958893 87.571 -148.1326
30.175987 87.589 -148.4930
30.394655 87.606 -148.8521
30.614908 87.623 -149.2076
30.836756 87.638 -149.5587
31.060211 87.654 -149.9058
31.285286 87.670 -150.2505
31.511992 87.686 -150.5949
31.740341 87.703 -150.9408
31.970345 87.719 -151.2893
32.202015 87.735 -151.6409
32.435364 87.750 -151.9949
32.670403 87.764 -152.3506
32.907146 87.778 -152.7069
33.145607 87.791 -153.0626
33.385796 87.803 -153.4166
33.627724 87.814 -153.7681
33.871403 87.825 -154.1161
34.116848 87.835 -154.4606
34.364071 87.846 -154.8023
34.613087 87.857 -155.1431
34.863907 87.869 -155.4859
35.116547 87.880 -155.8334
35.371017 87.892 -156.1876
35.627331 87.902 -156.5479
35.885502 87.911 -156.9108
36.145542 87.917 -157.2699
36.407467 87.921 -157.6184
36.671291 87.925 -157.9510
36.937027 87.928 -158.2662
37.204689 87.934 -158.5676
37.474289 87.941 -158.8628
37.745842 87.951 -159.1605
38.019363 87.963 -159.4676
38.294868 87.974 -159.7861
38.572369 87.984 -160.1129
38.851879 87.992 -160.4419
39.133415 87.998 -160.7669
39.416992 88.004 -161.0853
39.702625 88.010 -161.3993
39.990326 88.016 -161.7132
40.280113 88.022 -162.0307
40.571999 88.026 -162.3515
40.866001 88.029 -162.6696
41.162132 88.029 -162.9773
41.460411 88.030 -163.2699
41.760849 88.032 -163.5497
42.063465 88.037 -163.8280
42.368275 88.046 -164.1216
42.675293 88.057 -164.4442
42.984535 88.066 -164.8000
43.296021 88.070 -165.1816
43.609760 88.070 -165.5725
43.925774 88.065 -165.9540
44.244080 88.056 -166.3142
44.564690 88.048 -166.6517
44.887623 88.041 -166.9745
45.212898 88.036 -167.2926
45.540531 88.031 -167.6117
45.870537 88.026 -167.9309
46.202934 88.021 -168.2437
46.537739 88.015 -168.5436
46.874969 88.010 -168.8295
47.214645 88.008 -169.1069
47.556782 88.009 -169.3849
47.901398 88.011 -169.6709
48.248512 88.013 -169.9662
48.598141 88.015 -170.2663
48.950302 88.015 -170.5643
49.305016 88.014 -170.8552
49.662300 88.014 -171.1395
50.022175 88.015 -171.4231
50.384655 88.017 -171.7138
50.749763 88.017 -172.0150
51.117516 88.015 -172.3224
51.487934 88.010 -172.6253
51.861038 88.003 -172.9126
52.236843 87.996 -173.1816
52.615372 87.990 -173.4418
52.996643 87.986 -173.7098
53.380680 87.981 -173.9961
53.767498 87.972 -174.2931
54.157120 87.958 -174.5761
54.549564 87.941 -174.8179
54.944855 87.927 -175.0107
55.343006 87.921 -175.1780
55.744045 87.926 -175.3656
56.147991 87.938 -175.6165
56.554863 87.950 -175.9464
56.964684 87.957 -176.3388
57.377472 87.956 -176.7606
57.793251 87.948 -177.1846
58.212044 87.938 -177.6020
58.633873 87.926 -178.0178
59.058758 87.913 -178.4355
59.486721 87.896 -178.8440
59.917786 87.876 -179.2191
60.351974 87.856 -179.5382
60.789310 87.843 -179.8012
61.229816 87.840 179.9616
61.673512 87.847 179.7061
62.120422 87.857 179.4072
62.570572 87.862 179.0817
63.023983 87.858 178.7726
63.480682 87.849 178.5106
63.940689 87.837 178.2943
64.404030 87.820 178.1184
64.870728 87.796 178.0166
65.340805 87.769 178.0469
65.814293 87.758 178.2049
66.291214 87.778 178.3533
66.771591 87.823 178.2886
67.255447 87.862 177.9114
67.742805 87.865 177.3228
68.233696 87.825 176.7355
68.728142 87.766 176.2914
69.226173 87.715 175.9626
69.727814 87.680 175.6265
70.233093 87.655 175.2110
70.742035 87.631 174.7421
71.254662 87.611 174.2736
71.771004 87.602 173.8192
72.291084 87.609 173.3490
72.814934 87.629 172.8112
73.342583 87.652 172.1566
73.874054 87.658 171.4000
74.409378 87.626 170.6859
74.948578 87.559 170.2438
75.491684 87.491 170.2068
76.038727 87.456 170.4562
76.589737 87.462 170.7139
77.144737 87.481 170.8102
77.703758 87.488 170.7820
78.266830 87.483 170.7228
78.833984 87.471 170.6434
79.405251 87.453 170.5040
79.980652 87.425 170.3052
80.560226 87.390 170.0837
81.143997 87.353 169.8528
81.732002 87.320 169.5997
82.324265 87.291 169.3258
82.920822 87.270 169.0399
83.521698 87.261 168.7210
84.126930 87.257 168.3350
84.736549 87.249 167.8938
85.350586 87.231 167.4652
85.969070 87.205 167.1116
86.592041 87.178 166.8371
87.219521 87.149 166.6122
87.851547 87.117 166.4245
88.488159 87.082 166.2726
89.129379 87.048 166.1279
89.775246 87.011 165.9508
90.425797 86.967 165.7361
91.081062 86.914 165.5059
91.741074 86.852 165.2956
92.405869 86.787 165.1797
93.075478 86.735 165.2132
93.749939 86.722 165.2820
94.429291 86.741 165.1443
