* Measurement data measured by REW V5.30 beta 4
* Source: Microphone (Realtek(R) Audio), MICROPHONE (Master Volume), L, volume: 0.250
* Format: 256k Log Swept Sine, 1 sweep at -12.0 dBFS with no timing reference
* Dated: Dec 9, 2023 12:35:55 AM
* REW Settings:
*  C-weighting compensation: Off
*  Target level: 75.0 dB
* Note: 
* Measurement: L ikko 0h300
* Smoothing: 1/24 octave
* Frequency Step: 96 ppo
* Start Frequency: 0.36621094 Hz
*
* Freq(Hz) SPL(dB) Phase(degrees)
0.366211 29.687 55.1756
0.368865 29.735 55.0982
0.371538 29.804 54.9883
0.374230 29.882 54.8666
0.376942 29.963 54.7423
0.379673 30.046 54.6186
0.382424 30.129 54.4966
0.385196 30.214 54.3765
0.387987 30.298 54.2584
0.390798 30.384 54.1422
0.393630 30.470 54.0279
0.396483 30.557 53.9154
0.399356 30.644 53.8046
0.402250 30.732 53.6956
0.405165 30.820 53.5882
0.408101 30.910 53.4823
0.411058 30.999 53.3780
0.414037 31.090 53.2751
0.417037 31.181 53.1735
0.420059 31.273 53.0733
0.423103 31.365 52.9743
0.426169 31.459 52.8764
0.429257 31.552 52.7796
0.432367 31.647 52.6838
0.435501 31.742 52.5890
0.438656 31.838 52.4949
0.441835 31.935 52.4017
0.445037 32.032 52.3091
0.448262 32.130 52.2171
0.451510 32.229 52.1256
0.454782 32.328 52.0346
0.458077 32.428 51.9439
0.461397 32.529 51.8535
0.464740 32.631 51.7632
0.468108 32.733 51.6730
0.471500 32.836 51.5829
0.474917 32.940 51.4926
0.478358 33.044 51.4022
0.481825 33.150 51.3116
0.485316 33.256 51.2206
0.488833 33.363 51.1292
0.492375 33.470 51.0372
0.495943 33.579 50.9447
0.499537 33.688 50.8514
0.503157 33.798 50.7574
0.506803 33.909 50.6626
0.510475 34.020 50.5667
0.514174 34.133 50.4699
0.517900 34.246 50.3719
0.521653 34.360 50.2728
0.525433 34.475 50.1723
0.529241 34.591 50.0705
0.533076 34.707 49.9672
0.536939 34.825 49.8624
0.540830 34.943 49.7560
0.544749 35.062 49.6479
0.548696 35.182 49.5380
0.552673 35.303 49.4263
0.556677 35.424 49.3126
0.560711 35.547 49.1969
0.564774 35.670 49.0792
0.568867 35.795 48.9593
0.572989 35.920 48.8372
0.577141 36.046 48.7128
0.581324 36.173 48.5860
0.585536 36.301 48.4568
0.589779 36.430 48.3251
0.594053 36.560 48.1909
0.598358 36.691 48.0540
0.602694 36.823 47.9144
0.607061 36.956 47.7721
0.611460 37.089 47.6270
0.615891 37.224 47.4790
0.620354 37.359 47.3280
0.624849 37.496 47.1741
0.629377 37.634 47.0172
0.633938 37.772 46.8572
0.638532 37.912 46.6940
0.643159 38.053 46.5277
0.647819 38.194 46.3581
0.652514 38.337 46.1853
0.657242 38.481 46.0091
0.662005 38.625 45.8297
0.666802 38.771 45.6468
0.671634 38.918 45.4605
0.676501 39.066 45.2707
0.681403 39.215 45.0775
0.686341 39.365 44.8807
0.691314 39.516 44.6804
0.696324 39.668 44.4765
0.701369 39.822 44.2690
0.706452 39.976 44.0579
0.711571 40.132 43.8431
0.716727 40.288 43.6248
0.721921 40.444 43.4031
0.727153 40.600 43.1786
0.732422 40.751 42.9526
0.737729 40.895 42.7275
0.743075 41.035 42.5056
0.748460 41.173 42.2879
0.753883 41.310 42.0748
0.759346 41.447 41.8663
0.764849 41.584 41.6620
0.770391 41.721 41.4617
0.775974 41.859 41.2652
0.781597 41.996 41.0721
0.787261 42.133 40.8823
0.792965 42.270 40.6955
0.798712 42.407 40.5113
0.804499 42.545 40.3296
0.810329 42.682 40.1501
0.816201 42.819 39.9725
0.822116 42.957 39.7966
0.828073 43.094 39.6222
0.834073 43.232 39.4489
0.840118 43.369 39.2767
0.846205 43.507 39.1051
0.852337 43.645 38.9341
0.858514 43.782 38.7633
0.864735 43.920 38.5926
0.871001 44.058 38.4217
0.877313 44.196 38.2504
0.883670 44.334 38.0785
0.890074 44.472 37.9058
0.896523 44.610 37.7321
0.903020 44.748 37.5572
0.909564 44.887 37.3809
0.916155 45.025 37.2030
0.922793 45.164 37.0233
0.929480 45.303 36.8416
0.936216 45.442 36.6577
0.943000 45.581 36.4715
0.949833 45.720 36.2828
0.956716 45.860 36.0913
0.963649 46.000 35.8970
0.970632 46.140 35.6997
0.977666 46.280 35.4991
0.984750 46.421 35.2952
0.991886 46.562 35.0877
0.999074 46.703 34.8766
1.006313 46.844 34.6616
1.013605 46.986 34.4427
1.020950 47.128 34.2196
1.028349 47.271 33.9922
1.035801 47.414 33.7604
1.043306 47.558 33.5241
1.050867 47.702 33.2830
1.058482 47.846 33.0371
1.066152 47.991 32.7863
1.073878 48.137 32.5304
1.081659 48.283 32.2695
1.089498 48.430 32.0039
1.097393 48.577 31.7346
1.105345 48.724 31.4633
1.113355 48.872 31.1924
1.121422 49.020 30.9228
1.129549 49.167 30.6550
1.137734 49.314 30.3890
1.145978 49.461 30.1247
1.154283 49.608 29.8620
1.162647 49.755 29.6006
1.171072 49.901 29.3403
1.179558 50.047 29.0811
1.188106 50.194 28.8226
1.196715 50.340 28.5648
1.205387 50.486 28.3074
1.214122 50.632 28.0502
1.222920 50.777 27.7932
1.231781 50.923 27.5360
1.240708 51.068 27.2785
1.249698 51.214 27.0206
1.258754 51.359 26.7620
1.267875 51.504 26.5026
1.277063 51.650 26.2421
1.286317 51.795 25.9805
1.295638 51.940 25.7174
1.305027 52.085 25.4528
1.314484 52.230 25.1865
1.324009 52.375 24.9183
1.333603 52.520 24.6479
1.343267 52.666 24.3753
1.353001 52.811 24.1003
1.362805 52.957 23.8226
1.372681 53.102 23.5421
1.382628 53.248 23.2586
1.392647 53.394 22.9720
1.402739 53.540 22.6820
1.412904 53.687 22.3885
1.423142 53.833 22.0914
1.433455 53.980 21.7904
1.443842 54.128 21.4856
1.454305 54.275 21.1772
1.464843 54.423 20.8661
1.475458 54.571 20.5538
1.486150 54.718 20.2419
1.496919 54.866 19.9312
1.507766 55.013 19.6218
1.518692 55.159 19.3136
1.529697 55.305 19.0063
1.540782 55.451 18.6998
1.551947 55.596 18.3936
1.563193 55.741 18.0876
1.574521 55.886 17.7815
1.585931 56.031 17.4751
1.597423 56.175 17.1680
1.608998 56.319 16.8599
1.620658 56.462 16.5507
1.632402 56.605 16.2401
1.644231 56.749 15.9277
1.656146 56.891 15.6134
1.668147 57.034 15.2968
1.680235 57.177 14.9778
1.692410 57.319 14.6560
1.704674 57.461 14.3311
1.717027 57.603 14.0030
1.729469 57.745 13.6713
1.742002 57.887 13.3359
1.754625 58.029 12.9963
1.767340 58.171 12.6525
1.780147 58.313 12.3041
1.793046 58.456 11.9509
1.806040 58.598 11.5927
1.819127 58.740 11.2297
1.832309 58.883 10.8622
1.845587 59.025 10.4914
1.858961 59.167 10.1182
1.872431 59.308 9.7433
1.886000 59.449 9.3669
1.899666 59.589 8.9893
1.913432 59.728 8.6103
1.927298 59.867 8.2302
1.941264 60.006 7.8490
1.955331 60.144 7.4665
1.969500 60.282 7.0829
1.983772 60.419 6.6981
1.998147 60.556 6.3120
2.012626 60.693 5.9247
2.027211 60.829 5.5360
2.041901 60.964 5.1459
2.056697 61.100 4.7544
2.071601 61.235 4.3612
2.086613 61.370 3.9663
2.101733 61.505 3.5697
2.116963 61.640 3.1711
2.132303 61.774 2.7704
2.147755 61.909 2.3674
2.163318 62.043 1.9621
2.178995 62.178 1.5543
2.194785 62.312 1.1439
2.210689 62.446 0.7310
2.226709 62.579 0.3159
2.242844 62.712 -0.1011
2.259097 62.844 -0.5200
2.275467 62.976 -0.9404
2.291956 63.107 -1.3623
2.308565 63.237 -1.7856
2.325294 63.367 -2.2101
2.342144 63.496 -2.6358
2.359116 63.625 -3.0626
2.376211 63.753 -3.4904
2.393430 63.881 -3.9192
2.410774 64.008 -4.3490
2.428243 64.135 -4.7798
2.445839 64.262 -5.2115
2.463562 64.388 -5.6441
2.481415 64.514 -6.0778
2.499396 64.640 -6.5126
2.517508 64.766 -6.9485
2.535750 64.891 -7.3856
2.554126 65.017 -7.8241
2.572634 65.142 -8.2642
2.591276 65.267 -8.7062
2.610054 65.391 -9.1501
2.628967 65.514 -9.5958
2.648018 65.637 -10.0432
2.667206 65.759 -10.4922
2.686534 65.880 -10.9425
2.706002 66.001 -11.3940
2.725610 66.121 -11.8466
2.745361 66.241 -12.3002
2.765255 66.360 -12.7546
2.785294 66.479 -13.2099
2.805477 66.598 -13.6659
2.825807 66.716 -14.1225
2.846284 66.834 -14.5797
2.866909 66.951 -15.0376
2.887684 67.068 -15.4960
2.908609 67.186 -15.9552
2.929686 67.302 -16.4154
2.950916 67.419 -16.8769
2.972299 67.535 -17.3402
2.993838 67.650 -17.8052
3.015532 67.765 -18.2720
3.037384 67.879 -18.7403
3.059394 67.992 -19.2100
3.081564 68.105 -19.6808
3.103894 68.217 -20.1528
3.126386 68.329 -20.6256
3.149041 68.440 -21.0993
3.171861 68.551 -21.5737
3.194845 68.661 -22.0486
3.217996 68.771 -22.5242
3.241315 68.881 -23.0002
3.264803 68.990 -23.4768
3.288461 69.100 -23.9542
3.312291 69.208 -24.4329
3.336293 69.316 -24.9133
3.360469 69.424 -25.3956
3.384820 69.531 -25.8799
3.409348 69.637 -26.3658
3.434054 69.743 -26.8533
3.458938 69.848 -27.3420
3.484003 69.953 -27.8318
3.509250 70.056 -28.3226
3.534679 70.160 -28.8140
3.560293 70.263 -29.3062
3.586092 70.365 -29.7988
3.612079 70.467 -30.2919
3.638253 70.569 -30.7857
3.664618 70.669 -31.2806
3.691173 70.770 -31.7775
3.717921 70.870 -32.2768
3.744862 70.969 -32.7787
3.771999 71.067 -33.2829
3.799332 71.164 -33.7889
3.826864 71.261 -34.2963
3.854595 71.357 -34.8047
3.882527 71.453 -35.3137
3.910661 71.547 -35.8228
3.938999 71.641 -36.3318
3.967543 71.735 -36.8404
3.996294 71.827 -37.3485
4.025252 71.919 -37.8568
4.054421 72.010 -38.3662
4.083801 72.101 -38.8780
4.113394 72.190 -39.3924
4.143201 72.278 -39.9089
4.173225 72.366 -40.4270
4.203466 72.452 -40.9458
4.233926 72.538 -41.4644
4.264606 72.623 -41.9821
4.295509 72.707 -42.4983
4.326636 72.790 -43.0121
4.357989 72.872 -43.5234
4.389569 72.953 -44.0326
4.421378 73.034 -44.5409
4.453417 73.113 -45.0501
4.485688 73.191 -45.5605
4.518193 73.268 -46.0717
4.550934 73.344 -46.5826
4.583912 73.419 -47.0922
4.617129 73.493 -47.5993
4.650587 73.566 -48.1027
4.684287 73.638 -48.6014
4.718231 73.709 -49.0946
4.752421 73.779 -49.5822
4.786859 73.849 -50.0655
4.821547 73.917 -50.5461
4.856485 73.984 -51.0247
4.891677 74.050 -51.5009
4.927125 74.115 -51.9740
4.962829 74.179 -52.4427
4.998791 74.242 -52.9060
5.035015 74.305 -53.3626
5.071500 74.367 -53.8116
5.108251 74.429 -54.2524
5.145267 74.490 -54.6851
5.182552 74.550 -55.1109
5.220107 74.610 -55.5304
5.257934 74.669 -55.9441
5.296035 74.727 -56.3516
5.334412 74.785 -56.7526
5.373067 74.842 -57.1466
5.412003 74.900 -57.5331
5.451221 74.958 -57.9115
5.490722 75.016 -58.2813
5.530510 75.075 -58.6422
5.570587 75.133 -58.9944
5.610953 75.192 -59.3384
5.651613 75.250 -59.6750
5.692567 75.309 -60.0052
5.733818 75.368 -60.3296
5.775367 75.428 -60.6489
5.817218 75.489 -60.9636
5.859372 75.550 -61.2733
5.901831 75.613 -61.5771
5.944598 75.677 -61.8742
5.987675 75.741 -62.1655
6.031065 75.807 -62.4522
6.074768 75.873 -62.7363
6.118788 75.940 -63.0195
6.163127 76.009 -63.3035
6.207788 76.078 -63.5891
6.252772 76.149 -63.8759
6.298082 76.221 -64.1624
6.343721 76.294 -64.4485
6.389690 76.368 -64.7352
6.435992 76.444 -65.0242
6.482630 76.520 -65.3173
6.529606 76.597 -65.6161
6.576922 76.674 -65.9219
6.624581 76.752 -66.2346
6.672585 76.831 -66.5533
6.720938 76.910 -66.8775
6.769640 76.990 -67.2073
6.818696 77.071 -67.5433
6.868107 77.151 -67.8861
6.917876 77.231 -68.2365
6.968006 77.311 -68.5950
7.018499 77.391 -68.9619
7.069358 77.470 -69.3369
7.120586 77.550 -69.7189
7.172184 77.629 -70.1070
7.224157 77.707 -70.5001
7.276506 77.784 -70.8977
7.329235 77.860 -71.2998
7.382345 77.935 -71.7071
7.435841 78.010 -72.1200
7.489724 78.083 -72.5373
7.543997 78.155 -72.9573
7.598664 78.227 -73.3780
7.653728 78.297 -73.7980
7.709189 78.366 -74.2169
7.765053 78.434 -74.6357
7.821322 78.501 -75.0546
7.877998 78.567 -75.4727
7.935086 78.632 -75.8884
7.992587 78.696 -76.3002
8.050504 78.760 -76.7069
8.108841 78.823 -77.1085
8.167601 78.885 -77.5056
8.226787 78.947 -77.8985
8.286402 79.008 -78.2870
8.346449 79.069 -78.6708
8.406931 79.131 -79.0493
8.467851 79.192 -79.4224
8.529212 79.254 -79.7900
8.591018 79.316 -80.1530
8.653272 79.378 -80.5125
8.715977 79.441 -80.8696
8.779137 79.504 -81.2248
8.842754 79.568 -81.5782
8.906833 79.633 -81.9296
8.971375 79.698 -82.2799
9.036386 79.764 -82.6307
9.101867 79.830 -82.9834
9.167823 79.897 -83.3392
9.234257 79.965 -83.6978
9.301172 80.033 -84.0593
9.368572 80.101 -84.4241
9.436460 80.170 -84.7932
9.504841 80.238 -85.1674
9.573717 80.306 -85.5472
9.643092 80.375 -85.9324
9.712970 80.443 -86.3225
9.783354 80.510 -86.7169
9.854248 80.577 -87.1153
9.925656 80.643 -87.5177
9.997581 80.708 -87.9244
10.070028 80.773 -88.3345
10.143000 80.836 -88.7464
10.216500 80.899 -89.1588
10.290533 80.960 -89.5710
10.365103 81.020 -89.9832
10.440212 81.080 -90.3948
10.515866 81.138 -90.8043
10.592069 81.195 -91.2101
10.668823 81.252 -91.6116
10.746134 81.307 -92.0088
10.824005 81.362 -92.4016
10.902440 81.417 -92.7894
10.981443 81.471 -93.1714
11.061020 81.525 -93.5474
11.141172 81.579 -93.9177
11.221906 81.633 -94.2830
11.303225 81.687 -94.6439
11.385133 81.742 -95.0005
11.467634 81.797 -95.3531
11.550734 81.852 -95.7025
11.634435 81.908 -96.0501
11.718742 81.964 -96.3972
11.803661 82.021 -96.7443
11.889195 82.079 -97.0918
11.975349 82.137 -97.4408
12.062128 82.195 -97.7928
12.149535 82.254 -98.1486
12.237576 82.313 -98.5082
12.326254 82.372 -98.8721
12.415575 82.431 -99.2408
12.505544 82.490 -99.6148
12.596164 82.549 -99.9942
12.687441 82.607 -100.3786
12.779379 82.665 -100.7675
12.871984 82.722 -101.1609
12.965260 82.778 -101.5585
13.059211 82.833 -101.9596
13.153843 82.887 -102.3632
13.249161 82.940 -102.7686
13.345170 82.993 -103.1758
13.441875 83.044 -103.5837
13.539280 83.094 -103.9914
13.637391 83.143 -104.3984
13.736214 83.192 -104.8045
13.835752 83.239 -105.2090
13.936011 83.286 -105.6113
14.036998 83.332 -106.0113
14.138716 83.378 -106.4088
14.241171 83.422 -106.8037
14.344368 83.467 -107.1957
14.448313 83.511 -107.5848
14.553011 83.554 -107.9712
14.658468 83.598 -108.3549
14.764689 83.641 -108.7358
14.871680 83.684 -109.1141
14.979446 83.726 -109.4900
15.087994 83.769 -109.8634
15.197328 83.811 -110.2345
15.307454 83.854 -110.6035
15.418378 83.897 -110.9705
15.530106 83.939 -111.3356
15.642643 83.982 -111.6991
15.755996 84.025 -112.0614
15.870171 84.069 -112.4228
15.985172 84.113 -112.7838
16.101007 84.157 -113.1449
16.217682 84.201 -113.5068
16.335201 84.246 -113.8700
16.453573 84.292 -114.2353
16.572803 84.338 -114.6036
16.692898 84.384 -114.9752
16.813862 84.430 -115.3508
16.935701 84.477 -115.7312
17.058424 84.523 -116.1165
17.182035 84.569 -116.5069
17.306543 84.615 -116.9025
17.431953 84.661 -117.3030
17.558273 84.706 -117.7081
17.685509 84.750 -118.1170
17.813665 84.793 -118.5291
17.942751 84.835 -118.9431
18.072771 84.876 -119.3580
18.203733 84.916 -119.7726
18.335646 84.955 -120.1856
18.468513 84.993 -120.5957
18.602345 85.030 -121.0020
18.737144 85.066 -121.4031
18.872921 85.102 -121.7984
19.009682 85.136 -122.1875
19.147434 85.171 -122.5700
19.286184 85.206 -122.9463
19.425940 85.241 -123.3169
19.566708 85.276 -123.6827
19.708496 85.311 -124.0449
19.851313 85.347 -124.4053
19.995163 85.383 -124.7650
20.140057 85.420 -125.1257
20.285999 85.457 -125.4887
20.433001 85.494 -125.8547
20.581066 85.530 -126.2239
20.730206 85.566 -126.5961
20.880424 85.600 -126.9699
21.031733 85.634 -127.3438
21.184137 85.666 -127.7157
21.337646 85.698 -128.0834
21.492268 85.728 -128.4452
21.648010 85.759 -128.8000
21.804880 85.789 -129.1476
21.962887 85.820 -129.4898
22.122040 85.852 -129.8291
22.282345 85.885 -130.1699
22.443811 85.920 -130.5175
22.606449 85.956 -130.8764
22.770266 85.992 -131.2515
22.935268 86.028 -131.6454
23.101467 86.062 -132.0581
23.268869 86.093 -132.4873
23.437485 86.120 -132.9265
23.607323 86.142 -133.3675
23.778391 86.160 -133.8000
23.950699 86.174 -134.2133
24.124256 86.186 -134.5995
24.299070 86.196 -134.9529
24.475151 86.209 -135.2746
24.652508 86.225 -135.5711
24.831150 86.248 -135.8547
25.011087 86.277 -136.1437
25.192327 86.312 -136.4559
25.374882 86.352 -136.8100
25.558758 86.394 -137.2170
25.743967 86.433 -137.6813
25.930519 86.467 -138.1965
26.118422 86.491 -138.7454
26.307686 86.503 -139.3048
26.498322 86.504 -139.8432
26.690340 86.495 -140.3324
26.883749 86.478 -140.7458
27.078560 86.460 -141.0694
27.274782 86.446 -141.3016
27.472427 86.442 -141.4575
27.671503 86.452 -141.5653
27.872023 86.478 -141.6637
28.073996 86.519 -141.7912
28.277431 86.570 -141.9810
28.482342 86.627 -142.2521
28.688736 86.684 -142.6070
28.896626 86.735 -143.0329
29.106022 86.776 -143.5037
29.316936 86.808 -143.9891
29.529379 86.829 -144.4594
29.743361 86.844 -144.8920
29.958893 86.857 -145.2767
30.175987 86.871 -145.6163
30.394655 86.889 -145.9249
30.614908 86.914 -146.2230
30.836756 86.943 -146.5314
31.060211 86.975 -146.8648
31.285286 87.006 -147.2287
31.511992 87.035 -147.6184
31.740341 87.059 -148.0220
31.970345 87.077 -148.4236
32.202015 87.091 -148.8102
32.435364 87.103 -149.1737
32.670403 87.115 -149.5142
32.907146 87.129 -149.8383
33.145607 87.145 -150.1573
33.385796 87.163 -150.4821
33.627724 87.182 -150.8202
33.871403 87.199 -151.1737
34.116848 87.215 -151.5391
34.364071 87.227 -151.9091
34.613087 87.237 -152.2750
34.863907 87.245 -152.6301
35.116547 87.251 -152.9710
35.371017 87.259 -153.2988
35.627331 87.267 -153.6181
35.885502 87.278 -153.9355
36.145542 87.290 -154.2582
36.407467 87.304 -154.5923
36.671291 87.318 -154.9411
36.937027 87.331 -155.3050
37.204689 87.342 -155.6809
37.474289 87.350 -156.0629
37.745842 87.356 -156.4435
38.019363 87.359 -156.8146
38.294868 87.360 -157.1692
38.572369 87.361 -157.5038
38.851879 87.362 -157.8187
39.133415 87.366 -158.1178
39.416992 87.372 -158.4079
39.702625 87.380 -158.6967
39.990326 87.391 -158.9907
40.280113 87.404 -159.2952
40.571999 87.418 -159.6140
40.866001 87.432 -159.9492
41.162132 87.445 -160.3015
41.460411 87.457 -160.6691
41.760849 87.465 -161.0470
42.063465 87.470 -161.4265
42.368275 87.472 -161.7966
42.675293 87.472 -162.1484
42.984535 87.471 -162.4794
43.296021 87.473 -162.7960
43.609760 87.478 -163.1117
43.925774 87.484 -163.4419
44.244080 87.491 -163.7948
44.564690 87.493 -164.1644
44.887623 87.491 -164.5314
45.212898 87.484 -164.8714
45.540531 87.476 -165.1675
45.870537 87.471 -165.4202
46.202934 87.474 -165.6508
46.537739 87.486 -165.8932
46.874969 87.502 -166.1781
47.214645 87.519 -166.5183
47.556782 87.531 -166.9034
47.901398 87.535 -167.3070
48.248512 87.532 -167.7010
48.598141 87.523 -168.0663
48.950302 87.512 -168.3965
49.305016 87.500 -168.6935
49.662300 87.489 -168.9622
50.022175 87.480 -169.2081
50.384655 87.474 -169.4400
50.749763 87.471 -169.6722
51.117516 87.472 -169.9200
51.487934 87.472 -170.1908
51.861038 87.470 -170.4768
52.236843 87.465 -170.7594
52.615372 87.459 -171.0229
52.996643 87.455 -171.2698
53.380680 87.456 -171.5206
53.767498 87.460 -171.7987
54.157120 87.464 -172.1098
54.549564 87.465 -172.4374
54.944855 87.463 -172.7591
55.343006 87.462 -173.0708
55.744045 87.465 -173.3940
56.147991 87.470 -173.7559
56.554863 87.469 -174.1573
56.964684 87.458 -174.5603
57.377472 87.439 -174.9107
57.793251 87.420 -175.1819
58.212044 87.410 -175.4001
58.633873 87.412 -175.6265
59.058758 87.419 -175.9096
59.486721 87.422 -176.2487
59.917786 87.416 -176.6016
60.351974 87.405 -176.9238
60.789310 87.393 -177.2045
61.229816 87.386 -177.4665
61.673512 87.383 -177.7393
62.120422 87.380 -178.0341
62.570572 87.375 -178.3434
63.023983 87.367 -178.6562
63.480682 87.359 -178.9687
63.940689 87.348 -179.2785
64.404030 87.336 -179.5788
64.870728 87.322 -179.8613
65.340805 87.310 179.8726
65.814293 87.300 179.6104
66.291214 87.291 179.3390
66.771591 87.280 179.0551
67.255447 87.268 178.7642
67.742805 87.252 178.4731
68.233696 87.234 178.1885
68.728142 87.214 177.9195
69.226173 87.193 177.6717
69.727814 87.174 177.4357
70.233093 87.158 177.1913
70.742035 87.141 176.9310
71.254662 87.122 176.6762
71.771004 87.103 176.4526
72.291084 87.092 176.2479
72.814934 87.090 176.0098
73.342583 87.089 175.6997
73.874054 87.081 175.3409
74.409378 87.065 174.9957
74.948578 87.047 174.6979
75.491684 87.034 174.4237
76.038727 87.024 174.1310
76.589737 87.011 173.8102
77.144737 86.994 173.4889
77.703758 86.972 173.2001
78.266830 86.951 172.9569
78.833984 86.936 172.7474
79.405251 86.927 172.5380
79.980652 86.925 172.2877
80.560226 86.922 171.9801
81.143997 86.912 171.6415
81.732002 86.896 171.3124
82.324265 86.878 170.9996
82.920822 86.859 170.6749
83.521698 86.835 170.3273
84.126930 86.802 169.9890
84.736549 86.765 169.6976
85.350586 86.730 169.4523
85.969070 86.701 169.2235
86.592041 86.678 168.9800
87.219521 86.661 168.6924
87.851547 86.642 168.3472
88.488159 86.615 167.9808
89.129379 86.578 167.6677
89.775246 86.540 167.4501
90.425797 86.508 167.3046
91.081062 86.482 167.1832
91.741074 86.458 167.0554
92.405869 86.434 166.9020
93.075478 86.405 166.7042
93.749939 86.366 166.4633
94.429291 86.314 166.2318
95.113564 86.257 166.0897
