* Measurement data measured by REW V5.30 beta 5
* Source: EXCL: Microphone (Realtek(R) Audio), MICROPHONE (Master Volume), L, volume: 1.000
* Format: 256k Log Swept Sine, 1 sweep at -13.0 dBFS with no timing reference
* Dated: Dec 19, 2023 11:55:33 PM
* REW Settings:
*  C-weighting compensation: Off
*  Target level: 75.0 dB
* Note: 
* Measurement: L KBEAR Flash
* Smoothing: 1/24 octave
* Frequency Step: 96 ppo
* Start Frequency: 0.36621094 Hz
*
* Freq(Hz) SPL(dB) Phase(degrees)
0.366211 84.842 -24.1813
0.368865 84.834 -24.2101
0.371538 84.822 -24.2525
0.374230 84.809 -24.3019
0.376942 84.795 -24.3553
0.379673 84.781 -24.4115
0.382424 84.767 -24.4703
0.385196 84.753 -24.5315
0.387987 84.739 -24.5952
0.390798 84.724 -24.6613
0.393630 84.710 -24.7300
0.396483 84.695 -24.8011
0.399356 84.680 -24.8748
0.402250 84.665 -24.9511
0.405165 84.650 -25.0300
0.408101 84.635 -25.1114
0.411058 84.620 -25.1956
0.414037 84.605 -25.2823
0.417037 84.589 -25.3718
0.420059 84.574 -25.4640
0.423103 84.558 -25.5589
0.426169 84.542 -25.6565
0.429257 84.526 -25.7570
0.432367 84.510 -25.8602
0.435501 84.494 -25.9662
0.438656 84.478 -26.0751
0.441835 84.462 -26.1868
0.445037 84.445 -26.3014
0.448262 84.429 -26.4189
0.451510 84.412 -26.5393
0.454782 84.395 -26.6627
0.458077 84.378 -26.7889
0.461397 84.361 -26.9181
0.464740 84.344 -27.0503
0.468108 84.327 -27.1855
0.471500 84.309 -27.3236
0.474917 84.292 -27.4648
0.478358 84.274 -27.6089
0.481825 84.256 -27.7560
0.485316 84.238 -27.9062
0.488833 84.220 -28.0594
0.492375 84.202 -28.2156
0.495943 84.184 -28.3748
0.499537 84.165 -28.5371
0.503157 84.147 -28.7023
0.506803 84.128 -28.8706
0.510475 84.109 -29.0418
0.514174 84.090 -29.2161
0.517900 84.071 -29.3933
0.521653 84.052 -29.5735
0.525433 84.032 -29.7566
0.529241 84.013 -29.9426
0.533076 83.993 -30.1315
0.536939 83.973 -30.3233
0.540830 83.953 -30.5179
0.544749 83.933 -30.7153
0.548696 83.913 -30.9155
0.552673 83.892 -31.1184
0.556677 83.872 -31.3239
0.560711 83.851 -31.5321
0.564774 83.830 -31.7428
0.568867 83.809 -31.9560
0.572989 83.788 -32.1717
0.577141 83.766 -32.3897
0.581324 83.745 -32.6100
0.585536 83.723 -32.8325
0.589779 83.702 -33.0571
0.594053 83.680 -33.2837
0.598358 83.657 -33.5123
0.602694 83.635 -33.7427
0.607061 83.613 -33.9748
0.611460 83.590 -34.2084
0.615891 83.567 -34.4436
0.620354 83.544 -34.6800
0.624849 83.521 -34.9176
0.629377 83.498 -35.1562
0.633938 83.475 -35.3957
0.638532 83.451 -35.6359
0.643159 83.427 -35.8766
0.647819 83.403 -36.1176
0.652514 83.379 -36.3587
0.657242 83.355 -36.5997
0.662005 83.330 -36.8404
0.666802 83.306 -37.0806
0.671634 83.281 -37.3200
0.676501 83.256 -37.5583
0.681403 83.231 -37.7952
0.686341 83.205 -38.0306
0.691314 83.180 -38.2640
0.696324 83.154 -38.4953
0.701369 83.128 -38.7239
0.706452 83.102 -38.9496
0.711571 83.076 -39.1721
0.716727 83.049 -39.3911
0.721921 83.022 -39.6062
0.727153 82.993 -39.8176
0.732422 82.961 -40.0263
0.737729 82.925 -40.2341
0.743075 82.886 -40.4431
0.748460 82.844 -40.6546
0.753883 82.801 -40.8690
0.759346 82.758 -41.0866
0.764849 82.713 -41.3074
0.770391 82.667 -41.5313
0.775974 82.621 -41.7585
0.781597 82.573 -41.9888
0.787261 82.525 -42.2223
0.792965 82.476 -42.4590
0.798712 82.426 -42.6988
0.804499 82.375 -42.9417
0.810329 82.323 -43.1877
0.816201 82.270 -43.4367
0.822116 82.216 -43.6887
0.828073 82.162 -43.9435
0.834073 82.106 -44.2012
0.840118 82.050 -44.4616
0.846205 81.992 -44.7247
0.852337 81.934 -44.9903
0.858514 81.875 -45.2583
0.864735 81.814 -45.5286
0.871001 81.753 -45.8010
0.877313 81.691 -46.0754
0.883670 81.628 -46.3516
0.890074 81.564 -46.6293
0.896523 81.499 -46.9085
0.903020 81.434 -47.1887
0.909564 81.367 -47.4697
0.916155 81.299 -47.7514
0.922793 81.231 -48.0332
0.929480 81.161 -48.3149
0.936216 81.091 -48.5961
0.943000 81.020 -48.8764
0.949833 80.948 -49.1554
0.956716 80.875 -49.4325
0.963649 80.801 -49.7073
0.970632 80.726 -49.9791
0.977666 80.651 -50.2474
0.984750 80.574 -50.5115
0.991886 80.497 -50.7707
0.999074 80.419 -51.0242
1.006313 80.340 -51.2713
1.013605 80.261 -51.5110
1.020950 80.180 -51.7424
1.028349 80.099 -51.9646
1.035801 80.017 -52.1763
1.043306 79.935 -52.3766
1.050867 79.851 -52.5641
1.058482 79.767 -52.7376
1.066152 79.682 -52.8956
1.073878 79.597 -53.0368
1.081659 79.511 -53.1595
1.089498 79.424 -53.2622
1.097393 79.335 -53.3435
1.105345 79.244 -53.4021
1.113355 79.149 -53.4373
1.121422 79.050 -53.4482
1.129549 78.947 -53.4343
1.137734 78.839 -53.3948
1.145978 78.727 -53.3289
1.154283 78.611 -53.2360
1.162647 78.492 -53.1151
1.171072 78.369 -52.9655
1.179558 78.242 -52.7861
1.188106 78.113 -52.5761
1.196715 77.981 -52.3345
1.205387 77.847 -52.0603
1.214122 77.710 -51.7523
1.222920 77.572 -51.4096
1.231781 77.433 -51.0312
1.240708 77.292 -50.6158
1.249698 77.151 -50.1626
1.258754 77.010 -49.6704
1.267875 76.869 -49.1384
1.277063 76.728 -48.5656
1.286317 76.588 -47.9513
1.295638 76.450 -47.2948
1.305027 76.314 -46.5956
1.314484 76.180 -45.8536
1.324009 76.050 -45.0686
1.333603 75.923 -44.2410
1.343267 75.800 -43.3713
1.353001 75.682 -42.4608
1.362805 75.569 -41.5107
1.372681 75.462 -40.5231
1.382628 75.362 -39.5006
1.392647 75.270 -38.4462
1.402739 75.185 -37.3637
1.412904 75.109 -36.2573
1.423142 75.043 -35.1321
1.433455 74.988 -33.9932
1.443842 74.943 -32.8456
1.454305 74.911 -31.6925
1.464843 74.891 -30.5319
1.475458 74.883 -29.3548
1.486150 74.888 -28.1512
1.496919 74.905 -26.9178
1.507766 74.933 -25.6567
1.518692 74.973 -24.3726
1.529697 75.024 -23.0709
1.540782 75.086 -21.7582
1.551947 75.158 -20.4407
1.563193 75.240 -19.1251
1.574521 75.331 -17.8179
1.585931 75.432 -16.5253
1.597423 75.541 -15.2535
1.608998 75.658 -14.0081
1.620658 75.783 -12.7946
1.632402 75.915 -11.6178
1.644231 76.053 -10.4822
1.656146 76.197 -9.3916
1.668147 76.347 -8.3494
1.680235 76.501 -7.3584
1.692410 76.658 -6.4211
1.704674 76.819 -5.5394
1.717027 76.983 -4.7149
1.729469 77.148 -3.9486
1.742002 77.314 -3.2414
1.754625 77.479 -2.5938
1.767340 77.644 -2.0062
1.780147 77.807 -1.4786
1.793046 77.967 -1.0109
1.806040 78.124 -0.6024
1.819127 78.277 -0.2517
1.832309 78.428 0.0444
1.845587 78.579 0.2912
1.858961 78.734 0.4940
1.872431 78.892 0.6562
1.886000 79.055 0.7799
1.899666 79.223 0.8669
1.913432 79.395 0.9188
1.927298 79.570 0.9371
1.941264 79.749 0.9232
1.955331 79.931 0.8788
1.969500 80.115 0.8051
1.983772 80.302 0.7037
1.998147 80.490 0.5757
2.012626 80.679 0.4223
2.027211 80.869 0.2448
2.041901 81.059 0.0441
2.056697 81.249 -0.1788
2.071601 81.438 -0.4232
2.086613 81.625 -0.6884
2.101733 81.810 -0.9737
2.116963 81.992 -1.2788
2.132303 82.171 -1.6032
2.147755 82.345 -1.9469
2.163318 82.515 -2.3101
2.178995 82.679 -2.6933
2.194785 82.838 -3.0985
2.210689 82.992 -3.5287
2.226709 83.142 -3.9865
2.242844 83.289 -4.4719
2.259097 83.432 -4.9835
2.275467 83.572 -5.5187
2.291956 83.709 -6.0752
2.308565 83.842 -6.6503
2.325294 83.974 -7.2416
2.342144 84.102 -7.8470
2.359116 84.228 -8.4640
2.376211 84.351 -9.0908
2.393430 84.472 -9.7253
2.410774 84.590 -10.3657
2.428243 84.707 -11.0103
2.445839 84.821 -11.6575
2.463562 84.934 -12.3058
2.481415 85.045 -12.9538
2.499396 85.155 -13.6004
2.517508 85.263 -14.2447
2.535750 85.370 -14.8869
2.554126 85.476 -15.5290
2.572634 85.580 -16.1761
2.591276 85.681 -16.8361
2.610054 85.780 -17.5132
2.628967 85.876 -18.2080
2.648018 85.969 -18.9189
2.667206 86.059 -19.6437
2.686534 86.146 -20.3798
2.706002 86.230 -21.1246
2.725610 86.312 -21.8754
2.745361 86.392 -22.6294
2.765255 86.470 -23.3839
2.785294 86.546 -24.1363
2.805477 86.620 -24.8837
2.825807 86.692 -25.6234
2.846284 86.763 -26.3527
2.866909 86.833 -27.0691
2.887684 86.901 -27.7704
2.908609 86.969 -28.4560
2.929686 87.036 -29.1279
2.950916 87.100 -29.7926
2.972299 87.162 -30.4568
2.993838 87.222 -31.1235
3.015532 87.279 -31.7931
3.037384 87.333 -32.4648
3.059394 87.386 -33.1371
3.081564 87.436 -33.8082
3.103894 87.484 -34.4761
3.126386 87.531 -35.1389
3.149041 87.577 -35.7942
3.171861 87.621 -36.4398
3.194845 87.665 -37.0731
3.217996 87.709 -37.6916
3.241315 87.752 -38.2929
3.264803 87.796 -38.8748
3.288461 87.839 -39.4367
3.312291 87.882 -39.9802
3.336293 87.923 -40.5092
3.360469 87.963 -41.0260
3.384820 88.001 -41.5320
3.409348 88.038 -42.0275
3.434054 88.074 -42.5125
3.458938 88.110 -42.9865
3.484003 88.145 -43.4492
3.509250 88.180 -43.9001
3.534679 88.216 -44.3383
3.560293 88.253 -44.7630
3.586092 88.291 -45.1733
3.612079 88.331 -45.5679
3.638253 88.373 -45.9454
3.664618 88.417 -46.3038
3.691173 88.463 -46.6409
3.717921 88.509 -46.9558
3.744862 88.557 -47.2497
3.771999 88.606 -47.5246
3.799332 88.656 -47.7829
3.826864 88.707 -48.0274
3.854595 88.760 -48.2608
3.882527 88.815 -48.4858
3.910661 88.873 -48.7054
3.938999 88.932 -48.9221
3.967543 88.995 -49.1384
3.996294 89.060 -49.3554
4.025252 89.129 -49.5723
4.054421 89.201 -49.7852
4.083801 89.276 -49.9896
4.113394 89.355 -50.1843
4.143201 89.437 -50.3711
4.173225 89.521 -50.5528
4.203466 89.609 -50.7328
4.233926 89.699 -50.9147
4.264606 89.790 -51.1019
4.295509 89.884 -51.2981
4.326636 89.979 -51.5064
4.357989 90.076 -51.7294
4.389569 90.174 -51.9676
4.421378 90.273 -52.2188
4.453417 90.376 -52.4794
4.485688 90.481 -52.7473
4.518193 90.588 -53.0226
4.550934 90.697 -53.3057
4.583912 90.807 -53.5976
4.617129 90.918 -53.8995
4.650587 91.029 -54.2127
4.684287 91.140 -54.5384
4.718231 91.251 -54.8779
4.752421 91.360 -55.2325
4.786859 91.468 -55.6029
4.821547 91.576 -55.9889
4.856485 91.684 -56.3890
4.891677 91.792 -56.8012
4.927125 91.900 -57.2234
4.962829 92.007 -57.6534
4.998791 92.112 -58.0891
5.035015 92.217 -58.5289
5.071500 92.320 -58.9715
5.108251 92.420 -59.4168
5.145267 92.519 -59.8665
5.182552 92.616 -60.3234
5.220107 92.711 -60.7884
5.257934 92.804 -61.2598
5.296035 92.895 -61.7349
5.334412 92.985 -62.2106
5.373067 93.073 -62.6834
5.412003 93.160 -63.1505
5.451221 93.245 -63.6095
5.490722 93.329 -64.0598
5.530510 93.412 -64.5032
5.570587 93.492 -64.9423
5.610953 93.570 -65.3779
5.651613 93.647 -65.8092
5.692567 93.722 -66.2346
5.733818 93.797 -66.6523
5.775367 93.871 -67.0605
5.817218 93.944 -67.4574
5.859372 94.018 -67.8418
5.901831 94.091 -68.2139
5.944598 94.164 -68.5748
5.987675 94.236 -68.9256
6.031065 94.308 -69.2675
6.074768 94.380 -69.6016
6.118788 94.452 -69.9287
6.163127 94.525 -70.2495
6.207788 94.598 -70.5639
6.252772 94.673 -70.8711
6.298082 94.749 -71.1699
6.343721 94.825 -71.4610
6.389690 94.902 -71.7462
6.435992 94.980 -72.0281
6.482630 95.059 -72.3093
6.529606 95.138 -72.5923
6.576922 95.218 -72.8784
6.624581 95.299 -73.1675
6.672585 95.381 -73.4582
6.720938 95.464 -73.7501
6.769640 95.548 -74.0441
6.818696 95.632 -74.3417
6.868107 95.716 -74.6444
6.917876 95.799 -74.9539
6.968006 95.882 -75.2712
7.018499 95.965 -75.5963
7.069358 96.048 -75.9285
7.120586 96.130 -76.2668
7.172184 96.212 -76.6100
7.224157 96.292 -76.9574
7.276506 96.372 -77.3084
7.329235 96.450 -77.6632
7.382345 96.526 -78.0228
7.435841 96.601 -78.3874
7.489724 96.674 -78.7556
7.543997 96.747 -79.1250
7.598664 96.817 -79.4933
7.653728 96.887 -79.8584
7.709189 96.954 -80.2199
7.765053 97.020 -80.5786
7.821322 97.085 -80.9352
7.877998 97.148 -81.2886
7.935086 97.210 -81.6375
7.992587 97.271 -81.9801
8.050504 97.331 -82.3151
8.108841 97.391 -82.6421
8.167601 97.450 -82.9617
8.226787 97.509 -83.2750
8.286402 97.567 -83.5826
8.346449 97.626 -83.8852
8.406931 97.684 -84.1830
8.467851 97.744 -84.4754
8.529212 97.804 -84.7625
8.591018 97.864 -85.0455
8.653272 97.924 -85.3266
8.715977 97.985 -85.6080
8.779137 98.047 -85.8914
8.842754 98.110 -86.1770
8.906833 98.173 -86.4643
8.971375 98.237 -86.7542
9.036386 98.302 -87.0483
9.101867 98.366 -87.3483
9.167823 98.430 -87.6556
9.234257 98.495 -87.9703
9.301172 98.559 -88.2921
9.368572 98.624 -88.6202
9.436460 98.687 -88.9544
9.504841 98.750 -89.2945
9.573717 98.812 -89.6411
9.643092 98.873 -89.9940
9.712970 98.933 -90.3520
9.783354 98.992 -90.7130
9.854248 99.050 -91.0754
9.925656 99.106 -91.4382
9.997581 99.161 -91.8019
10.070028 99.216 -92.1659
10.143000 99.269 -92.5284
10.216500 99.322 -92.8877
10.290533 99.374 -93.2428
10.365103 99.425 -93.5938
10.440212 99.477 -93.9410
10.515866 99.528 -94.2845
10.592069 99.579 -94.6243
10.668823 99.631 -94.9601
10.746134 99.683 -95.2921
10.824005 99.735 -95.6215
10.902440 99.789 -95.9500
10.981443 99.843 -96.2792
11.061020 99.898 -96.6094
11.141172 99.954 -96.9410
11.221906 100.011 -97.2754
11.303225 100.068 -97.6145
11.385133 100.126 -97.9596
11.467634 100.184 -98.3110
11.550734 100.242 -98.6684
11.634435 100.301 -99.0320
11.718742 100.359 -99.4021
11.803661 100.417 -99.7788
11.889195 100.474 -100.1615
11.975349 100.530 -100.5483
12.062128 100.585 -100.9374
12.149535 100.639 -101.3280
12.237576 100.692 -101.7193
12.326254 100.744 -102.1092
12.415575 100.794 -102.4949
12.505544 100.844 -102.8745
12.596164 100.892 -103.2477
12.687441 100.940 -103.6131
12.779379 100.988 -103.9693
12.871984 101.035 -104.3148
12.965260 101.083 -104.6497
13.059211 101.131 -104.9748
13.153843 101.180 -105.2911
13.249161 101.230 -105.5989
13.345170 101.282 -105.8993
13.441875 101.335 -106.1950
13.539280 101.390 -106.4891
13.637391 101.446 -106.7834
13.736214 101.504 -107.0794
13.835752 101.564 -107.3801
13.936011 101.624 -107.6886
14.036998 101.685 -108.0061
14.138716 101.747 -108.3331
14.241171 101.808 -108.6701
14.344368 101.869 -109.0178
14.448313 101.928 -109.3755
14.553011 101.986 -109.7405
14.658468 102.042 -110.1100
14.764689 102.095 -110.4823
14.871680 102.146 -110.8542
14.979446 102.195 -111.2209
15.087994 102.241 -111.5786
15.197328 102.285 -111.9253
15.307454 102.328 -112.2583
15.418378 102.370 -112.5745
15.530106 102.412 -112.8733
15.642643 102.454 -113.1561
15.755996 102.498 -113.4250
15.870171 102.543 -113.6819
15.985172 102.591 -113.9316
16.101007 102.642 -114.1813
16.217682 102.696 -114.4365
16.335201 102.753 -114.7025
16.453573 102.812 -114.9867
16.572803 102.872 -115.2951
16.692898 102.933 -115.6301
16.813862 102.994 -115.9939
16.935701 103.052 -116.3876
17.058424 103.107 -116.8089
17.182035 103.158 -117.2522
17.306543 103.203 -117.7117
17.431953 103.242 -118.1812
17.558273 103.276 -118.6498
17.685509 103.303 -119.1083
17.813665 103.325 -119.5497
17.942751 103.343 -119.9649
18.072771 103.357 -120.3474
18.203733 103.370 -120.6950
18.335646 103.383 -121.0070
18.468513 103.398 -121.2846
18.602345 103.417 -121.5343
18.737144 103.440 -121.7648
18.872921 103.468 -121.9839
19.009682 103.502 -122.2031
19.147434 103.540 -122.4331
19.286184 103.583 -122.6808
19.425940 103.629 -122.9529
19.566708 103.676 -123.2532
19.708496 103.724 -123.5805
19.851313 103.770 -123.9320
19.995163 103.814 -124.3034
20.140057 103.855 -124.6869
20.285999 103.894 -125.0754
20.433001 103.931 -125.4628
20.581066 103.966 -125.8431
20.730206 104.000 -126.2137
20.880424 104.035 -126.5743
21.031733 104.071 -126.9263
21.184137 104.108 -127.2740
21.337646 104.148 -127.6231
21.492268 104.190 -127.9783
21.648010 104.233 -128.3447
21.804880 104.276 -128.7253
21.962887 104.319 -129.1204
22.122040 104.360 -129.5286
22.282345 104.399 -129.9455
22.443811 104.435 -130.3650
22.606449 104.467 -130.7813
22.770266 104.497 -131.1875
22.935268 104.524 -131.5788
23.101467 104.550 -131.9520
23.268869 104.576 -132.3060
23.437485 104.602 -132.6424
23.607323 104.628 -132.9640
23.778391 104.656 -133.2749
23.950699 104.684 -133.5792
24.124256 104.714 -133.8798
24.299070 104.743 -134.1788
24.475151 104.773 -134.4762
24.652508 104.802 -134.7710
24.831150 104.831 -135.0617
25.011087 104.860 -135.3468
25.192327 104.889 -135.6264
25.374882 104.918 -135.9022
25.558758 104.950 -136.1778
25.743967 104.982 -136.4590
25.930519 105.016 -136.7513
26.118422 105.051 -137.0608
26.307686 105.085 -137.3907
26.498322 105.118 -137.7419
26.690340 105.148 -138.1114
26.883749 105.174 -138.4931
27.078560 105.196 -138.8788
27.274782 105.214 -139.2589
27.472427 105.228 -139.6256
27.671503 105.241 -139.9731
27.872023 105.253 -140.3003
28.073996 105.267 -140.6102
28.277431 105.284 -140.9102
28.482342 105.303 -141.2091
28.688736 105.325 -141.5168
28.896626 105.350 -141.8402
29.106022 105.374 -142.1826
29.316936 105.397 -142.5418
29.529379 105.418 -142.9123
29.743361 105.436 -143.2849
29.958893 105.452 -143.6511
30.175987 105.467 -144.0040
30.394655 105.482 -144.3415
30.614908 105.498 -144.6656
30.836756 105.516 -144.9829
31.060211 105.537 -145.3007
31.285286 105.559 -145.6258
31.511992 105.581 -145.9604
31.740341 105.601 -146.3020
31.970345 105.620 -146.6430
32.202015 105.637 -146.9747
32.435364 105.652 -147.2889
32.670403 105.668 -147.5832
32.907146 105.687 -147.8619
33.145607 105.710 -148.1365
33.385796 105.737 -148.4219
33.627724 105.766 -148.7318
33.871403 105.796 -149.0747
34.116848 105.823 -149.4494
34.364071 105.845 -149.8464
34.613087 105.862 -150.2490
34.863907 105.873 -150.6409
35.116547 105.881 -151.0106
35.371017 105.888 -151.3550
35.627331 105.897 -151.6811
35.885502 105.909 -152.0014
36.145542 105.924 -152.3302
36.407467 105.939 -152.6760
36.671291 105.952 -153.0386
36.937027 105.962 -153.4097
37.204689 105.969 -153.7756
37.474289 105.973 -154.1239
37.745842 105.977 -154.4481
38.019363 105.982 -154.7494
38.294868 105.991 -155.0368
38.572369 106.003 -155.3212
38.851879 106.017 -155.6119
39.133415 106.032 -155.9126
39.416992 106.046 -156.2208
39.702625 106.059 -156.5307
39.990326 106.071 -156.8364
40.280113 106.083 -157.1348
40.571999 106.094 -157.4270
40.866001 106.106 -157.7172
41.162132 106.117 -158.0093
41.460411 106.127 -158.3051
41.760849 106.136 -158.6030
42.063465 106.141 -158.8984
42.368275 106.145 -159.1861
42.675293 106.147 -159.4635
42.984535 106.149 -159.7321
43.296021 106.151 -159.9967
43.609760 106.154 -160.2636
43.925774 106.156 -160.5370
44.244080 106.158 -160.8162
44.564690 106.160 -161.0968
44.887623 106.161 -161.3751
45.212898 106.165 -161.6533
45.540531 106.172 -161.9422
45.870537 106.183 -162.2578
46.202934 106.196 -162.6131
46.537739 106.207 -163.0086
46.874969 106.212 -163.4283
47.214645 106.213 -163.8459
47.556782 106.209 -164.2386
47.901398 106.206 -164.5980
48.248512 106.205 -164.9301
48.598141 106.208 -165.2441
48.950302 106.211 -165.5390
49.305016 106.217 -165.8014
49.662300 106.227 -166.0214
50.022175 106.248 -166.2133
50.384655 106.283 -166.4244
50.749763 106.327 -166.7151
51.117516 106.371 -167.1212
51.487934 106.402 -167.6239
51.861038 106.411 -168.1545
52.236843 106.401 -168.6320
52.615372 106.382 -169.0105
52.996643 106.363 -169.3014
53.380680 106.348 -169.5529
53.767498 106.335 -169.8021
54.157120 106.316 -170.0414
54.549564 106.293 -170.2307
54.944855 106.271 -170.3438
55.343006 106.262 -170.4073
55.744045 106.270 -170.4958
56.147991 106.288 -170.6809
56.554863 106.304 -170.9778
56.964684 106.308 -171.3366
57.377472 106.302 -171.6830
57.793251 106.293 -171.9742
58.212044 106.292 -172.2272
58.633873 106.302 -172.4979
59.058758 106.316 -172.8325
59.486721 106.327 -173.2320
59.917786 106.328 -173.6536
60.351974 106.319 -174.0432
60.789310 106.305 -174.3673
61.229816 106.291 -174.6216
61.673512 106.280 -174.8158
62.120422 106.272 -174.9590
62.570572 106.271 -175.0614
63.023983 106.278 -175.1502
63.480682 106.294 -175.2730
63.940689 106.312 -175.4760
64.404030 106.323 -175.7712
64.870728 106.319 -176.1238
65.340805 106.298 -176.4735
65.814293 106.264 -176.7681
66.291214 106.226 -176.9895
66.771591 106.193 -177.1572
67.255447 106.168 -177.3151
67.742805 106.152 -177.5093
68.233696 106.140 -177.7623
68.728142 106.126 -178.0582
69.226173 106.109 -178.3542
69.727814 106.093 -178.6141
70.233093 106.084 -178.8354
70.742035 106.084 -179.0451
71.254662 106.092 -179.2729
71.771004 106.102 -179.5302
72.291084 106.110 -179.8078
72.814934 106.112 179.9139
73.342583 106.109 179.6476
73.874054 106.103 179.3855
74.409378 106.091 179.1094
74.948578 106.071 178.8212
75.491684 106.044 178.5479
76.038727 106.017 178.2942
76.589737 105.995 178.0120
77.144737 105.976 177.6561
77.703758 105.952 177.2533
78.266830 105.929 176.8551
78.833984 105.916 176.4338
79.405251 105.905 175.9253
79.980652 105.876 175.3986
80.560226 105.829 175.0654
81.143997 105.794 175.0316
81.732002 105.797 175.1271
