* Measurement data measured by REW V5.31
* Source: EXCL: Microphone (USB Sound Device        ), MICROPHONE (Master Volume), L, volume: 0.390
* Format: 256k Log Swept Sine, 1 sweep at -4.0 dBFS with no timing reference
* Dated: Aug 9, 2024 12:01:56 AM
* REW Settings:
*  C-weighting compensation: Off
*  Target level: 75.0 dB
* Note: Kinera Celest Wyvern Qing
* Measurement: L Kinera Celest Wyvern Qing
* Smoothing: 1/12 octave
* Frequency Step: 96 ppo
* Start Frequency: 0.36621094 Hz
*
* Freq(Hz) SPL(dB) Phase(degrees)
0.366211 87.380 -61.0042
0.368865 87.384 -61.0685
0.371538 87.389 -61.1649
0.374230 87.396 -61.2858
0.376942 87.405 -61.4250
0.379673 87.413 -61.5777
0.382424 87.422 -61.7408
0.385196 87.431 -61.9124
0.387987 87.441 -62.0916
0.390798 87.450 -62.2777
0.393630 87.460 -62.4703
0.396483 87.470 -62.6694
0.399356 87.479 -62.8749
0.402250 87.489 -63.0867
0.405165 87.499 -63.3050
0.408101 87.509 -63.5296
0.411058 87.519 -63.7607
0.414037 87.529 -63.9983
0.417037 87.539 -64.2423
0.420059 87.550 -64.4929
0.423103 87.560 -64.7499
0.426169 87.570 -65.0135
0.429257 87.581 -65.2837
0.432368 87.591 -65.5604
0.435501 87.602 -65.8437
0.438656 87.613 -66.1335
0.441835 87.624 -66.4299
0.445037 87.635 -66.7328
0.448262 87.645 -67.0423
0.451510 87.657 -67.3582
0.454782 87.668 -67.6807
0.458077 87.679 -68.0097
0.461397 87.690 -68.3451
0.464740 87.701 -68.6869
0.468108 87.713 -69.0351
0.471500 87.724 -69.3896
0.474917 87.736 -69.7504
0.478358 87.748 -70.1174
0.481825 87.760 -70.4905
0.485316 87.771 -70.8698
0.488833 87.783 -71.2550
0.492375 87.795 -71.6462
0.495943 87.808 -72.0433
0.499537 87.820 -72.4461
0.503157 87.832 -72.8546
0.506803 87.844 -73.2686
0.510475 87.857 -73.6882
0.514175 87.869 -74.1130
0.517900 87.882 -74.5431
0.521653 87.895 -74.9783
0.525434 87.908 -75.4185
0.529241 87.921 -75.8636
0.533076 87.934 -76.3133
0.536939 87.947 -76.7676
0.540830 87.960 -77.2263
0.544749 87.973 -77.6893
0.548696 87.987 -78.1563
0.552673 88.000 -78.6273
0.556677 88.014 -79.1021
0.560711 88.028 -79.5804
0.564774 88.041 -80.0621
0.568867 88.055 -80.5471
0.572989 88.069 -81.0351
0.577141 88.083 -81.5259
0.581324 88.098 -82.0195
0.585536 88.112 -82.5154
0.589779 88.126 -83.0137
0.594053 88.141 -83.5141
0.598358 88.156 -84.0163
0.602694 88.170 -84.5202
0.607061 88.185 -85.0256
0.611460 88.200 -85.5323
0.615891 88.215 -86.0400
0.620354 88.230 -86.5487
0.624849 88.246 -87.0580
0.629377 88.261 -87.5678
0.633938 88.277 -88.0779
0.638532 88.292 -88.5881
0.643159 88.308 -89.0981
0.647819 88.324 -89.6079
0.652514 88.340 -90.1172
0.657242 88.356 -90.6258
0.662005 88.372 -91.1335
0.666802 88.388 -91.6403
0.671634 88.405 -92.1458
0.676501 88.421 -92.6499
0.681403 88.438 -93.1525
0.686341 88.455 -93.6535
0.691314 88.471 -94.1526
0.696324 88.488 -94.6498
0.701370 88.505 -95.1451
0.706452 88.522 -95.6384
0.711571 88.539 -96.1299
0.716728 88.555 -96.6200
0.721921 88.571 -97.1094
0.727153 88.585 -97.5992
0.732422 88.598 -98.0907
0.737729 88.610 -98.5858
0.743075 88.620 -99.0863
0.748460 88.628 -99.5935
0.753883 88.636 -100.1086
0.759346 88.644 -100.6322
0.764849 88.651 -101.1646
0.770391 88.657 -101.7060
0.775974 88.664 -102.2564
0.781597 88.670 -102.8157
0.787261 88.676 -103.3838
0.792966 88.682 -103.9605
0.798712 88.688 -104.5456
0.804500 88.693 -105.1389
0.810329 88.698 -105.7403
0.816201 88.703 -106.3495
0.822116 88.708 -106.9661
0.828073 88.712 -107.5901
0.834074 88.716 -108.2210
0.840118 88.720 -108.8586
0.846206 88.723 -109.5025
0.852338 88.726 -110.1526
0.858514 88.729 -110.8083
0.864735 88.731 -111.4695
0.871001 88.733 -112.1357
0.877313 88.734 -112.8065
0.883670 88.735 -113.4816
0.890074 88.735 -114.1605
0.896524 88.735 -114.8430
0.903020 88.734 -115.5285
0.909564 88.732 -116.2167
0.916155 88.730 -116.9071
0.922794 88.727 -117.5992
0.929481 88.723 -118.2927
0.936216 88.719 -118.9871
0.943000 88.714 -119.6819
0.949834 88.708 -120.3767
0.956717 88.701 -121.0709
0.963649 88.693 -121.7643
0.970632 88.684 -122.4561
0.977666 88.675 -123.1461
0.984750 88.664 -123.8336
0.991886 88.652 -124.5183
0.999074 88.639 -125.1997
1.006314 88.625 -125.8773
1.013606 88.610 -126.5505
1.020951 88.593 -127.2191
1.028349 88.575 -127.8824
1.035801 88.556 -128.5401
1.043307 88.535 -129.1917
1.050867 88.513 -129.8369
1.058482 88.490 -130.4755
1.066152 88.464 -131.1075
1.073878 88.438 -131.7331
1.081660 88.410 -132.3531
1.089498 88.380 -132.9691
1.097393 88.349 -133.5831
1.105345 88.318 -134.1980
1.113355 88.285 -134.8171
1.121423 88.252 -135.4431
1.129549 88.218 -136.0782
1.137734 88.184 -136.7241
1.145979 88.150 -137.3821
1.154283 88.114 -138.0531
1.162647 88.078 -138.7376
1.171072 88.041 -139.4362
1.179558 88.003 -140.1493
1.188106 87.965 -140.8773
1.196715 87.924 -141.6204
1.205387 87.883 -142.3790
1.214122 87.840 -143.1531
1.222920 87.795 -143.9430
1.231782 87.749 -144.7488
1.240708 87.700 -145.5705
1.249699 87.649 -146.4080
1.258754 87.596 -147.2613
1.267876 87.540 -148.1302
1.277063 87.482 -149.0143
1.286318 87.420 -149.9133
1.295639 87.355 -150.8266
1.305027 87.287 -151.7536
1.314484 87.215 -152.6936
1.324009 87.140 -153.6455
1.333604 87.060 -154.6082
1.343268 86.975 -155.5805
1.353002 86.886 -156.5609
1.362806 86.792 -157.5477
1.372681 86.693 -158.5389
1.382628 86.589 -159.5325
1.392647 86.478 -160.5262
1.402739 86.361 -161.5177
1.412904 86.238 -162.5045
1.423142 86.107 -163.4846
1.433455 85.969 -164.4563
1.443843 85.822 -165.4193
1.454305 85.665 -166.3746
1.464844 85.496 -167.3255
1.475459 85.314 -168.2771
1.486150 85.118 -169.2357
1.496920 84.906 -170.2075
1.507767 84.678 -171.1979
1.518693 84.433 -172.2114
1.529698 84.173 -173.2519
1.540783 83.897 -174.3228
1.551948 83.608 -175.4273
1.563194 83.305 -176.5685
1.574521 82.991 -177.7494
1.585931 82.666 -178.9732
1.597423 82.333 179.7565
1.608999 81.992 178.4362
1.620658 81.646 177.0621
1.632402 81.296 175.6299
1.644232 80.944 174.1352
1.656146 80.591 172.5732
1.668147 80.241 170.9386
1.680235 79.895 169.2259
1.692411 79.556 167.4289
1.704675 79.226 165.5411
1.717028 78.908 163.5552
1.729470 78.604 161.4633
1.742003 78.317 159.2564
1.754626 78.051 156.9243
1.767341 77.808 154.4548
1.780147 77.592 151.8327
1.793047 77.405 149.0377
1.806040 77.251 146.0414
1.819128 77.130 142.8036
1.832310 77.045 139.2665
1.845587 76.994 135.3522
1.858961 76.979 130.9614
1.872432 76.998 125.9778
1.886001 77.048 120.2754
1.899667 77.129 113.7342
1.913433 77.239 106.2694
1.927299 77.377 97.8792
1.941265 77.540 88.6990
1.955332 77.726 79.0309
1.969501 77.934 69.3046
1.983773 78.162 59.9674
1.998148 78.408 51.3630
2.012627 78.669 43.6715
2.027212 78.943 36.9251
2.041902 79.228 31.0599
2.056698 79.522 25.9675
2.071602 79.823 21.5292
2.086614 80.127 17.6331
2.101734 80.434 14.1816
2.116964 80.740 11.0922
2.132304 81.044 8.2960
2.147756 81.345 5.7352
2.163320 81.643 3.3617
2.178996 81.938 1.1342
2.194786 82.232 -0.9816
2.210690 82.529 -3.0135
2.226710 82.829 -4.9818
2.242845 83.137 -6.8987
2.259098 83.452 -8.7705
2.275468 83.775 -10.5994
2.291957 84.105 -12.3851
2.308566 84.442 -14.1267
2.325295 84.785 -15.8229
2.342145 85.131 -17.4725
2.359117 85.480 -19.0753
2.376212 85.829 -20.6311
2.393431 86.178 -22.1404
2.410775 86.524 -23.6042
2.428244 86.865 -25.0240
2.445840 87.200 -26.4016
2.463564 87.528 -27.7394
2.481416 87.845 -29.0408
2.499397 88.152 -30.3096
2.517509 88.446 -31.5513
2.535752 88.727 -32.7723
2.554127 88.994 -33.9810
2.572635 89.248 -35.1857
2.591277 89.488 -36.3948
2.610055 89.716 -37.6134
2.628968 89.932 -38.8441
2.648019 90.137 -40.0861
2.667208 90.333 -41.3369
2.686535 90.518 -42.5924
2.706003 90.695 -43.8484
2.725612 90.864 -45.1002
2.745363 91.026 -46.3430
2.765257 91.180 -47.5726
2.785295 91.329 -48.7850
2.805478 91.473 -49.9769
2.825808 91.612 -51.1455
2.846285 91.747 -52.2889
2.866910 91.879 -53.4070
2.887685 92.008 -54.5009
2.908611 92.134 -55.5742
2.929688 92.256 -56.6328
2.950917 92.374 -57.6836
2.972301 92.488 -58.7333
2.993839 92.597 -59.7866
3.015534 92.700 -60.8458
3.037386 92.797 -61.9107
3.059396 92.889 -62.9793
3.081565 92.975 -64.0486
3.103896 93.056 -65.1146
3.126388 93.132 -66.1730
3.149043 93.204 -67.2194
3.171862 93.271 -68.2492
3.194847 93.335 -69.2584
3.217998 93.395 -70.2435
3.241317 93.451 -71.2026
3.264805 93.504 -72.1351
3.288463 93.553 -73.0432
3.312293 93.598 -73.9305
3.336295 93.639 -74.8022
3.360471 93.675 -75.6626
3.384822 93.706 -76.5140
3.409350 93.732 -77.3576
3.434056 93.754 -78.1924
3.458940 93.772 -79.0161
3.484005 93.786 -79.8259
3.509252 93.796 -80.6177
3.534681 93.804 -81.3875
3.560295 93.809 -82.1304
3.586094 93.812 -82.8423
3.612081 93.813 -83.5194
3.638255 93.812 -84.1590
3.664620 93.809 -84.7598
3.691175 93.803 -85.3222
3.717923 93.794 -85.8477
3.744864 93.783 -86.3383
3.772001 93.768 -86.7958
3.799335 93.752 -87.2217
3.826866 93.734 -87.6171
3.854597 93.715 -87.9825
3.882529 93.696 -88.3184
3.910664 93.678 -88.6241
3.939002 93.662 -88.8992
3.967546 93.648 -89.1420
3.996296 93.637 -89.3506
4.025255 93.630 -89.5226
4.054423 93.625 -89.6553
4.083804 93.623 -89.7476
4.113396 93.625 -89.7997
4.143204 93.629 -89.8142
4.173227 93.636 -89.7953
4.203468 93.646 -89.7487
4.233928 93.661 -89.6805
4.264609 93.680 -89.5973
4.295512 93.705 -89.5052
4.326639 93.735 -89.4091
4.357992 93.772 -89.3121
4.389572 93.816 -89.2155
4.421380 93.866 -89.1184
4.453419 93.925 -89.0200
4.485691 93.989 -88.9207
4.518196 94.061 -88.8231
4.550936 94.138 -88.7317
4.583914 94.220 -88.6525
4.617131 94.307 -88.5920
4.650589 94.397 -88.5568
4.684289 94.490 -88.5524
4.718233 94.586 -88.5834
4.752424 94.684 -88.6517
4.786862 94.785 -88.7578
4.821549 94.888 -88.9003
4.856488 94.994 -89.0773
4.891680 95.102 -89.2869
4.927127 95.211 -89.5280
4.962831 95.321 -89.7999
4.998794 95.430 -90.1025
5.035017 95.538 -90.4360
5.071503 95.644 -90.8013
5.108253 95.746 -91.1991
5.145270 95.846 -91.6302
5.182555 95.943 -92.0944
5.220110 96.037 -92.5900
5.257937 96.128 -93.1138
5.296038 96.215 -93.6617
5.334415 96.299 -94.2289
5.373071 96.379 -94.8109
5.412006 96.455 -95.4042
5.451224 96.526 -96.0067
5.490725 96.592 -96.6177
5.530514 96.654 -97.2375
5.570590 96.710 -97.8665
5.610957 96.761 -98.5032
5.651616 96.808 -99.1450
5.692570 96.850 -99.7875
5.733821 96.888 -100.4257
5.775370 96.922 -101.0546
5.817221 96.952 -101.6706
5.859375 96.978 -102.2714
5.901834 97.000 -102.8565
5.944602 97.018 -103.4260
5.987679 97.032 -103.9796
6.031068 97.044 -104.5164
6.074771 97.053 -105.0344
6.118792 97.060 -105.5310
6.163131 97.066 -106.0037
6.207792 97.071 -106.4498
6.252776 97.076 -106.8682
6.298086 97.080 -107.2587
6.343725 97.084 -107.6222
6.389694 97.089 -107.9606
6.435996 97.094 -108.2763
6.482634 97.102 -108.5715
6.529610 97.112 -108.8479
6.576926 97.124 -109.1068
6.624585 97.140 -109.3488
6.672590 97.160 -109.5753
6.720942 97.183 -109.7886
6.769645 97.209 -109.9927
6.818700 97.239 -110.1923
6.868111 97.273 -110.3925
6.917881 97.310 -110.5974
6.968010 97.351 -110.8102
7.018504 97.395 -111.0326
7.069362 97.443 -111.2662
7.120590 97.494 -111.5127
7.172189 97.547 -111.7747
7.224161 97.602 -112.0547
7.276511 97.658 -112.3555
7.329239 97.715 -112.6787
7.382350 97.772 -113.0251
7.435845 97.829 -113.3943
7.489729 97.886 -113.7849
7.544002 97.942 -114.1954
7.598669 97.997 -114.6242
7.653732 98.049 -115.0701
7.709194 98.100 -115.5320
7.765058 98.147 -116.0088
7.821327 98.192 -116.4984
7.878004 98.234 -116.9977
7.935091 98.273 -117.5031
7.992592 98.309 -118.0111
8.050510 98.341 -118.5189
8.108847 98.371 -119.0242
8.167607 98.397 -119.5255
8.226793 98.421 -120.0206
8.286408 98.442 -120.5071
8.346454 98.461 -120.9823
8.406936 98.478 -121.4439
8.467856 98.494 -121.8904
8.529218 98.509 -122.3212
8.591024 98.523 -122.7363
8.653278 98.536 -123.1357
8.715983 98.550 -123.5201
8.779143 98.564 -123.8895
8.842760 98.579 -124.2449
8.906839 98.596 -124.5872
8.971381 98.613 -124.9186
9.036392 98.633 -125.2417
9.101873 98.654 -125.5589
9.167829 98.677 -125.8726
9.234263 98.702 -126.1848
9.301178 98.728 -126.4974
9.368578 98.756 -126.8124
9.436467 98.786 -127.1321
9.504847 98.816 -127.4584
9.573723 98.847 -127.7927
9.643099 98.878 -128.1356
9.712976 98.908 -128.4872
9.783361 98.936 -128.8477
9.854255 98.962 -129.2166
9.925663 98.985 -129.5934
9.997588 99.004 -129.9775
10.070035 99.020 -130.3674
10.143007 99.033 -130.7614
10.216507 99.042 -131.1577
10.290540 99.049 -131.5546
10.365109 99.052 -131.9507
10.440219 99.053 -132.3447
10.515873 99.052 -132.7349
10.592076 99.050 -133.1201
10.668830 99.046 -133.4993
10.746141 99.041 -133.8717
10.824012 99.036 -134.2374
10.902447 99.030 -134.5963
10.981451 99.023 -134.9488
11.061027 99.017 -135.2953
11.141180 99.011 -135.6365
11.221913 99.005 -135.9736
11.303232 98.999 -136.3078
11.385140 98.994 -136.6402
11.467641 98.989 -136.9718
11.550741 98.984 -137.3035
11.634442 98.980 -137.6361
11.718750 98.975 -137.9704
11.803669 98.971 -138.3066
11.889203 98.967 -138.6450
11.975357 98.963 -138.9853
12.062136 98.959 -139.3271
12.149543 98.954 -139.6700
12.237583 98.949 -140.0134
12.326262 98.943 -140.3567
12.415583 98.937 -140.6990
12.505552 98.930 -141.0399
12.596172 98.923 -141.3790
12.687449 98.915 -141.7159
12.779387 98.907 -142.0509
12.871992 98.898 -142.3839
12.965268 98.890 -142.7153
13.059220 98.882 -143.0459
13.153852 98.874 -143.3763
13.249170 98.866 -143.7075
13.345179 98.859 -144.0400
13.441884 98.852 -144.3745
13.539289 98.845 -144.7117
13.637401 98.838 -145.0517
13.736223 98.831 -145.3947
13.835761 98.824 -145.7401
13.936021 98.816 -146.0876
14.037007 98.808 -146.4364
14.138725 98.798 -146.7855
14.241180 98.788 -147.1339
14.344377 98.777 -147.4805
14.448323 98.766 -147.8243
14.553021 98.754 -148.1650
14.658478 98.742 -148.5018
14.764700 98.730 -148.8349
14.871691 98.719 -149.1647
14.979457 98.708 -149.4918
15.088005 98.698 -149.8174
15.197339 98.689 -150.1428
15.307465 98.681 -150.4694
15.418389 98.674 -150.7988
15.530117 98.667 -151.1320
15.642655 98.661 -151.4702
15.756008 98.655 -151.8138
15.870182 98.649 -152.1631
15.985184 98.643 -152.5178
16.101019 98.636 -152.8768
16.217694 98.628 -153.2391
16.335214 98.620 -153.6033
16.453586 98.611 -153.9676
16.572815 98.601 -154.3305
16.692909 98.590 -154.6907
16.813872 98.580 -155.0471
16.935713 98.570 -155.3989
17.058436 98.559 -155.7461
17.182048 98.550 -156.0887
17.306556 98.540 -156.4275
17.431967 98.532 -156.7632
17.558286 98.523 -157.0969
17.685521 98.515 -157.4297
17.813677 98.508 -157.7622
17.942762 98.500 -158.0952
18.072783 98.493 -158.4286
18.203746 98.485 -158.7626
18.335658 98.477 -159.0966
18.468526 98.468 -159.4297
18.602356 98.459 -159.7612
18.737156 98.450 -160.0903
18.872934 98.441 -160.4163
19.009695 98.432 -160.7386
19.147447 98.422 -161.0573
19.286197 98.413 -161.3723
19.425953 98.404 -161.6841
19.566721 98.394 -161.9934
19.708510 98.385 -162.3008
19.851326 98.376 -162.6068
19.995177 98.367 -162.9121
20.140070 98.357 -163.2168
20.286013 98.348 -163.5211
20.433014 98.337 -163.8247
20.581080 98.327 -164.1276
20.730219 98.316 -164.4292
20.880439 98.304 -164.7295
21.031747 98.293 -165.0282
21.184152 98.281 -165.3254
21.337661 98.270 -165.6211
21.492282 98.258 -165.9155
21.648024 98.246 -166.2089
21.804895 98.234 -166.5012
21.962902 98.222 -166.7925
22.122054 98.210 -167.0827
22.282360 98.198 -167.3715
22.443827 98.185 -167.6586
22.606464 98.173 -167.9438
22.770280 98.160 -168.2274
22.935283 98.148 -168.5096
23.101481 98.136 -168.7913
23.268884 98.125 -169.0733
23.437500 98.114 -169.3572
23.607338 98.103 -169.6440
23.778406 98.093 -169.9351
23.950714 98.082 -170.2310
24.124271 98.072 -170.5320
24.299086 98.061 -170.8379
24.475167 98.049 -171.1476
24.652524 98.037 -171.4600
24.831166 98.024 -171.7737
25.011103 98.010 -172.0873
25.192344 97.996 -172.3995
25.374898 97.981 -172.7095
25.558775 97.966 -173.0168
25.743984 97.951 -173.3213
25.930536 97.936 -173.6229
26.118439 97.920 -173.9221
26.307704 97.905 -174.2188
26.498341 97.890 -174.5134
26.690359 97.875 -174.8058
26.883768 97.859 -175.0963
27.078579 97.844 -175.3846
27.274801 97.828 -175.6709
27.472446 97.812 -175.9551
27.671522 97.796 -176.2371
27.872042 97.780 -176.5168
28.074014 97.763 -176.7943
28.277450 97.746 -177.0695
28.482360 97.729 -177.3423
28.688755 97.712 -177.6127
28.896645 97.694 -177.8809
29.106042 97.677 -178.1472
29.316957 97.659 -178.4122
29.529400 97.641 -178.6760
29.743382 97.623 -178.9393
29.958915 97.605 -179.2018
30.176009 97.586 -179.4636
30.394677 97.568 -179.7242
30.614929 97.549 -179.9832
30.836778 97.530 179.7598
31.060234 97.511 179.5048
31.285309 97.492 179.2516
31.512015 97.473 178.9996
31.740364 97.455 178.7480
31.970368 97.436 178.4962
32.202039 97.418 178.2434
32.435388 97.400 177.9893
32.670428 97.382 177.7338
32.907171 97.364 177.4767
33.145630 97.346 177.2184
33.385817 97.327 176.9589
33.627745 97.309 176.6981
33.871425 97.291 176.4364
34.116871 97.272 176.1739
34.364096 97.253 175.9113
34.613113 97.234 175.6492
34.863934 97.214 175.3885
35.116572 97.193 175.1302
35.371041 97.172 174.8748
35.627354 97.151 174.6227
35.885525 97.130 174.3740
36.145566 97.108 174.1284
36.407492 97.087 173.8857
36.671316 97.065 173.6456
36.937051 97.043 173.4078
37.204712 97.020 173.1724
37.474313 96.998 172.9391
37.745867 96.975 172.7083
38.019389 96.951 172.4800
38.294893 96.927 172.2546
38.572394 96.904 172.0323
38.851905 96.879 171.8132
39.133442 96.855 171.5974
39.417019 96.830 171.3848
39.702651 96.805 171.1753
39.990353 96.781 170.9691
40.280140 96.756 170.7665
40.572026 96.731 170.5680
40.866028 96.706 170.3735
41.162160 96.681 170.1831
41.460438 96.657 169.9962
41.760877 96.634 169.8120
42.063494 96.610 169.6299
42.368303 96.588 169.4491
42.675322 96.565 169.2693
42.984565 96.544 169.0903
43.296048 96.522 168.9117
43.609789 96.501 168.7327
43.925804 96.481 168.5522
44.244108 96.461 168.3690
44.564719 96.441 168.1824
44.887654 96.421 167.9921
45.212928 96.401 167.7985
45.540560 96.381 167.6023
45.870565 96.360 167.4045
46.202962 96.338 167.2061
46.537768 96.316 167.0074
46.875000 96.293 166.8091
47.214676 96.270 166.6113
47.556813 96.247 166.4144
47.901429 96.224 166.2184
48.248542 96.200 166.0234
48.598171 96.175 165.8295
48.950334 96.151 165.6370
49.305048 96.125 165.4465
49.662333 96.100 165.2589
50.022206 96.073 165.0754
50.384688 96.047 164.8969
50.749796 96.020 164.7231
51.117550 95.994 164.5530
51.487969 95.967 164.3848
51.861072 95.942 164.2165
52.236879 95.916 164.0472
52.615409 95.890 163.8772
52.996681 95.863 163.7080
53.380717 95.836 163.5410
53.767536 95.810 163.3771
54.157158 95.783 163.2159
54.549603 95.756 163.0567
54.944892 95.730 162.8984
55.343045 95.704 162.7406
55.744084 95.678 162.5831
56.148028 95.652 162.4260
56.554900 95.627 162.2687
56.964720 95.601 162.1107
57.377510 95.576 161.9513
57.793291 95.550 161.7909
58.212085 95.524 161.6304
58.633914 95.497 161.4713
59.058799 95.470 161.3145
59.486764 95.442 161.1604
59.917829 95.414 161.0085
60.352019 95.386 160.8583
60.789354 95.357 160.7096
61.229859 95.327 160.5626
61.673556 95.297 160.4179
62.120468 95.267 160.2764
62.570618 95.235 160.1387
63.024031 95.204 160.0052
63.480729 95.172 159.8762
63.940736 95.140 159.7511
64.404077 95.108 159.6295
64.870776 95.076 159.5106
65.340856 95.045 159.3939
65.814343 95.013 159.2787
66.291261 94.982 159.1649
66.771635 94.951 159.0519
67.255489 94.920 158.9398
67.742850 94.889 158.8290
68.233743 94.858 158.7197
68.728193 94.827 158.6122
