* Measurement data measured by REW V5.30.9
* Source: EXCL: Microphone (USB Sound Device        ), MICROPHONE (Master Volume), L, volume: 0.560
* Format: 256k Log Swept Sine, 1 sweep at -9.0 dBFS with no timing reference
* Dated: Mar 26, 2024 11:54:41 AM
* REW Settings:
*  C-weighting compensation: Off
*  Target level: 75.0 dB
* Note: Kiwi Ears x Crinacle: Singolo L
* Measurement: L Kiwi Ears x Crinacle: Singol
* Smoothing: 1/12 octave
* Frequency Step: 96 ppo
* Start Frequency: 0.36621094 Hz
*
* Freq(Hz) SPL(dB) Phase(degrees)
0.366211 85.529 160.5679
0.368865 85.523 160.5472
0.371538 85.514 160.5163
0.374230 85.502 160.4773
0.376942 85.489 160.4324
0.379673 85.475 160.3831
0.382424 85.461 160.3302
0.385196 85.446 160.2745
0.387987 85.430 160.2163
0.390798 85.415 160.1557
0.393630 85.399 160.0928
0.396483 85.384 160.0276
0.399356 85.368 159.9602
0.402250 85.352 159.8906
0.405165 85.336 159.8187
0.408101 85.320 159.7445
0.411058 85.303 159.6680
0.414037 85.287 159.5892
0.417037 85.270 159.5081
0.420059 85.254 159.4246
0.423103 85.237 159.3386
0.426169 85.220 159.2503
0.429257 85.203 159.1595
0.432367 85.186 159.0663
0.435501 85.169 158.9706
0.438656 85.151 158.8724
0.441835 85.134 158.7716
0.445037 85.116 158.6683
0.448262 85.098 158.5625
0.451510 85.080 158.4540
0.454782 85.062 158.3430
0.458077 85.044 158.2294
0.461397 85.026 158.1131
0.464740 85.007 157.9941
0.468108 84.989 157.8725
0.471500 84.970 157.7482
0.474917 84.951 157.6212
0.478358 84.932 157.4914
0.481825 84.913 157.3589
0.485316 84.894 157.2237
0.488833 84.874 157.0857
0.492375 84.855 156.9450
0.495943 84.835 156.8015
0.499537 84.815 156.6551
0.503157 84.796 156.5060
0.506803 84.775 156.3541
0.510475 84.755 156.1994
0.514174 84.735 156.0418
0.517900 84.714 155.8815
0.521653 84.694 155.7183
0.525433 84.673 155.5523
0.529241 84.652 155.3836
0.533076 84.631 155.2120
0.536939 84.609 155.0376
0.540830 84.588 154.8604
0.544749 84.566 154.6804
0.548696 84.544 154.4977
0.552673 84.523 154.3122
0.556677 84.500 154.1240
0.560711 84.478 153.9331
0.564774 84.456 153.7395
0.568867 84.433 153.5433
0.572989 84.411 153.3444
0.577141 84.388 153.1429
0.581324 84.365 152.9388
0.585536 84.341 152.7323
0.589779 84.318 152.5232
0.594053 84.294 152.3118
0.598358 84.271 152.0979
0.602694 84.247 151.8817
0.607061 84.223 151.6633
0.611460 84.198 151.4426
0.615891 84.174 151.2199
0.620354 84.149 150.9950
0.624849 84.125 150.7682
0.629377 84.100 150.5395
0.633938 84.075 150.3091
0.638532 84.049 150.0768
0.643159 84.024 149.8431
0.647819 83.998 149.6078
0.652514 83.972 149.3711
0.657242 83.946 149.1332
0.662005 83.920 148.8942
0.666802 83.893 148.6542
0.671634 83.867 148.4133
0.676501 83.840 148.1718
0.681403 83.813 147.9298
0.686341 83.786 147.6874
0.691314 83.758 147.4448
0.696324 83.730 147.2022
0.701369 83.702 146.9597
0.706452 83.674 146.7176
0.711571 83.645 146.4757
0.716727 83.615 146.2341
0.721921 83.583 145.9925
0.727153 83.551 145.7505
0.732422 83.515 145.5075
0.737729 83.478 145.2624
0.743075 83.438 145.0143
0.748460 83.396 144.7624
0.753883 83.353 144.5060
0.759346 83.308 144.2445
0.764849 83.263 143.9778
0.770391 83.217 143.7054
0.775974 83.171 143.4274
0.781597 83.124 143.1434
0.787261 83.076 142.8535
0.792965 83.028 142.5576
0.798712 82.979 142.2554
0.804499 82.929 141.9471
0.810329 82.879 141.6325
0.816201 82.828 141.3114
0.822116 82.776 140.9840
0.828073 82.724 140.6500
0.834073 82.671 140.3094
0.840118 82.617 139.9622
0.846205 82.562 139.6083
0.852337 82.506 139.2476
0.858514 82.449 138.8801
0.864735 82.391 138.5058
0.871001 82.332 138.1246
0.877313 82.272 137.7365
0.883670 82.211 137.3414
0.890074 82.149 136.9394
0.896523 82.086 136.5305
0.903020 82.021 136.1146
0.909564 81.955 135.6918
0.916155 81.887 135.2621
0.922793 81.818 134.8256
0.929480 81.748 134.3822
0.936216 81.675 133.9322
0.943000 81.602 133.4755
0.949833 81.526 133.0124
0.956716 81.449 132.5428
0.963649 81.370 132.0671
0.970632 81.289 131.5853
0.977666 81.206 131.0976
0.984750 81.121 130.6044
0.991886 81.034 130.1057
0.999074 80.944 129.6021
1.006313 80.853 129.0936
1.013605 80.759 128.5809
1.020950 80.662 128.0641
1.028349 80.563 127.5438
1.035801 80.461 127.0204
1.043306 80.357 126.4944
1.050867 80.249 125.9664
1.058482 80.139 125.4370
1.066152 80.025 124.9065
1.073878 79.908 124.3755
1.081659 79.787 123.8443
1.089498 79.662 123.3127
1.097393 79.532 122.7804
1.105345 79.397 122.2467
1.113355 79.256 121.7106
1.121422 79.109 121.1709
1.129549 78.955 120.6266
1.137734 78.794 120.0767
1.145978 78.627 119.5202
1.154283 78.452 118.9562
1.162647 78.271 118.3839
1.171072 78.084 117.8023
1.179558 77.891 117.2105
1.188106 77.692 116.6075
1.196715 77.488 115.9922
1.205387 77.279 115.3635
1.214122 77.065 114.7201
1.222920 76.847 114.0606
1.231781 76.625 113.3837
1.240708 76.400 112.6878
1.249698 76.171 111.9712
1.258754 75.941 111.2321
1.267875 75.708 110.4685
1.277063 75.473 109.6782
1.286317 75.238 108.8589
1.295638 75.003 108.0081
1.305027 74.768 107.1231
1.314484 74.533 106.2009
1.324009 74.301 105.2382
1.333603 74.070 104.2315
1.343267 73.843 103.1771
1.353001 73.619 102.0710
1.362805 73.400 100.9086
1.372681 73.186 99.6854
1.382628 72.978 98.3962
1.392647 72.778 97.0359
1.402739 72.585 95.5987
1.412904 72.401 94.0786
1.423142 72.227 92.4696
1.433455 72.064 90.7649
1.443842 71.911 88.9577
1.454305 71.770 87.0401
1.464843 71.639 85.0031
1.475458 71.519 82.8364
1.486150 71.408 80.5279
1.496919 71.307 78.0640
1.507766 71.214 75.4300
1.518692 71.128 72.6111
1.529697 71.051 69.5921
1.540782 70.982 66.3592
1.551947 70.920 62.9009
1.563193 70.865 59.2090
1.574521 70.818 55.2808
1.585931 70.779 51.1210
1.597423 70.748 46.7431
1.608998 70.723 42.1715
1.620658 70.707 37.4414
1.632402 70.698 32.5987
1.644231 70.697 27.6974
1.656146 70.703 22.7967
1.668147 70.717 17.9556
1.680235 70.739 13.2294
1.692410 70.768 8.6658
1.704674 70.805 4.3019
1.717027 70.849 0.1640
1.729469 70.901 -3.7327
1.742002 70.960 -7.3823
1.754625 71.028 -10.7865
1.767340 71.103 -13.9534
1.780147 71.186 -16.8952
1.793046 71.278 -19.6274
1.806040 71.379 -22.1677
1.819127 71.491 -24.5355
1.832309 71.616 -26.7511
1.845587 71.754 -28.8342
1.858961 71.908 -30.8027
1.872431 72.078 -32.6712
1.886000 72.265 -34.4511
1.899666 72.468 -36.1510
1.913432 72.686 -37.7776
1.927298 72.919 -39.3360
1.941264 73.164 -40.8303
1.955331 73.421 -42.2638
1.969500 73.688 -43.6394
1.983772 73.963 -44.9593
1.998147 74.245 -46.2256
2.012626 74.532 -47.4400
2.027211 74.823 -48.6041
2.041901 75.114 -49.7191
2.056697 75.406 -50.7861
2.071601 75.694 -51.8062
2.086613 75.979 -52.7803
2.101733 76.257 -53.7092
2.116963 76.527 -54.5939
2.132303 76.787 -55.4356
2.147755 77.035 -56.2358
2.163318 77.271 -56.9970
2.178995 77.494 -57.7222
2.194785 77.704 -58.4157
2.210689 77.902 -59.0825
2.226709 78.088 -59.7277
2.242844 78.265 -60.3552
2.259097 78.433 -60.9680
2.275467 78.593 -61.5679
2.291956 78.745 -62.1558
2.308565 78.891 -62.7319
2.325294 79.031 -63.2960
2.342144 79.165 -63.8476
2.359116 79.293 -64.3861
2.376211 79.417 -64.9107
2.393430 79.537 -65.4205
2.410774 79.654 -65.9146
2.428243 79.767 -66.3919
2.445839 79.879 -66.8514
2.463562 79.988 -67.2921
2.481415 80.096 -67.7130
2.499396 80.203 -68.1133
2.517508 80.310 -68.4925
2.535750 80.416 -68.8505
2.554126 80.522 -69.1879
2.572634 80.627 -69.5058
2.591276 80.729 -69.8057
2.610054 80.830 -70.0892
2.628967 80.927 -70.3580
2.648018 81.022 -70.6131
2.667206 81.114 -70.8555
2.686534 81.203 -71.0858
2.706002 81.289 -71.3046
2.725610 81.374 -71.5123
2.745361 81.456 -71.7091
2.765255 81.537 -71.8953
2.785294 81.617 -72.0711
2.805477 81.696 -72.2365
2.825807 81.775 -72.3916
2.846284 81.854 -72.5364
2.866909 81.934 -72.6706
2.887684 82.014 -72.7942
2.908609 82.094 -72.9067
2.929686 82.176 -73.0076
2.950916 82.257 -73.0966
2.972299 82.339 -73.1734
2.993838 82.420 -73.2383
3.015532 82.501 -73.2919
3.037384 82.581 -73.3348
3.059394 82.662 -73.3683
3.081564 82.742 -73.3936
3.103894 82.822 -73.4120
3.126386 82.902 -73.4248
3.149041 82.983 -73.4334
3.171861 83.064 -73.4390
3.194845 83.146 -73.4427
3.217996 83.228 -73.4454
3.241315 83.312 -73.4478
3.264803 83.397 -73.4498
3.288461 83.483 -73.4511
3.312291 83.570 -73.4509
3.336293 83.659 -73.4483
3.360469 83.749 -73.4429
3.384820 83.839 -73.4349
3.409348 83.931 -73.4251
3.434054 84.023 -73.4149
3.458938 84.116 -73.4058
3.484003 84.210 -73.3997
3.509250 84.304 -73.3983
3.534679 84.398 -73.4037
3.560293 84.493 -73.4174
3.586092 84.588 -73.4409
3.612079 84.684 -73.4754
3.638253 84.779 -73.5213
3.664618 84.875 -73.5787
3.691173 84.970 -73.6471
3.717921 85.067 -73.7257
3.744862 85.163 -73.8137
3.771999 85.260 -73.9108
3.799332 85.356 -74.0167
3.826864 85.453 -74.1314
3.854595 85.549 -74.2549
3.882527 85.645 -74.3874
3.910661 85.741 -74.5292
3.938999 85.835 -74.6807
3.967543 85.929 -74.8421
3.996294 86.021 -75.0138
4.025252 86.112 -75.1962
4.054421 86.202 -75.3893
4.083801 86.291 -75.5931
4.113394 86.379 -75.8072
4.143201 86.465 -76.0311
4.173225 86.550 -76.2639
4.203466 86.634 -76.5047
4.233926 86.717 -76.7526
4.264606 86.798 -77.0067
4.295509 86.878 -77.2665
4.326636 86.956 -77.5314
4.357989 87.033 -77.8013
4.389569 87.108 -78.0763
4.421378 87.180 -78.3569
4.453417 87.251 -78.6433
4.485688 87.321 -78.9356
4.518193 87.388 -79.2331
4.550934 87.454 -79.5350
4.583912 87.518 -79.8400
4.617129 87.580 -80.1467
4.650587 87.641 -80.4538
4.684287 87.700 -80.7601
4.718231 87.758 -81.0650
4.752421 87.815 -81.3680
4.786859 87.870 -81.6693
4.821547 87.923 -81.9691
4.856485 87.975 -82.2678
4.891677 88.025 -82.5654
4.927125 88.075 -82.8615
4.962829 88.123 -83.1555
4.998791 88.170 -83.4469
5.035015 88.216 -83.7350
5.071500 88.262 -84.0189
5.108251 88.307 -84.2984
5.145267 88.352 -84.5732
5.182552 88.396 -84.8433
5.220107 88.440 -85.1091
5.257934 88.483 -85.3711
5.296035 88.526 -85.6298
5.334412 88.569 -85.8858
5.373067 88.612 -86.1395
5.412003 88.655 -86.3913
5.451221 88.699 -86.6413
5.490722 88.743 -86.8897
5.530510 88.788 -87.1365
5.570587 88.833 -87.3817
5.610953 88.879 -87.6260
5.651613 88.925 -87.8702
5.692567 88.972 -88.1152
5.733818 89.020 -88.3622
5.775367 89.068 -88.6123
5.817218 89.117 -88.8663
5.859372 89.166 -89.1247
5.901831 89.217 -89.3878
5.944598 89.268 -89.6556
5.987675 89.320 -89.9285
6.031065 89.373 -90.2071
6.074768 89.426 -90.4921
6.118788 89.480 -90.7842
6.163127 89.534 -91.0843
6.207788 89.588 -91.3930
6.252772 89.642 -91.7105
6.298082 89.697 -92.0370
6.343721 89.752 -92.3722
6.389690 89.807 -92.7159
6.435992 89.862 -93.0679
6.482630 89.917 -93.4279
6.529606 89.971 -93.7958
6.576922 90.025 -94.1715
6.624581 90.078 -94.5550
6.672585 90.131 -94.9461
6.720938 90.184 -95.3443
6.769640 90.236 -95.7489
6.818696 90.287 -96.1591
6.868107 90.338 -96.5739
6.917876 90.388 -96.9926
6.968006 90.437 -97.4148
7.018499 90.486 -97.8400
7.069358 90.534 -98.2681
7.120586 90.581 -98.6982
7.172184 90.628 -99.1296
7.224157 90.674 -99.5615
7.276506 90.720 -99.9929
7.329235 90.766 -100.4233
7.382345 90.811 -100.8523
7.435841 90.856 -101.2797
7.489724 90.900 -101.7054
7.543997 90.945 -102.1291
7.598664 90.990 -102.5505
7.653728 91.034 -102.9692
7.709189 91.080 -103.3853
7.765053 91.125 -103.7985
7.821322 91.171 -104.2090
7.877998 91.217 -104.6172
7.935086 91.264 -105.0233
7.992587 91.312 -105.4276
8.050504 91.360 -105.8305
8.108841 91.409 -106.2321
8.167601 91.458 -106.6327
8.226787 91.509 -107.0327
8.286402 91.559 -107.4325
8.346449 91.611 -107.8326
8.406931 91.663 -108.2333
8.467851 91.716 -108.6351
8.529212 91.769 -109.0380
8.591018 91.823 -109.4421
8.653272 91.877 -109.8477
8.715977 91.932 -110.2547
8.779137 91.987 -110.6633
8.842754 92.041 -111.0735
8.906833 92.096 -111.4851
8.971375 92.151 -111.8979
9.036386 92.206 -112.3114
9.101867 92.260 -112.7255
9.167823 92.315 -113.1396
9.234257 92.369 -113.5536
9.301172 92.422 -113.9670
9.368572 92.475 -114.3794
9.436460 92.528 -114.7902
9.504841 92.581 -115.1989
9.573717 92.633 -115.6051
9.643092 92.684 -116.0086
9.712970 92.735 -116.4090
9.783354 92.786 -116.8059
9.854248 92.836 -117.1992
9.925656 92.886 -117.5886
9.997581 92.935 -117.9739
10.070028 92.985 -118.3552
10.143000 93.034 -118.7326
10.216500 93.082 -119.1060
10.290533 93.131 -119.4755
10.365103 93.179 -119.8414
10.440212 93.227 -120.2038
10.515866 93.274 -120.5631
10.592069 93.322 -120.9194
10.668823 93.369 -121.2731
10.746134 93.415 -121.6245
10.824005 93.462 -121.9737
10.902440 93.508 -122.3211
10.981443 93.553 -122.6669
11.061020 93.599 -123.0113
11.141172 93.643 -123.3546
11.221906 93.688 -123.6968
11.303225 93.731 -124.0382
11.385133 93.774 -124.3787
11.467634 93.816 -124.7186
11.550734 93.858 -125.0578
11.634435 93.899 -125.3964
11.718742 93.939 -125.7345
11.803661 93.978 -126.0720
11.889195 94.016 -126.4090
11.975349 94.054 -126.7456
12.062128 94.091 -127.0817
12.149535 94.127 -127.4175
12.237576 94.162 -127.7529
12.326254 94.196 -128.0881
12.415575 94.230 -128.4232
12.505544 94.263 -128.7582
12.596164 94.295 -129.0933
12.687441 94.326 -129.4286
12.779379 94.356 -129.7641
12.871984 94.386 -130.1002
12.965260 94.415 -130.4368
13.059211 94.443 -130.7741
13.153843 94.471 -131.1123
13.249161 94.498 -131.4516
13.345170 94.525 -131.7920
13.441875 94.550 -132.1339
13.539280 94.576 -132.4773
13.637391 94.600 -132.8224
13.736214 94.625 -133.1695
13.835752 94.649 -133.5188
13.936011 94.672 -133.8704
14.036998 94.695 -134.2246
14.138716 94.718 -134.5815
14.241171 94.740 -134.9413
14.344368 94.762 -135.3042
14.448313 94.784 -135.6700
14.553011 94.805 -136.0390
14.658468 94.826 -136.4111
14.764689 94.846 -136.7863
14.871680 94.867 -137.1643
14.979446 94.887 -137.5450
15.087994 94.906 -137.9283
15.197328 94.926 -138.3138
15.307454 94.945 -138.7012
15.418378 94.964 -139.0903
15.530106 94.983 -139.4808
15.642643 95.002 -139.8725
15.755996 95.021 -140.2651
15.870171 95.039 -140.6583
15.985172 95.058 -141.0521
16.101007 95.077 -141.4463
16.217682 95.096 -141.8409
16.335201 95.115 -142.2357
16.453573 95.135 -142.6307
16.572803 95.154 -143.0258
16.692898 95.174 -143.4210
16.813862 95.194 -143.8161
16.935701 95.214 -144.2109
17.058424 95.234 -144.6051
17.182035 95.254 -144.9986
17.306543 95.274 -145.3910
17.431953 95.294 -145.7819
17.558273 95.314 -146.1710
17.685509 95.334 -146.5580
17.813665 95.353 -146.9424
17.942751 95.373 -147.3240
18.072771 95.393 -147.7026
18.203733 95.412 -148.0781
18.335646 95.431 -148.4503
18.468513 95.450 -148.8194
18.602345 95.469 -149.1853
18.737144 95.488 -149.5482
18.872921 95.507 -149.9082
19.009682 95.525 -150.2656
19.147434 95.543 -150.6204
19.286184 95.560 -150.9728
19.425940 95.577 -151.3229
19.566708 95.594 -151.6708
19.708496 95.610 -152.0165
19.851313 95.625 -152.3600
19.995163 95.639 -152.7013
20.140057 95.653 -153.0404
20.285999 95.666 -153.3775
20.433001 95.678 -153.7126
20.581066 95.690 -154.0458
20.730206 95.701 -154.3774
20.880424 95.711 -154.7076
21.031733 95.721 -155.0367
21.184137 95.730 -155.3651
21.337646 95.738 -155.6931
21.492268 95.746 -156.0212
21.648010 95.753 -156.3497
21.804880 95.759 -156.6789
21.962887 95.765 -157.0091
22.122040 95.771 -157.3406
22.282345 95.776 -157.6735
22.443811 95.780 -158.0081
22.606449 95.784 -158.3444
22.770266 95.788 -158.6826
22.935268 95.791 -159.0226
23.101467 95.794 -159.3644
23.268869 95.796 -159.7082
23.437485 95.798 -160.0538
23.607323 95.801 -160.4014
23.778391 95.803 -160.7507
23.950699 95.805 -161.1019
24.124256 95.806 -161.4547
24.299070 95.808 -161.8091
24.475151 95.810 -162.1647
24.652508 95.812 -162.5212
24.831150 95.813 -162.8782
25.011087 95.815 -163.2353
25.192327 95.816 -163.5919
25.374882 95.818 -163.9475
25.558758 95.820 -164.3017
25.743967 95.821 -164.6539
25.930519 95.823 -165.0040
26.118422 95.825 -165.3515
26.307686 95.826 -165.6964
26.498322 95.828 -166.0387
26.690340 95.830 -166.3784
26.883749 95.832 -166.7156
27.078560 95.834 -167.0504
27.274782 95.836 -167.3830
27.472427 95.838 -167.7133
27.671503 95.839 -168.0415
27.872023 95.840 -168.3674
28.073996 95.841 -168.6911
28.277431 95.841 -169.0125
28.482342 95.841 -169.3316
28.688736 95.840 -169.6484
28.896626 95.838 -169.9631
29.106022 95.836 -170.2757
29.316936 95.833 -170.5866
29.529379 95.830 -170.8961
29.743361 95.826 -171.2046
29.958893 95.822 -171.5125
30.175987 95.817 -171.8202
30.394655 95.812 -172.1279
30.614908 95.806 -172.4361
30.836756 95.800 -172.7449
31.060211 95.793 -173.0544
31.285286 95.786 -173.3645
31.511992 95.778 -173.6755
31.740341 95.770 -173.9875
31.970345 95.762 -174.3005
32.202015 95.754 -174.6149
32.435364 95.745 -174.9310
32.670403 95.737 -175.2490
32.907146 95.728 -175.5692
33.145607 95.720 -175.8913
33.385796 95.711 -176.2150
33.627724 95.702 -176.5397
33.871403 95.692 -176.8647
34.116848 95.682 -177.1891
34.364071 95.672 -177.5123
34.613087 95.662 -177.8337
34.863907 95.652 -178.1531
35.116547 95.641 -178.4701
35.371017 95.630 -178.7847
35.627331 95.619 -179.0968
35.885502 95.608 -179.4060
36.145542 95.596 -179.7122
36.407467 95.585 179.9847
36.671291 95.573 179.6844
36.937027 95.561 179.3865
37.204689 95.548 179.0904
37.474289 95.536 178.7950
37.745842 95.523 178.5001
38.019363 95.509 178.2052
38.294868 95.495 177.9108
38.572369 95.480 177.6179
38.851879 95.465 177.3275
39.133415 95.448 177.0406
39.416992 95.432 176.7576
39.702625 95.415 176.4783
39.990326 95.398 176.2017
40.280113 95.382 175.9265
40.571999 95.365 175.6516
40.866001 95.349 175.3760
41.162132 95.332 175.0998
41.460411 95.316 174.8232
41.760849 95.299 174.5469
42.063465 95.282 174.2714
42.368275 95.265 173.9968
42.675293 95.248 173.7230
42.984535 95.231 173.4494
43.296021 95.213 173.1758
43.609760 95.196 172.9022
43.925774 95.178 172.6287
44.244080 95.160 172.3555
44.564690 95.141 172.0832
44.887623 95.121 171.8119
45.212898 95.102 171.5416
45.540531 95.081 171.2726
45.870537 95.060 171.0053
46.202934 95.039 170.7401
46.537739 95.017 170.4772
46.874969 94.994 170.2167
47.214645 94.972 169.9583
47.556782 94.949 169.7013
47.901398 94.926 169.4450
48.248512 94.903 169.1891
48.598141 94.879 168.9337
48.950302 94.855 168.6791
49.305016 94.831 168.4263
49.662300 94.807 168.1757
50.022175 94.782 167.9276
50.384655 94.757 167.6820
50.749763 94.732 167.4389
51.117516 94.707 167.1980
51.487934 94.682 166.9592
51.861038 94.656 166.7224
52.236843 94.630 166.4875
52.615372 94.605 166.2549
52.996643 94.578 166.0249
53.380680 94.552 165.7977
53.767498 94.525 165.5735
54.157120 94.499 165.3519
54.549564 94.473 165.1320
54.944855 94.447 164.9128
55.343006 94.421 164.6933
55.744045 94.396 164.4727
56.147991 94.370 164.2505
56.554863 94.345 164.0265
56.964684 94.320 163.8004
57.377472 94.295 163.5719
57.793251 94.270 163.3409
58.212044 94.244 163.1074
58.633873 94.218 162.8721
59.058758 94.191 162.6356
59.486721 94.164 162.3989
59.917786 94.136 162.1630
60.351974 94.107 161.9289
60.789310 94.077 161.6970
61.229816 94.047 161.4673
61.673512 94.015 161.2401
62.120422 93.984 161.0151
62.570572 93.952 160.7924
63.023983 93.919 160.5718
63.480682 93.886 160.3535
63.940689 93.852 160.1374
64.404030 93.818 159.9236
64.870728 93.783 159.7124
65.340805 93.749 159.5040
65.814293 93.713 159.2987
66.291214 93.678 159.0962
66.771591 93.643 158.8965
67.255447 93.607 158.6994
67.742805 93.571 158.5045
68.233696 93.535 158.3108
68.728142 93.499 158.1173
69.226173 93.462 157.9233
69.727814 93.425 157.7294
70.233093 93.388 157.5364
70.742035 93.349 157.3453
71.254662 93.311 157.1567
71.771004 93.272 156.9704
72.291084 93.233 156.7866
72.814934 93.194 156.6054
73.342583 93.155 156.4268
73.874054 93.116 156.2509
74.409378 93.076 156.0780
74.948578 93.036 155.9077
75.491684 92.996 155.7387
76.038727 92.956 155.5695
76.589737 92.915 155.3999
77.144737 92.872 155.2319
77.703758 92.829 155.0676
78.266830 92.785 154.9080
78.833984 92.740 154.7516
79.405251 92.695 154.5967
79.980652 92.650 154.4417
80.560226 92.604 154.2857
81.143997 92.557 154.1290
81.732002 92.510 153.9724
82.324265 92.460 153.8185
82.920822 92.409 153.6707
83.521698 92.356 153.5331
84.126930 92.302 153.4089
84.736549 92.246 153.3007
85.350586 92.189 153.2101
85.969070 92.131 153.1384
86.592041 92.073 153.0869
87.219521 92.016 153.0561
