* Measurement data measured by REW V5.31
* Source: EXCL: Microphone (USB Sound Device        ), MICROPHONE (Master Volume), L, volume: 0.390
* Format: 256k Log Swept Sine, 1 sweep at -10.0 dBFS with no timing reference
* Dated: Sep 26, 2024 12:05:10 AM
* REW Settings:
*  C-weighting compensation: Off
*  Target level: 75.0 dB
* Note: Kiwi Ears KE4 R
* Measurement: R  Kiwi Ears KE4
* Smoothing: 1/12 octave
* Frequency Step: 96 ppo
* Start Frequency: 0.36621094 Hz
*
* Freq(Hz)	SPL(dB)	Phase(degrees)
0.366211	88.453	-65.4651
0.368865	88.459	-65.5464
0.371538	88.467	-65.6681
0.374230	88.478	-65.8208
0.376942	88.489	-65.9962
0.379673	88.502	-66.1885
0.382424	88.515	-66.3936
0.385196	88.528	-66.6093
0.387987	88.542	-66.8341
0.390798	88.556	-67.0672
0.393630	88.570	-67.3083
0.396483	88.584	-67.5572
0.399356	88.598	-67.8138
0.402250	88.612	-68.0781
0.405165	88.626	-68.3502
0.408101	88.641	-68.6300
0.411058	88.655	-68.9177
0.414037	88.670	-69.2131
0.417037	88.685	-69.5164
0.420059	88.700	-69.8276
0.423103	88.715	-70.1467
0.426169	88.730	-70.4737
0.429257	88.745	-70.8087
0.432368	88.760	-71.1517
0.435501	88.776	-71.5026
0.438656	88.791	-71.8614
0.441835	88.807	-72.2283
0.445037	88.823	-72.6031
0.448262	88.839	-72.9858
0.451510	88.855	-73.3764
0.454782	88.871	-73.7749
0.458077	88.887	-74.1813
0.461397	88.903	-74.5955
0.464740	88.920	-75.0175
0.468108	88.936	-75.4472
0.471500	88.953	-75.8846
0.474917	88.970	-76.3296
0.478358	88.987	-76.7821
0.481825	89.004	-77.2420
0.485316	89.021	-77.7093
0.488833	89.038	-78.1839
0.492375	89.056	-78.6657
0.495943	89.073	-79.1545
0.499537	89.091	-79.6502
0.503157	89.109	-80.1528
0.506803	89.127	-80.6621
0.510475	89.145	-81.1780
0.514175	89.163	-81.7003
0.517900	89.181	-82.2289
0.521653	89.200	-82.7636
0.525434	89.219	-83.3043
0.529241	89.237	-83.8508
0.533076	89.256	-84.4029
0.536939	89.275	-84.9605
0.540830	89.294	-85.5234
0.544749	89.314	-86.0913
0.548696	89.333	-86.6642
0.552673	89.353	-87.2418
0.556677	89.372	-87.8239
0.560711	89.392	-88.4104
0.564774	89.412	-89.0009
0.568867	89.432	-89.5954
0.572989	89.453	-90.1937
0.577141	89.473	-90.7954
0.581324	89.494	-91.4005
0.585536	89.514	-92.0086
0.589779	89.535	-92.6197
0.594053	89.556	-93.2335
0.598358	89.578	-93.8498
0.602694	89.599	-94.4685
0.607061	89.620	-95.0892
0.611460	89.642	-95.7119
0.615891	89.664	-96.3364
0.620354	89.686	-96.9625
0.624849	89.708	-97.5900
0.629377	89.730	-98.2188
0.633938	89.753	-98.8487
0.638532	89.775	-99.4795
0.643159	89.798	-100.1112
0.647819	89.821	-100.7435
0.652514	89.844	-101.3764
0.657242	89.868	-102.0098
0.662005	89.891	-102.6436
0.666802	89.915	-103.2777
0.671634	89.938	-103.9120
0.676501	89.962	-104.5464
0.681403	89.986	-105.1810
0.686341	90.011	-105.8156
0.691314	90.035	-106.4504
0.696324	90.060	-107.0853
0.701370	90.085	-107.7205
0.706452	90.110	-108.3561
0.711571	90.135	-108.9924
0.716728	90.161	-109.6300
0.721921	90.186	-110.2695
0.727153	90.213	-110.9120
0.732422	90.239	-111.5589
0.737729	90.266	-112.2118
0.743075	90.293	-112.8722
0.748460	90.320	-113.5412
0.753883	90.348	-114.2196
0.759346	90.377	-114.9078
0.764849	90.405	-115.6060
0.770391	90.434	-116.3139
0.775974	90.463	-117.0314
0.781597	90.493	-117.7583
0.787261	90.523	-118.4942
0.792966	90.553	-119.2387
0.798712	90.583	-119.9914
0.804500	90.614	-120.7520
0.810329	90.645	-121.5201
0.816201	90.677	-122.2951
0.822116	90.708	-123.0767
0.828073	90.740	-123.8644
0.834074	90.773	-124.6578
0.840118	90.805	-125.4564
0.846206	90.838	-126.2597
0.852338	90.871	-127.0673
0.858514	90.905	-127.8787
0.864735	90.938	-128.6935
0.871001	90.972	-129.5112
0.877313	91.007	-130.3313
0.883670	91.041	-131.1534
0.890074	91.076	-131.9771
0.896524	91.111	-132.8018
0.903020	91.146	-133.6273
0.909564	91.181	-134.4530
0.916155	91.217	-135.2786
0.922794	91.252	-136.1038
0.929481	91.288	-136.9280
0.936216	91.324	-137.7511
0.943000	91.361	-138.5726
0.949834	91.397	-139.3922
0.956717	91.434	-140.2097
0.963649	91.471	-141.0249
0.970632	91.507	-141.8374
0.977666	91.544	-142.6470
0.984750	91.581	-143.4536
0.991886	91.619	-144.2569
0.999074	91.656	-145.0569
1.006314	91.693	-145.8534
1.013606	91.730	-146.6464
1.020951	91.768	-147.4357
1.028349	91.805	-148.2214
1.035801	91.842	-149.0036
1.043307	91.880	-149.7822
1.050867	91.917	-150.5574
1.058482	91.954	-151.3297
1.066152	91.991	-152.0993
1.073878	92.028	-152.8670
1.081660	92.065	-153.6339
1.089498	92.102	-154.4016
1.097393	92.139	-155.1722
1.105345	92.176	-155.9481
1.113355	92.213	-156.7317
1.121423	92.250	-157.5251
1.129549	92.287	-158.3296
1.137734	92.324	-159.1462
1.145979	92.362	-159.9754
1.154283	92.399	-160.8171
1.162647	92.436	-161.6715
1.171072	92.474	-162.5381
1.179558	92.512	-163.4168
1.188106	92.549	-164.3071
1.196715	92.587	-165.2085
1.205387	92.625	-166.1205
1.214122	92.663	-167.0426
1.222920	92.701	-167.9741
1.231782	92.739	-168.9144
1.240708	92.776	-169.8628
1.249699	92.814	-170.8185
1.258754	92.852	-171.7807
1.267876	92.890	-172.7486
1.277063	92.928	-173.7212
1.286318	92.965	-174.6976
1.295639	93.003	-175.6769
1.305027	93.040	-176.6581
1.314484	93.078	-177.6401
1.324009	93.115	-178.6218
1.333604	93.152	-179.6022
1.343268	93.189	179.4199
1.353002	93.225	178.4456
1.362806	93.262	177.4761
1.372681	93.298	176.5125
1.382628	93.334	175.5560
1.392647	93.369	174.6075
1.402739	93.404	173.6683
1.412904	93.439	172.7390
1.423142	93.474	171.8203
1.433455	93.508	170.9124
1.443843	93.542	170.0146
1.454305	93.575	169.1256
1.464844	93.608	168.2432
1.475459	93.641	167.3642
1.486150	93.673	166.4855
1.496920	93.705	165.6045
1.507767	93.736	164.7191
1.518693	93.768	163.8284
1.529698	93.798	162.9316
1.540783	93.829	162.0286
1.551948	93.859	161.1196
1.563194	93.889	160.2048
1.574521	93.918	159.2846
1.585931	93.947	158.3595
1.597423	93.975	157.4301
1.608999	94.003	156.4970
1.620658	94.030	155.5608
1.632402	94.057	154.6223
1.644232	94.084	153.6821
1.656146	94.110	152.7411
1.668147	94.135	151.8001
1.680235	94.160	150.8599
1.692411	94.184	149.9214
1.704675	94.207	148.9857
1.717028	94.230	148.0534
1.729470	94.252	147.1257
1.742003	94.274	146.2034
1.754626	94.294	145.2874
1.767341	94.314	144.3783
1.780147	94.333	143.4767
1.793047	94.352	142.5827
1.806040	94.369	141.6956
1.819128	94.386	140.8140
1.832310	94.402	139.9357
1.845587	94.417	139.0575
1.858961	94.430	138.1765
1.872432	94.443	137.2903
1.886001	94.455	136.3971
1.899667	94.466	135.4960
1.913433	94.476	134.5868
1.927299	94.485	133.6696
1.941265	94.493	132.7449
1.955332	94.500	131.8135
1.969501	94.506	130.8764
1.983773	94.511	129.9347
1.998148	94.514	128.9897
2.012627	94.517	128.0428
2.027212	94.519	127.0957
2.041902	94.520	126.1501
2.056698	94.519	125.2078
2.071602	94.518	124.2709
2.086614	94.515	123.3414
2.101734	94.512	122.4214
2.116964	94.507	121.5132
2.132304	94.502	120.6187
2.147756	94.495	119.7395
2.163320	94.487	118.8767
2.178996	94.478	118.0305
2.194786	94.467	117.1998
2.210690	94.455	116.3827
2.226710	94.442	115.5763
2.242845	94.426	114.7782
2.259098	94.409	113.9864
2.275468	94.391	113.1994
2.291957	94.370	112.4166
2.308566	94.349	111.6378
2.325295	94.325	110.8630
2.342145	94.300	110.0928
2.359117	94.274	109.3280
2.376212	94.247	108.5695
2.393431	94.219	107.8185
2.410775	94.190	107.0766
2.428244	94.160	106.3454
2.445840	94.129	105.6267
2.463564	94.098	104.9227
2.481416	94.067	104.2355
2.499397	94.035	103.5677
2.517509	94.003	102.9213
2.535752	93.971	102.2987
2.554127	93.938	101.7015
2.572635	93.905	101.1310
2.591277	93.870	100.5875
2.610055	93.834	100.0710
2.628968	93.797	99.5807
2.648019	93.759	99.1158
2.667208	93.719	98.6754
2.686535	93.679	98.2583
2.706003	93.638	97.8638
2.725612	93.597	97.4907
2.745363	93.556	97.1383
2.765257	93.516	96.8058
2.785295	93.478	96.4929
2.805478	93.441	96.1993
2.825808	93.406	95.9255
2.846285	93.374	95.6730
2.866910	93.346	95.4445
2.887685	93.320	95.2439
2.908611	93.298	95.0768
2.929688	93.280	94.9476
2.950917	93.265	94.8580
2.972301	93.253	94.8031
2.993839	93.244	94.7750
3.015534	93.239	94.7657
3.037386	93.236	94.7686
3.059396	93.236	94.7787
3.081565	93.240	94.7925
3.103896	93.247	94.8078
3.126388	93.258	94.8226
3.149043	93.273	94.8355
3.171862	93.292	94.8455
3.194847	93.316	94.8515
3.217998	93.344	94.8530
3.241317	93.377	94.8496
3.264805	93.416	94.8412
3.288463	93.460	94.8285
3.312293	93.511	94.8121
3.336295	93.568	94.7933
3.360471	93.631	94.7729
3.384822	93.700	94.7516
3.409350	93.776	94.7293
3.434056	93.856	94.7060
3.458940	93.941	94.6810
3.484005	94.030	94.6534
3.509252	94.123	94.6217
3.534681	94.218	94.5837
3.560295	94.315	94.5359
3.586094	94.413	94.4733
3.612081	94.512	94.3892
3.638255	94.613	94.2753
3.664620	94.714	94.1236
3.691175	94.817	93.9290
3.717923	94.922	93.6919
3.744864	95.028	93.4163
3.772001	95.136	93.1069
3.799335	95.246	92.7682
3.826866	95.356	92.4037
3.854597	95.467	92.0158
3.882529	95.577	91.6063
3.910664	95.686	91.1760
3.939002	95.793	90.7253
3.967546	95.898	90.2540
3.996296	96.001	89.7611
4.025255	96.100	89.2454
4.054423	96.197	88.7058
4.083804	96.291	88.1418
4.113396	96.383	87.5543
4.143204	96.472	86.9453
4.173227	96.559	86.3179
4.203468	96.643	85.6758
4.233928	96.724	85.0228
4.264609	96.802	84.3624
4.295512	96.877	83.6976
4.326639	96.948	83.0305
4.357992	97.016	82.3616
4.389572	97.079	81.6903
4.421380	97.139	81.0147
4.453419	97.195	80.3332
4.485691	97.247	79.6452
4.518196	97.294	78.9517
4.550936	97.338	78.2553
4.583914	97.379	77.5597
4.617131	97.416	76.8691
4.650589	97.450	76.1879
4.684289	97.480	75.5198
4.718233	97.507	74.8675
4.752424	97.532	74.2322
4.786862	97.552	73.6136
4.821549	97.570	73.0107
4.856488	97.584	72.4223
4.891680	97.595	71.8485
4.927127	97.603	71.2900
4.962831	97.609	70.7485
4.998794	97.613	70.2266
5.035017	97.616	69.7267
5.071503	97.618	69.2516
5.108253	97.619	68.8033
5.145270	97.620	68.3835
5.182555	97.620	67.9922
5.220110	97.620	67.6290
5.257937	97.619	67.2925
5.296038	97.619	66.9808
5.334415	97.619	66.6922
5.373071	97.621	66.4250
5.412006	97.624	66.1778
5.451224	97.630	65.9503
5.490725	97.639	65.7424
5.530514	97.652	65.5544
5.570590	97.667	65.3859
5.610957	97.685	65.2354
5.651616	97.706	65.0995
5.692570	97.731	64.9740
5.733821	97.758	64.8542
5.775370	97.789	64.7357
5.817221	97.824	64.6147
5.859375	97.862	64.4890
5.901834	97.904	64.3577
5.944602	97.949	64.2201
5.987679	97.998	64.0750
6.031068	98.050	63.9206
6.074771	98.104	63.7539
6.118792	98.159	63.5721
6.163131	98.216	63.3720
6.207792	98.274	63.1516
6.252776	98.332	62.9096
6.298086	98.391	62.6461
6.343725	98.450	62.3618
6.389694	98.509	62.0580
6.435996	98.567	61.7359
6.482634	98.624	61.3969
6.529610	98.679	61.0415
6.576926	98.731	60.6702
6.624585	98.782	60.2834
6.672590	98.829	59.8817
6.720942	98.874	59.4670
6.769645	98.915	59.0421
6.818700	98.954	58.6103
6.868111	98.989	58.1750
6.917881	99.021	57.7390
6.968010	99.050	57.3044
7.018504	99.075	56.8721
7.069362	99.097	56.4435
7.120590	99.115	56.0202
7.172189	99.131	55.6049
7.224161	99.144	55.2004
7.276511	99.154	54.8096
7.329239	99.162	54.4344
7.382350	99.169	54.0760
7.435845	99.174	53.7347
7.489729	99.177	53.4106
7.544002	99.180	53.1037
7.598669	99.182	52.8139
7.653732	99.185	52.5415
7.709194	99.188	52.2864
7.765058	99.192	52.0482
7.821327	99.197	51.8256
7.878004	99.204	51.6163
7.935091	99.212	51.4176
7.992592	99.221	51.2269
8.050510	99.233	51.0418
8.108847	99.247	50.8605
8.167607	99.263	50.6812
8.226793	99.281	50.5016
8.286408	99.301	50.3190
8.346454	99.323	50.1307
8.406936	99.346	49.9342
8.467856	99.370	49.7278
8.529218	99.395	49.5106
8.591024	99.421	49.2819
8.653278	99.447	49.0414
8.715983	99.473	48.7888
8.779143	99.498	48.5240
8.842760	99.522	48.2469
8.906839	99.545	47.9586
8.971381	99.567	47.6602
9.036392	99.587	47.3536
9.101873	99.605	47.0407
9.167829	99.622	46.7232
9.234263	99.636	46.4026
9.301178	99.648	46.0804
9.368578	99.659	45.7585
9.436467	99.667	45.4390
9.504847	99.674	45.1237
9.573723	99.679	44.8140
9.643099	99.683	44.5108
9.712976	99.684	44.2147
9.783361	99.684	43.9262
9.854255	99.681	43.6456
9.925663	99.676	43.3730
9.997588	99.669	43.1079
10.070035	99.660	42.8497
10.143007	99.649	42.5971
10.216507	99.638	42.3489
10.290540	99.625	42.1039
10.365109	99.613	41.8609
10.440219	99.601	41.6186
10.515873	99.588	41.3757
10.592076	99.576	41.1310
10.668830	99.565	40.8834
10.746141	99.553	40.6323
10.824012	99.542	40.3773
10.902447	99.531	40.1183
10.981451	99.520	39.8553
11.061027	99.509	39.5884
11.141180	99.498	39.3183
11.221913	99.486	39.0457
11.303232	99.473	38.7714
11.385140	99.460	38.4963
11.467641	99.447	38.2213
11.550741	99.433	37.9471
11.634442	99.419	37.6744
11.718750	99.406	37.4039
11.803669	99.392	37.1358
11.889203	99.379	36.8704
11.975357	99.367	36.6076
12.062136	99.355	36.3471
12.149543	99.343	36.0886
12.237583	99.333	35.8316
12.326262	99.323	35.5757
12.415583	99.313	35.3201
12.505552	99.304	35.0646
12.596172	99.295	34.8087
12.687449	99.286	34.5524
12.779387	99.277	34.2956
12.871992	99.268	34.0385
12.965268	99.259	33.7815
13.059220	99.249	33.5254
13.153852	99.240	33.2707
13.249170	99.230	33.0184
13.345179	99.220	32.7693
13.441884	99.210	32.5240
13.539289	99.201	32.2831
13.637401	99.192	32.0472
13.736223	99.182	31.8164
13.835761	99.174	31.5905
13.936021	99.165	31.3691
14.037007	99.158	31.1516
14.138725	99.150	30.9372
14.241180	99.143	30.7249
14.344377	99.137	30.5135
14.448323	99.131	30.3024
14.553021	99.125	30.0905
14.658478	99.120	29.8773
14.764700	99.114	29.6626
14.871691	99.108	29.4463
14.979457	99.102	29.2289
15.088005	99.095	29.0110
15.197339	99.088	28.7935
15.307465	99.080	28.5775
15.418389	99.072	28.3641
15.530117	99.063	28.1543
15.642655	99.053	27.9489
15.756008	99.042	27.7485
15.870182	99.032	27.5533
15.985184	99.021	27.3632
16.101019	99.010	27.1774
16.217694	99.000	26.9952
16.335214	98.989	26.8156
16.453586	98.980	26.6372
16.572815	98.970	26.4587
16.692909	98.961	26.2793
16.813872	98.953	26.0979
16.935713	98.944	25.9140
17.058436	98.936	25.7275
17.182048	98.927	25.5387
17.306556	98.918	25.3479
17.431967	98.909	25.1561
17.558286	98.899	24.9639
17.685521	98.888	24.7723
17.813677	98.876	24.5822
17.942762	98.864	24.3938
18.072783	98.852	24.2078
18.203746	98.840	24.0239
18.335658	98.827	23.8420
18.468526	98.815	23.6617
18.602356	98.803	23.4825
18.737156	98.791	23.3039
18.872934	98.779	23.1254
19.009695	98.768	22.9467
19.147447	98.758	22.7677
19.286197	98.747	22.5884
19.425953	98.737	22.4089
19.566721	98.727	22.2296
19.708510	98.717	22.0506
19.851326	98.707	21.8719
19.995177	98.698	21.6936
20.140070	98.688	21.5156
20.286013	98.679	21.3374
20.433014	98.671	21.1589
20.581080	98.662	20.9798
20.730219	98.654	20.7999
20.880439	98.647	20.6191
21.031747	98.639	20.4380
21.184152	98.632	20.2567
21.337661	98.624	20.0759
21.492282	98.617	19.8962
21.648024	98.611	19.7183
21.804895	98.604	19.5424
21.962902	98.598	19.3687
22.122054	98.591	19.1970
22.282360	98.585	19.0272
22.443827	98.579	18.8588
22.606464	98.573	18.6913
22.770280	98.567	18.5244
22.935283	98.561	18.3581
23.101481	98.555	18.1926
23.268884	98.548	18.0285
23.437500	98.541	17.8663
23.607338	98.532	17.7069
23.778406	98.524	17.5508
23.950714	98.515	17.3984
24.124271	98.505	17.2499
24.299086	98.495	17.1049
24.475167	98.485	16.9629
24.652524	98.474	16.8231
24.831166	98.464	16.6851
25.011103	98.453	16.5482
25.192344	98.442	16.4121
25.374898	98.431	16.2769
25.558775	98.419	16.1426
25.743984	98.407	16.0095
25.930536	98.394	15.8782
26.118439	98.381	15.7487
26.307704	98.367	15.6211
26.498341	98.354	15.4952
26.690359	98.340	15.3708
26.883768	98.326	15.2478
27.078579	98.312	15.1260
27.274801	98.298	15.0054
27.472446	98.284	14.8862
27.671522	98.269	14.7688
27.872042	98.255	14.6534
28.074014	98.241	14.5405
28.277450	98.226	14.4301
28.482360	98.213	14.3223
28.688755	98.199	14.2170
28.896645	98.187	14.1140
29.106042	98.175	14.0125
29.316957	98.164	13.9121
29.529400	98.153	13.8120
29.743382	98.144	13.7112
29.958915	98.136	13.6086
30.176009	98.129	13.5032
30.394677	98.122	13.3938
30.614929	98.117	13.2798
30.836778	98.111	13.1611
31.060234	98.105	13.0378
31.285309	98.100	12.9107
31.512015	98.093	12.7810
31.740364	98.086	12.6499
31.970368	98.079	12.5187
32.202039	98.071	12.3882
32.435388	98.062	12.2592
32.670428	98.053	12.1320
32.907171	98.043	12.0068
33.145630	98.032	11.8842
33.385817	98.021	11.7643
33.627745	98.009	11.6481
33.871425	97.997	11.5358
34.116871	97.985	11.4282
34.364096	97.972	11.3253
34.613113	97.960	11.2268
34.863934	97.947	11.1320
35.116572	97.935	11.0399
35.371041	97.923	10.9490
35.627354	97.912	10.8579
35.885525	97.901	10.7654
36.145566	97.891	10.6700
36.407492	97.880	10.5708
36.671316	97.870	10.4670
36.937051	97.859	10.3588
37.204712	97.848	10.2463
37.474313	97.837	10.1307
37.745867	97.824	10.0132
38.019389	97.812	9.8951
38.294893	97.798	9.7777
38.572394	97.784	9.6621
38.851905	97.770	9.5487
39.133442	97.755	9.4379
39.417019	97.741	9.3296
39.702651	97.726	9.2235
39.990353	97.711	9.1195
40.280140	97.696	9.0173
40.572026	97.680	8.9169
40.866028	97.665	8.8181
41.162160	97.649	8.7211
41.460438	97.633	8.6263
41.760877	97.617	8.5341
42.063494	97.601	8.4446
42.368303	97.584	8.3579
42.675322	97.567	8.2739
42.984565	97.550	8.1923
43.296048	97.533	8.1126
43.609789	97.516	8.0347
43.925804	97.499	7.9584
44.244108	97.481	7.8835
44.564719	97.463	7.8102
44.887654	97.446	7.7383
45.212928	97.428	7.6679
45.540560	97.410	7.5989
45.870565	97.393	7.5310
46.202962	97.375	7.4642
46.537768	97.357	7.3983
46.875000	97.340	7.3331
47.214676	97.322	7.2689
47.556813	97.305	7.2057
47.901429	97.287	7.1438
48.248542	97.269	7.0834
48.598171	97.252	7.0247
48.950334	97.234	6.9678
49.305048	97.217	6.9126
49.662333	97.199	6.8594
50.022206	97.182	6.8079
50.384688	97.164	6.7582
50.749796	97.146	6.7098
51.117550	97.129	6.6624
51.487969	97.112	6.6152
51.861072	97.094	6.5682
52.236879	97.076	6.5217
52.615409	97.058	6.4767
52.996681	97.039	6.4348
53.380717	97.020	6.3972
53.767536	97.002	6.3645
54.157158	96.983	6.3363
54.549603	96.965	6.3111
54.944892	96.948	6.2872
55.343045	96.931	6.2631
55.744084	96.915	6.2375
56.148028	96.899	6.2096
56.554900	96.883	6.1781
56.964720	96.867	6.1418
57.377510	96.851	6.1002
57.793291	96.834	6.0536
58.212085	96.816	6.0033
58.633914	96.797	5.9512
59.058799	96.777	5.8992
59.486764	96.756	5.8490
59.917829	96.735	5.8021
60.352019	96.712	5.7598
60.789354	96.689	5.7227
61.229859	96.666	5.6904
61.673556	96.644	5.6621
62.120468	96.621	5.6365
62.570618	96.598	5.6127
63.024031	96.575	5.5903
63.480729	96.552	5.5695
63.940736	96.529	5.5504
64.404077	96.506	5.5336
64.870776	96.482	5.5194
65.340856	96.458	5.5081
65.814343	96.433	5.4996
66.291261	96.408	5.4937
66.771635	96.384	5.4897
67.255489	96.358	5.4875
67.742850	96.333	5.4872
68.233743	96.308	5.4888
68.728193	96.282	5.4924
69.226226	96.256	5.4976
69.727867	96.231	5.5037
70.233144	96.205	5.5100
70.742083	96.180	5.5166
71.254709	96.154	5.5236
71.771050	96.129	5.5311
72.291132	96.103	5.5397
72.814984	96.077	5.5497
73.342631	96.050	5.5616
73.874102	96.024	5.5756
74.409424	95.997	5.5913
74.948626	95.970	5.6091
75.491734	95.944	5.6292
76.038779	95.917	5.6522
76.589787	95.890	5.6777
77.144788	95.863	5.7047
77.703811	95.837	5.7314
78.266885	95.811	5.7567
78.834039	95.785	5.7797
79.405303	95.759	5.7999
79.980706	95.733	5.8169
80.560280	95.705	5.8301
81.144053	95.678	5.8393
81.732056	95.649	5.8446
82.324320	95.618	5.8472
82.920876	95.586	5.8489
83.521755	95.553	5.8521
84.126988	95.518	5.8595
84.736607	95.481	5.8742
85.350643	95.443	5.8987
85.969129	95.404	5.9346
