* Measurement data measured by REW V5.30.3
* Source: EXCL: Microphone (Realtek(R) Audio), MICROPHONE (Master Volume), L, volume: 1.000
* Format: 256k Log Swept Sine, 1 sweep at -18.0 dBFS with no timing reference
* Dated: Jan 6, 2024 4:49:35 PM
* REW Settings:
*  C-weighting compensation: Off
*  Target level: 75.0 dB
* Note: Kiwi Ears Forteza L
* Measurement: L Kiwi Ears Forteza
* Smoothing: 1/12 octave
* Frequency Step: 96 ppo
* Start Frequency: 0.36621094 Hz
*
* Freq(Hz) SPL(dB) Phase(degrees)
0.366211 90.108 -15.7528
0.368865 90.106 -15.7656
0.371538 90.102 -15.7848
0.374230 90.098 -15.8089
0.376942 90.092 -15.8366
0.379673 90.087 -15.8672
0.382424 90.081 -15.8998
0.385196 90.076 -15.9343
0.387987 90.070 -15.9704
0.390798 90.064 -16.0079
0.393630 90.058 -16.0469
0.396483 90.052 -16.0872
0.399356 90.045 -16.1289
0.402250 90.039 -16.1720
0.405165 90.033 -16.2165
0.408101 90.027 -16.2624
0.411058 90.020 -16.3097
0.414037 90.014 -16.3584
0.417037 90.008 -16.4085
0.420059 90.001 -16.4600
0.423103 89.995 -16.5129
0.426169 89.988 -16.5674
0.429257 89.981 -16.6232
0.432367 89.975 -16.6805
0.435501 89.968 -16.7393
0.438656 89.961 -16.7995
0.441835 89.954 -16.8612
0.445037 89.948 -16.9243
0.448262 89.941 -16.9890
0.451510 89.934 -17.0551
0.454782 89.927 -17.1227
0.458077 89.920 -17.1918
0.461397 89.913 -17.2624
0.464740 89.905 -17.3344
0.468108 89.898 -17.4079
0.471500 89.891 -17.4830
0.474917 89.884 -17.5594
0.478358 89.876 -17.6374
0.481825 89.869 -17.7169
0.485316 89.861 -17.7978
0.488833 89.854 -17.8801
0.492375 89.846 -17.9639
0.495943 89.839 -18.0492
0.499537 89.831 -18.1359
0.503157 89.823 -18.2240
0.506803 89.815 -18.3135
0.510475 89.808 -18.4044
0.514174 89.800 -18.4967
0.517900 89.792 -18.5904
0.521653 89.784 -18.6854
0.525433 89.775 -18.7817
0.529241 89.767 -18.8793
0.533076 89.759 -18.9782
0.536939 89.751 -19.0784
0.540830 89.743 -19.1798
0.544749 89.734 -19.2823
0.548696 89.726 -19.3861
0.552673 89.717 -19.4909
0.556677 89.709 -19.5968
0.560711 89.700 -19.7038
0.564774 89.691 -19.8119
0.568867 89.683 -19.9208
0.572989 89.674 -20.0307
0.577141 89.665 -20.1415
0.581324 89.656 -20.2531
0.585536 89.647 -20.3654
0.589779 89.638 -20.4785
0.594053 89.629 -20.5921
0.598358 89.619 -20.7064
0.602694 89.610 -20.8212
0.607061 89.601 -20.9364
0.611460 89.591 -21.0520
0.615891 89.582 -21.1679
0.620354 89.572 -21.2839
0.624849 89.563 -21.4001
0.629377 89.553 -21.5163
0.633938 89.543 -21.6324
0.638532 89.533 -21.7484
0.643159 89.523 -21.8640
0.647819 89.513 -21.9793
0.652514 89.503 -22.0941
0.657242 89.493 -22.2082
0.662005 89.483 -22.3216
0.666802 89.473 -22.4341
0.671634 89.463 -22.5456
0.676501 89.452 -22.6559
0.681403 89.442 -22.7649
0.686341 89.431 -22.8725
0.691314 89.420 -22.9784
0.696324 89.410 -23.0826
0.701369 89.399 -23.1849
0.706452 89.388 -23.2851
0.711571 89.377 -23.3832
0.716727 89.366 -23.4790
0.721921 89.355 -23.5727
0.727153 89.344 -23.6643
0.732422 89.333 -23.7541
0.737729 89.322 -23.8425
0.743075 89.311 -23.9298
0.748460 89.300 -24.0163
0.753883 89.288 -24.1023
0.759346 89.277 -24.1879
0.764849 89.265 -24.2733
0.770391 89.253 -24.3585
0.775974 89.240 -24.4434
0.781597 89.228 -24.5281
0.787261 89.215 -24.6125
0.792965 89.202 -24.6967
0.798712 89.189 -24.7805
0.804499 89.175 -24.8640
0.810329 89.161 -24.9471
0.816201 89.148 -25.0298
0.822116 89.134 -25.1120
0.828073 89.120 -25.1936
0.834073 89.105 -25.2747
0.840118 89.091 -25.3552
0.846205 89.076 -25.4349
0.852337 89.062 -25.5140
0.858514 89.047 -25.5922
0.864735 89.033 -25.6696
0.871001 89.018 -25.7460
0.877313 89.003 -25.8214
0.883670 88.988 -25.8958
0.890074 88.974 -25.9690
0.896523 88.959 -26.0409
0.903020 88.945 -26.1116
0.909564 88.930 -26.1808
0.916155 88.916 -26.2486
0.922793 88.902 -26.3148
0.929480 88.888 -26.3793
0.936216 88.874 -26.4420
0.943000 88.860 -26.5028
0.949833 88.847 -26.5616
0.956716 88.834 -26.6183
0.963649 88.822 -26.6727
0.970632 88.809 -26.7248
0.977666 88.797 -26.7745
0.984750 88.786 -26.8215
0.991886 88.775 -26.8658
0.999074 88.765 -26.9072
1.006313 88.755 -26.9455
1.013605 88.746 -26.9807
1.020950 88.737 -27.0126
1.028349 88.729 -27.0410
1.035801 88.722 -27.0657
1.043306 88.716 -27.0867
1.050867 88.710 -27.1036
1.058482 88.706 -27.1163
1.066152 88.702 -27.1246
1.073878 88.699 -27.1281
1.081659 88.698 -27.1264
1.089498 88.697 -27.1191
1.097393 88.697 -27.1056
1.105345 88.698 -27.0851
1.113355 88.700 -27.0572
1.121422 88.703 -27.0212
1.129549 88.706 -26.9769
1.137734 88.710 -26.9242
1.145978 88.715 -26.8632
1.154283 88.721 -26.7940
1.162647 88.728 -26.7168
1.171072 88.735 -26.6318
1.179558 88.743 -26.5394
1.188106 88.752 -26.4399
1.196715 88.762 -26.3337
1.205387 88.772 -26.2212
1.214122 88.784 -26.1027
1.222920 88.796 -25.9787
1.231781 88.809 -25.8496
1.240708 88.823 -25.7160
1.249698 88.838 -25.5783
1.258754 88.855 -25.4370
1.267875 88.872 -25.2928
1.277063 88.890 -25.1461
1.286317 88.909 -24.9976
1.295638 88.929 -24.8479
1.305027 88.950 -24.6977
1.314484 88.973 -24.5475
1.324009 88.997 -24.3981
1.333603 89.021 -24.2503
1.343267 89.047 -24.1046
1.353001 89.075 -23.9619
1.362805 89.103 -23.8230
1.372681 89.133 -23.6886
1.382628 89.164 -23.5595
1.392647 89.196 -23.4364
1.402739 89.230 -23.3201
1.412904 89.265 -23.2112
1.423142 89.302 -23.1103
1.433455 89.340 -23.0176
1.443842 89.380 -22.9330
1.454305 89.422 -22.8559
1.464843 89.466 -22.7853
1.475458 89.511 -22.7196
1.486150 89.559 -22.6575
1.496919 89.609 -22.5976
1.507766 89.661 -22.5393
1.518692 89.716 -22.4823
1.529697 89.772 -22.4267
1.540782 89.831 -22.3727
1.551947 89.893 -22.3207
1.563193 89.956 -22.2714
1.574521 90.022 -22.2252
1.585931 90.089 -22.1827
1.597423 90.158 -22.1446
1.608998 90.230 -22.1115
1.620658 90.303 -22.0840
1.632402 90.377 -22.0627
1.644231 90.453 -22.0483
1.656146 90.531 -22.0414
1.668147 90.610 -22.0427
1.680235 90.690 -22.0527
1.692410 90.772 -22.0722
1.704674 90.854 -22.1017
1.717027 90.937 -22.1419
1.729469 91.021 -22.1933
1.742002 91.106 -22.2567
1.754625 91.191 -22.3325
1.767340 91.276 -22.4213
1.780147 91.362 -22.5234
1.793046 91.447 -22.6390
1.806040 91.533 -22.7681
1.819127 91.620 -22.9104
1.832309 91.707 -23.0650
1.845587 91.794 -23.2310
1.858961 91.883 -23.4072
1.872431 91.973 -23.5929
1.886000 92.063 -23.7873
1.899666 92.156 -23.9900
1.913432 92.249 -24.2009
1.927298 92.344 -24.4198
1.941264 92.439 -24.6469
1.955331 92.536 -24.8822
1.969500 92.634 -25.1258
1.983772 92.733 -25.3778
1.998147 92.832 -25.6385
2.012626 92.932 -25.9081
2.027211 93.033 -26.1866
2.041901 93.134 -26.4745
2.056697 93.236 -26.7720
2.071601 93.337 -27.0792
2.086613 93.439 -27.3967
2.101733 93.540 -27.7246
2.116963 93.641 -28.0633
2.132303 93.742 -28.4132
2.147755 93.843 -28.7746
2.163318 93.943 -29.1480
2.178995 94.042 -29.5336
2.194785 94.141 -29.9315
2.210689 94.239 -30.3419
2.226709 94.337 -30.7645
2.242844 94.435 -31.1989
2.259097 94.533 -31.6447
2.275467 94.630 -32.1013
2.291956 94.727 -32.5680
2.308565 94.825 -33.0442
2.325294 94.922 -33.5292
2.342144 95.019 -34.0225
2.359116 95.115 -34.5234
2.376211 95.211 -35.0316
2.393430 95.307 -35.5464
2.410774 95.403 -36.0674
2.428243 95.498 -36.5944
2.445839 95.592 -37.1269
2.463562 95.686 -37.6648
2.481415 95.780 -38.2081
2.499396 95.873 -38.7567
2.517508 95.965 -39.3110
2.535750 96.056 -39.8716
2.554126 96.147 -40.4393
2.572634 96.236 -41.0150
2.591276 96.325 -41.5998
2.610054 96.413 -42.1941
2.628967 96.501 -42.7983
2.648018 96.587 -43.4117
2.667206 96.673 -44.0339
2.686534 96.757 -44.6639
2.706002 96.841 -45.3006
2.725610 96.924 -45.9430
2.745361 97.007 -46.5899
2.765255 97.088 -47.2403
2.785294 97.169 -47.8930
2.805477 97.249 -48.5472
2.825807 97.328 -49.2020
2.846284 97.406 -49.8568
2.866909 97.483 -50.5112
2.887684 97.560 -51.1652
2.908609 97.636 -51.8195
2.929686 97.711 -52.4750
2.950916 97.785 -53.1331
2.972299 97.857 -53.7951
2.993838 97.929 -54.4619
3.015532 98.000 -55.1336
3.037384 98.069 -55.8101
3.059394 98.137 -56.4905
3.081564 98.205 -57.1741
3.103894 98.271 -57.8596
3.126386 98.336 -58.5458
3.149041 98.401 -59.2316
3.171861 98.464 -59.9157
3.194845 98.527 -60.5970
3.217996 98.589 -61.2748
3.241315 98.651 -61.9484
3.264803 98.711 -62.6177
3.288461 98.771 -63.2834
3.312291 98.830 -63.9463
3.336293 98.888 -64.6077
3.360469 98.945 -65.2684
3.384820 99.001 -65.9291
3.409348 99.055 -66.5896
3.434054 99.109 -67.2497
3.458938 99.162 -67.9086
3.484003 99.214 -68.5654
3.509250 99.266 -69.2190
3.534679 99.317 -69.8685
3.560293 99.367 -70.5127
3.586092 99.417 -71.1507
3.612079 99.467 -71.7819
3.638253 99.516 -72.4060
3.664618 99.565 -73.0229
3.691173 99.613 -73.6334
3.717921 99.661 -74.2379
3.744862 99.708 -74.8371
3.771999 99.755 -75.4315
3.799332 99.801 -76.0213
3.826864 99.847 -76.6064
3.854595 99.892 -77.1868
3.882527 99.938 -77.7622
3.910661 99.983 -78.3323
3.938999 100.028 -78.8967
3.967543 100.074 -79.4551
3.996294 100.120 -80.0070
4.025252 100.165 -80.5524
4.054421 100.212 -81.0910
4.083801 100.258 -81.6230
4.113394 100.304 -82.1486
4.143201 100.351 -82.6684
4.173225 100.397 -83.1828
4.203466 100.444 -83.6922
4.233926 100.491 -84.1972
4.264606 100.539 -84.6982
4.295509 100.587 -85.1956
4.326636 100.635 -85.6896
4.357989 100.684 -86.1804
4.389569 100.734 -86.6679
4.421378 100.784 -87.1519
4.453417 100.835 -87.6323
4.485688 100.886 -88.1091
4.518193 100.938 -88.5827
4.550934 100.990 -89.0536
4.583912 101.043 -89.5223
4.617129 101.096 -89.9897
4.650587 101.150 -90.4562
4.684287 101.204 -90.9227
4.718231 101.258 -91.3895
4.752421 101.313 -91.8568
4.786859 101.368 -92.3248
4.821547 101.424 -92.7934
4.856485 101.480 -93.2624
4.891677 101.536 -93.7318
4.927125 101.593 -94.2017
4.962829 101.650 -94.6724
4.998791 101.707 -95.1441
5.035015 101.763 -95.6171
5.071500 101.820 -96.0917
5.108251 101.877 -96.5681
5.145267 101.933 -97.0467
5.182552 101.990 -97.5274
5.220107 102.046 -98.0101
5.257934 102.102 -98.4946
5.296035 102.158 -98.9806
5.334412 102.213 -99.4677
5.373067 102.268 -99.9557
5.412003 102.322 -100.4441
5.451221 102.376 -100.9330
5.490722 102.430 -101.4223
5.530510 102.482 -101.9122
5.570587 102.535 -102.4026
5.610953 102.586 -102.8936
5.651613 102.637 -103.3847
5.692567 102.687 -103.8754
5.733818 102.737 -104.3652
5.775367 102.786 -104.8537
5.817218 102.835 -105.3404
5.859372 102.882 -105.8252
5.901831 102.930 -106.3081
5.944598 102.976 -106.7891
5.987675 103.022 -107.2683
6.031065 103.067 -107.7455
6.074768 103.112 -108.2206
6.118788 103.156 -108.6932
6.163127 103.200 -109.1631
6.207788 103.243 -109.6301
6.252772 103.286 -110.0942
6.298082 103.329 -110.5555
6.343721 103.371 -111.0141
6.389690 103.413 -111.4701
6.435992 103.454 -111.9239
6.482630 103.495 -112.3756
6.529606 103.536 -112.8252
6.576922 103.577 -113.2729
6.624581 103.617 -113.7189
6.672585 103.657 -114.1633
6.720938 103.697 -114.6061
6.769640 103.736 -115.0478
6.818696 103.776 -115.4884
6.868107 103.815 -115.9284
6.917876 103.853 -116.3680
6.968006 103.891 -116.8074
7.018499 103.929 -117.2467
7.069358 103.967 -117.6859
7.120586 104.004 -118.1250
7.172184 104.040 -118.5640
7.224157 104.076 -119.0029
7.276506 104.111 -119.4416
7.329235 104.146 -119.8802
7.382345 104.179 -120.3185
7.435841 104.212 -120.7566
7.489724 104.245 -121.1940
7.543997 104.276 -121.6304
7.598664 104.307 -122.0654
7.653728 104.337 -122.4985
7.709189 104.366 -122.9294
7.765053 104.394 -123.3581
7.821322 104.422 -123.7841
7.877998 104.448 -124.2073
7.935086 104.474 -124.6271
7.992587 104.499 -125.0431
8.050504 104.524 -125.4550
8.108841 104.548 -125.8625
8.167601 104.572 -126.2656
8.226787 104.595 -126.6643
8.286402 104.618 -127.0587
8.346449 104.641 -127.4489
8.406931 104.663 -127.8348
8.467851 104.686 -128.2168
8.529212 104.709 -128.5951
8.591018 104.732 -128.9701
8.653272 104.755 -129.3426
8.715977 104.778 -129.7132
8.779137 104.802 -130.0826
8.842754 104.826 -130.4514
8.906833 104.850 -130.8202
8.971375 104.875 -131.1896
9.036386 104.900 -131.5605
9.101867 104.926 -131.9338
9.167823 104.951 -132.3101
9.234257 104.977 -132.6900
9.301172 105.002 -133.0738
9.368572 105.028 -133.4617
9.436460 105.054 -133.8542
9.504841 105.079 -134.2513
9.573717 105.103 -134.6532
9.643092 105.127 -135.0596
9.712970 105.151 -135.4702
9.783354 105.173 -135.8845
9.854248 105.195 -136.3018
9.925656 105.216 -136.7216
9.997581 105.235 -137.1431
10.070028 105.254 -137.5657
10.143000 105.272 -137.9882
10.216500 105.288 -138.4098
10.290533 105.304 -138.8295
10.365103 105.318 -139.2467
10.440212 105.332 -139.6607
10.515866 105.345 -140.0707
10.592069 105.358 -140.4763
10.668823 105.370 -140.8769
10.746134 105.382 -141.2725
10.824005 105.394 -141.6631
10.902440 105.406 -142.0487
10.981443 105.418 -142.4299
11.061020 105.430 -142.8069
11.141172 105.443 -143.1804
11.221906 105.456 -143.5511
11.303225 105.470 -143.9201
11.385133 105.484 -144.2881
11.467634 105.500 -144.6559
11.550734 105.515 -145.0245
11.634435 105.532 -145.3947
11.718742 105.548 -145.7672
11.803661 105.565 -146.1427
11.889195 105.583 -146.5215
11.975349 105.600 -146.9039
12.062128 105.617 -147.2900
12.149535 105.635 -147.6797
12.237576 105.652 -148.0729
12.326254 105.668 -148.4690
12.415575 105.684 -148.8675
12.505544 105.700 -149.2679
12.596164 105.714 -149.6694
12.687441 105.729 -150.0715
12.779379 105.742 -150.4732
12.871984 105.755 -150.8740
12.965260 105.767 -151.2733
13.059211 105.779 -151.6706
13.153843 105.790 -152.0654
13.249161 105.801 -152.4575
13.345170 105.812 -152.8467
13.441875 105.822 -153.2329
13.539280 105.832 -153.6162
13.637391 105.841 -153.9967
13.736214 105.851 -154.3744
13.835752 105.861 -154.7496
13.936011 105.870 -155.1224
14.036998 105.879 -155.4930
14.138716 105.888 -155.8615
14.241171 105.897 -156.2280
14.344368 105.905 -156.5925
14.448313 105.913 -156.9550
14.553011 105.922 -157.3155
14.658468 105.929 -157.6739
14.764689 105.937 -158.0302
14.871680 105.944 -158.3843
14.979446 105.952 -158.7363
15.087994 105.959 -159.0864
15.197328 105.966 -159.4346
15.307454 105.973 -159.7814
15.418378 105.979 -160.1270
15.530106 105.986 -160.4718
15.642643 105.993 -160.8163
15.755996 105.999 -161.1610
15.870171 106.005 -161.5061
15.985172 106.011 -161.8521
16.101007 106.017 -162.1991
16.217682 106.022 -162.5471
16.335201 106.026 -162.8961
16.453573 106.030 -163.2456
16.572803 106.033 -163.5951
16.692898 106.035 -163.9440
16.813862 106.036 -164.2916
16.935701 106.037 -164.6368
17.058424 106.036 -164.9789
17.182035 106.035 -165.3170
17.306543 106.034 -165.6504
17.431953 106.031 -165.9787
17.558273 106.029 -166.3015
17.685509 106.027 -166.6189
17.813665 106.024 -166.9313
17.942751 106.023 -167.2395
18.072771 106.021 -167.5444
18.203733 106.021 -167.8474
18.335646 106.021 -168.1501
18.468513 106.022 -168.4541
18.602345 106.024 -168.7612
18.737144 106.026 -169.0730
18.872921 106.029 -169.3909
19.009682 106.031 -169.7161
19.147434 106.034 -170.0490
19.286184 106.036 -170.3898
19.425940 106.038 -170.7379
19.566708 106.038 -171.0922
19.708496 106.037 -171.4510
19.851313 106.034 -171.8119
19.995163 106.029 -172.1722
20.140057 106.023 -172.5292
20.285999 106.015 -172.8799
20.433001 106.006 -173.2219
20.581066 105.996 -173.5532
20.730206 105.986 -173.8728
20.880424 105.977 -174.1808
21.031733 105.968 -174.4782
21.184137 105.960 -174.7678
21.337646 105.955 -175.0531
21.492268 105.951 -175.3385
21.648010 105.950 -175.6289
21.804880 105.950 -175.9290
21.962887 105.951 -176.2425
22.122040 105.952 -176.5722
22.282345 105.952 -176.9188
22.443811 105.951 -177.2808
22.606449 105.946 -177.6547
22.770266 105.939 -178.0350
22.935268 105.927 -178.4149
23.101467 105.912 -178.7866
23.268869 105.893 -179.1427
23.437485 105.872 -179.4768
23.607323 105.849 -179.7850
23.778391 105.827 179.9339
23.950699 105.806 179.6777
24.124256 105.788 179.4409
24.299070 105.774 179.2152
24.475151 105.764 178.9911
24.652508 105.758 178.7587
24.831150 105.754 178.5098
25.011087 105.751 178.2390
25.192327 105.749 177.9449
25.374882 105.744 177.6302
25.558758 105.737 177.3015
25.743967 105.725 176.9679
25.930519 105.710 176.6398
26.118422 105.692 176.3268
26.307686 105.672 176.0360
26.498322 105.652 175.7702
26.690340 105.635 175.5273
26.883749 105.620 175.3006
27.078560 105.611 175.0793
27.274782 105.606 174.8509
27.472427 105.606 174.6030
27.671503 105.608 174.3260
27.872023 105.611 174.0146
28.073996 105.613 173.6687
28.277431 105.611 173.2935
28.482342 105.605 172.8979
28.688736 105.594 172.4936
28.896626 105.578 172.0923
29.106022 105.557 171.7042
29.316936 105.533 171.3367
29.529379 105.508 170.9933
29.743361 105.482 170.6737
29.958893 105.457 170.3749
30.175987 105.434 170.0922
30.394655 105.412 169.8205
30.614908 105.392 169.5555
30.836756 105.373 169.2949
31.060211 105.355 169.0379
31.285286 105.337 168.7851
31.511992 105.321 168.5376
31.740341 105.305 168.2961
31.970345 105.291 168.0604
32.202015 105.278 167.8283
32.435364 105.267 167.5966
32.670403 105.258 167.3610
32.907146 105.251 167.1169
33.145607 105.245 166.8610
33.385796 105.238 166.5914
33.627724 105.231 166.3085
33.871403 105.221 166.0150
34.116848 105.209 165.7155
34.364071 105.195 165.4147
34.613087 105.178 165.1173
34.863907 105.159 164.8258
35.116547 105.139 164.5406
35.371017 105.117 164.2601
35.627331 105.094 163.9812
35.885502 105.070 163.7017
36.145542 105.044 163.4213
36.407467 105.015 163.1427
36.671291 104.983 162.8712
36.937027 104.949 162.6132
37.204689 104.913 162.3735
37.474289 104.878 162.1526
37.745842 104.844 161.9457
38.019363 104.814 161.7430
38.294868 104.787 161.5319
38.572369 104.763 161.3013
38.851879 104.741 161.0449
39.133415 104.718 160.7633
39.416992 104.694 160.4631
39.702625 104.669 160.1536
39.990326 104.642 159.8424
40.280113 104.617 159.5324
40.571999 104.594 159.2200
40.866001 104.574 158.8978
41.162132 104.555 158.5584
41.460411 104.537 158.1995
41.760849 104.517 157.8261
42.063465 104.494 157.4507
42.368275 104.468 157.0889
42.675293 104.440 156.7538
42.984535 104.411 156.4520
43.296021 104.383 156.1819
43.609760 104.357 155.9366
43.925774 104.331 155.7089
44.244080 104.304 155.4977
44.564690 104.274 155.3109
44.887623 104.241 155.1624
45.212898 104.204 155.0660
45.540531 104.168 155.0262
45.870537 104.135 155.0322
46.202934 104.107 155.0588
46.537739 104.083 155.0753
46.874969 104.058 155.0603
47.214645 104.028 155.0143
47.556782 103.988 154.9646
47.901398 103.938 154.9552
48.248512 103.882 155.0264
48.598141 103.833 155.1899
48.950302 103.799 155.4109
49.305016 103.791 155.6100
49.662300 103.806 155.6874
50.022175 103.835 155.5599
50.384655 103.865 155.1929
50.749763 103.878 154.6100
51.117516 103.866 153.8830
51.487934 103.823 153.1070
51.861038 103.754 152.3735
52.236843 103.668 151.7495
52.615372 103.576 151.2663
52.996643 103.489 150.9198
53.380680 103.417 150.6786
53.767498 103.362 150.4970
54.157120 103.325 150.3281
54.549564 103.304 150.1339
54.944855 103.291 149.8922
55.343006 103.281 149.6003
55.744045 103.268 149.2738
56.147991 103.247 148.9413
56.554863 103.217 148.6356
56.964684 103.179 148.3834
57.377472 103.136 148.2000
57.793251 103.091 148.0872
58.212044 103.047 148.0372
58.633873 103.007 148.0370
59.058758 102.971 148.0687
59.486721 102.942 148.1064
59.917786 102.921 148.1149
60.351974 102.906 148.0556
60.789310 102.891 147.9001
61.229816 102.872 147.6443
61.673512 102.841 147.3120
62.120422 102.796 146.9442
62.570572 102.741 146.5795
63.023983 102.680 146.2403
63.480682 102.617 145.9327
63.940689 102.555 145.6564
64.404030 102.496 145.4141
64.870728 102.443 145.2068
65.340805 102.401 145.0239
65.814293 102.370 144.8392
66.291214 102.349 144.6246
66.771591 102.332 144.3690
67.255447 102.314 144.0865
67.742805 102.293 143.8056
68.233696 102.269 143.5515
68.728142 102.241 143.3374
69.226173 102.212 143.1680
69.727814 102.180 143.0454
70.233093 102.148 142.9695
70.742035 102.117 142.9321
71.254662 102.086 142.9160
71.771004 102.057 142.9010
72.291084 102.026 142.8727
72.814934 101.992 142.8256
73.342583 101.955 142.7610
73.874054 101.914 142.6836
74.409378 101.870 142.5998
74.948578 101.826 142.5143
75.491684 101.784 142.4254
76.038727 101.748 142.3213
76.589737 101.717 142.1848
77.144737 101.690 142.0043
77.703758 101.664 141.7829
