* Measurement data measured by REW V5.31
* Source: EXCL: Microphone (USB Sound Device        ), MICROPHONE (Master Volume), L, volume: 0.390
* Format: 256k Log Swept Sine, 1 sweep at -4.0 dBFS with no timing reference
* Dated: Aug 23, 2024 12:53:37 AM
* REW Settings:
*  C-weighting compensation: Off
*  Target level: 75.0 dB
* Note: KZ AS24 Pro 0000 L
* Measurement: L AS24 Pro 0000
* Smoothing: 1/12 octave
* Frequency Step: 96 ppo
* Start Frequency: 0.36621094 Hz
*
* Freq(Hz) SPL(dB) Phase(degrees)
0.366211 83.175 157.7763
0.368865 83.166 157.7555
0.371538 83.153 157.7242
0.374230 83.136 157.6848
0.376942 83.117 157.6392
0.379673 83.097 157.5889
0.382424 83.076 157.5349
0.385196 83.054 157.4776
0.387987 83.032 157.4176
0.390798 83.009 157.3548
0.393630 82.987 157.2894
0.396483 82.964 157.2215
0.399356 82.941 157.1510
0.402250 82.918 157.0779
0.405165 82.894 157.0023
0.408101 82.871 156.9240
0.411058 82.847 156.8430
0.414037 82.823 156.7594
0.417037 82.799 156.6730
0.420059 82.775 156.5840
0.423103 82.751 156.4921
0.426169 82.726 156.3975
0.429257 82.701 156.3000
0.432368 82.677 156.1998
0.435501 82.651 156.0966
0.438656 82.626 155.9906
0.441835 82.601 155.8816
0.445037 82.575 155.7697
0.448262 82.549 155.6548
0.451510 82.523 155.5370
0.454782 82.497 155.4161
0.458077 82.471 155.2921
0.461397 82.444 155.1651
0.464740 82.417 155.0351
0.468108 82.390 154.9019
0.471500 82.363 154.7655
0.474917 82.336 154.6261
0.478358 82.308 154.4834
0.481825 82.281 154.3376
0.485316 82.253 154.1886
0.488833 82.224 154.0363
0.492375 82.196 153.8808
0.495943 82.167 153.7221
0.499537 82.139 153.5602
0.503157 82.110 153.3949
0.506803 82.081 153.2264
0.510475 82.051 153.0546
0.514175 82.021 152.8795
0.517900 81.992 152.7012
0.521653 81.962 152.5195
0.525434 81.931 152.3346
0.529241 81.901 152.1464
0.533076 81.870 151.9549
0.536939 81.839 151.7601
0.540830 81.808 151.5621
0.544749 81.777 151.3609
0.548696 81.745 151.1565
0.552673 81.713 150.9489
0.556677 81.681 150.7381
0.560711 81.649 150.5241
0.564774 81.616 150.3071
0.568867 81.584 150.0870
0.572989 81.551 149.8639
0.577141 81.517 149.6378
0.581324 81.484 149.4089
0.585536 81.450 149.1770
0.589779 81.416 148.9424
0.594053 81.382 148.7051
0.598358 81.347 148.4651
0.602694 81.313 148.2225
0.607061 81.278 147.9775
0.611460 81.242 147.7301
0.615891 81.207 147.4805
0.620354 81.171 147.2287
0.624849 81.135 146.9749
0.629377 81.099 146.7192
0.633938 81.063 146.4618
0.638532 81.026 146.2027
0.643159 80.989 145.9422
0.647819 80.951 145.6805
0.652514 80.914 145.4176
0.657242 80.876 145.1539
0.662005 80.838 144.8896
0.666802 80.799 144.6247
0.671634 80.761 144.3597
0.676501 80.722 144.0947
0.681403 80.682 143.8300
0.686341 80.643 143.5659
0.691314 80.603 143.3027
0.696324 80.562 143.0406
0.701370 80.521 142.7799
0.706452 80.480 142.5209
0.711571 80.437 142.2637
0.716728 80.392 142.0083
0.721921 80.344 141.7544
0.727153 80.293 141.5016
0.732422 80.236 141.2488
0.737729 80.174 140.9949
0.743075 80.106 140.7384
0.748460 80.033 140.4783
0.753883 79.955 140.2135
0.759346 79.874 139.9435
0.764849 79.789 139.6675
0.770391 79.702 139.3855
0.775974 79.613 139.0970
0.781597 79.521 138.8018
0.787261 79.427 138.4998
0.792966 79.330 138.1909
0.798712 79.231 137.8747
0.804500 79.130 137.5513
0.810329 79.027 137.2203
0.816201 78.921 136.8818
0.822116 78.814 136.5354
0.828073 78.704 136.1811
0.834074 78.592 135.8186
0.840118 78.477 135.4479
0.846206 78.361 135.0687
0.852338 78.243 134.6810
0.858514 78.122 134.2845
0.864735 78.000 133.8790
0.871001 77.875 133.4645
0.877313 77.748 133.0408
0.883670 77.620 132.6078
0.890074 77.489 132.1653
0.896524 77.357 131.7132
0.903020 77.222 131.2514
0.909564 77.086 130.7798
0.916155 76.948 130.2984
0.922794 76.809 129.8069
0.929481 76.668 129.3055
0.936216 76.525 128.7940
0.943000 76.380 128.2724
0.949834 76.234 127.7409
0.956717 76.087 127.1995
0.963649 75.938 126.6482
0.970632 75.788 126.0871
0.977666 75.636 125.5166
0.984750 75.484 124.9368
0.991886 75.330 124.3481
0.999074 75.175 123.7507
1.006314 75.020 123.1452
1.013606 74.863 122.5321
1.020951 74.706 121.9121
1.028349 74.548 121.2858
1.035801 74.390 120.6541
1.043307 74.231 120.0179
1.050867 74.071 119.3784
1.058482 73.911 118.7367
1.066152 73.751 118.0940
1.073878 73.590 117.4513
1.081660 73.429 116.8096
1.089498 73.265 116.1694
1.097393 73.099 115.5304
1.105345 72.929 114.8915
1.113355 72.754 114.2510
1.121423 72.573 113.6068
1.129549 72.385 112.9563
1.137734 72.190 112.2972
1.145979 71.987 111.6266
1.154283 71.777 110.9417
1.162647 71.560 110.2391
1.171072 71.337 109.5149
1.179558 71.108 108.7647
1.188106 70.874 107.9830
1.196715 70.634 107.1632
1.205387 70.391 106.2972
1.214122 70.144 105.3750
1.222920 69.895 104.3836
1.231782 69.643 103.3067
1.240708 69.390 102.1228
1.249699 69.137 100.8035
1.258754 68.884 99.3096
1.267876 68.633 97.5872
1.277063 68.384 95.5586
1.286318 68.138 93.1089
1.295639 67.897 90.0621
1.305027 67.662 86.1378
1.314484 67.433 80.8701
1.324009 67.212 73.4631
1.333604 67.000 62.5775
1.343268 66.799 46.3609
1.353002 66.609 24.2154
1.362806 66.433 0.5708
1.372681 66.272 -18.3063
1.382628 66.128 -31.2198
1.392647 66.001 -39.8912
1.402739 65.895 -45.9296
1.412904 65.811 -50.3369
1.423142 65.751 -53.6982
1.433455 65.717 -56.3627
1.443843 65.711 -58.5476
1.454305 65.735 -60.3946
1.464844 65.792 -62.0003
1.475459 65.883 -63.4321
1.486150 66.008 -64.7372
1.496920 66.169 -65.9476
1.507767 66.365 -67.0850
1.518693 66.595 -68.1638
1.529698 66.858 -69.1940
1.540783 67.151 -70.1826
1.551948 67.473 -71.1349
1.563194 67.823 -72.0548
1.574521 68.197 -72.9456
1.585931 68.594 -73.8097
1.597423 69.011 -74.6494
1.608999 69.445 -75.4663
1.620658 69.895 -76.2622
1.632402 70.357 -77.0382
1.644232 70.829 -77.7957
1.656146 71.309 -78.5356
1.668147 71.792 -79.2589
1.680235 72.276 -79.9663
1.692411 72.759 -80.6588
1.704675 73.237 -81.3369
1.717028 73.708 -82.0013
1.729470 74.167 -82.6528
1.742003 74.613 -83.2920
1.754626 75.042 -83.9197
1.767341 75.451 -84.5368
1.780147 75.838 -85.1448
1.793047 76.201 -85.7453
1.806040 76.540 -86.3410
1.819128 76.853 -86.9350
1.832310 77.142 -87.5316
1.845587 77.410 -88.1350
1.858961 77.658 -88.7489
1.872432 77.889 -89.3755
1.886001 78.105 -90.0155
1.899667 78.306 -90.6687
1.913433 78.494 -91.3337
1.927299 78.670 -92.0090
1.941265 78.834 -92.6925
1.955332 78.987 -93.3822
1.969501 79.130 -94.0761
1.983773 79.264 -94.7722
1.998148 79.389 -95.4683
2.012627 79.507 -96.1627
2.027212 79.617 -96.8535
2.041902 79.721 -97.5388
2.056698 79.821 -98.2170
2.071602 79.915 -98.8863
2.086614 80.007 -99.5454
2.101734 80.096 -100.1928
2.116964 80.184 -100.8275
2.132304 80.272 -101.4486
2.147756 80.360 -102.0562
2.163320 80.448 -102.6510
2.178996 80.537 -103.2349
2.194786 80.626 -103.8111
2.210690 80.714 -104.3835
2.226710 80.800 -104.9565
2.242845 80.883 -105.5334
2.259098 80.962 -106.1161
2.275468 81.037 -106.7055
2.291957 81.107 -107.3013
2.308566 81.173 -107.9026
2.325295 81.235 -108.5081
2.342145 81.292 -109.1162
2.359117 81.345 -109.7250
2.376212 81.394 -110.3325
2.393431 81.440 -110.9366
2.410775 81.483 -111.5351
2.428244 81.522 -112.1256
2.445840 81.559 -112.7060
2.463564 81.593 -113.2739
2.481416 81.625 -113.8273
2.499397 81.654 -114.3643
2.517509 81.682 -114.8838
2.535752 81.708 -115.3855
2.554127 81.732 -115.8700
2.572635 81.753 -116.3394
2.591277 81.771 -116.7964
2.610055 81.785 -117.2436
2.628968 81.797 -117.6830
2.648019 81.804 -118.1159
2.667208 81.808 -118.5426
2.686535 81.808 -118.9630
2.706003 81.805 -119.3764
2.725612 81.799 -119.7819
2.745363 81.791 -120.1782
2.765257 81.780 -120.5637
2.785295 81.767 -120.9368
2.805478 81.752 -121.2956
2.825808 81.736 -121.6382
2.846285 81.719 -121.9624
2.866910 81.701 -122.2662
2.887685 81.682 -122.5477
2.908611 81.662 -122.8052
2.929688 81.641 -123.0375
2.950917 81.619 -123.2442
2.972301 81.594 -123.4252
2.993839 81.568 -123.5809
3.015534 81.540 -123.7119
3.037386 81.510 -123.8189
3.059396 81.478 -123.9028
3.081565 81.445 -123.9644
3.103896 81.411 -124.0046
3.126388 81.377 -124.0242
3.149043 81.344 -124.0241
3.171862 81.312 -124.0051
3.194847 81.281 -123.9679
3.217998 81.252 -123.9127
3.241317 81.226 -123.8395
3.264805 81.204 -123.7475
3.288463 81.184 -123.6350
3.312293 81.167 -123.4999
3.336295 81.153 -123.3403
3.360471 81.142 -123.1550
3.384822 81.133 -122.9444
3.409350 81.127 -122.7103
3.434056 81.123 -122.4558
3.458940 81.122 -122.1846
3.484005 81.124 -121.9012
3.509252 81.128 -121.6105
3.534681 81.136 -121.3173
3.560295 81.147 -121.0264
3.586094 81.162 -120.7420
3.612081 81.181 -120.4673
3.638255 81.203 -120.2041
3.664620 81.231 -119.9528
3.691175 81.263 -119.7122
3.717923 81.300 -119.4811
3.744864 81.342 -119.2589
3.772001 81.388 -119.0462
3.799335 81.438 -118.8445
3.826866 81.491 -118.6562
3.854597 81.547 -118.4842
3.882529 81.605 -118.3315
3.910664 81.665 -118.2012
3.939002 81.725 -118.0963
3.967546 81.785 -118.0193
3.996296 81.846 -117.9722
4.025255 81.907 -117.9561
4.054423 81.968 -117.9712
4.083804 82.030 -118.0168
4.113396 82.092 -118.0917
4.143204 82.154 -118.1944
4.173227 82.216 -118.3230
4.203468 82.278 -118.4757
4.233928 82.340 -118.6509
4.264609 82.399 -118.8472
4.295512 82.456 -119.0635
4.326639 82.511 -119.2993
4.357992 82.563 -119.5548
4.389572 82.611 -119.8308
4.421380 82.656 -120.1284
4.453419 82.698 -120.4484
4.485691 82.736 -120.7902
4.518196 82.771 -121.1520
4.550936 82.803 -121.5309
4.583914 82.831 -121.9231
4.617131 82.856 -122.3246
4.650589 82.878 -122.7316
4.684289 82.896 -123.1407
4.718233 82.910 -123.5498
4.752424 82.920 -123.9581
4.786862 82.926 -124.3662
4.821549 82.928 -124.7750
4.856488 82.925 -125.1849
4.891680 82.919 -125.5951
4.927127 82.908 -126.0035
4.962831 82.895 -126.4070
4.998794 82.878 -126.8021
5.035017 82.859 -127.1850
5.071503 82.838 -127.5523
5.108253 82.814 -127.9015
5.145270 82.787 -128.2313
5.182555 82.759 -128.5414
5.220110 82.728 -128.8320
5.257937 82.695 -129.1037
5.296038 82.660 -129.3566
5.334415 82.625 -129.5908
5.373071 82.589 -129.8056
5.412006 82.554 -130.0004
5.451224 82.521 -130.1740
5.490725 82.488 -130.3251
5.530514 82.458 -130.4529
5.570590 82.429 -130.5573
5.610957 82.402 -130.6398
5.651616 82.377 -130.7029
5.692570 82.355 -130.7501
5.733821 82.336 -130.7855
5.775370 82.321 -130.8128
5.817221 82.309 -130.8348
5.859375 82.303 -130.8534
5.901834 82.300 -130.8696
5.944602 82.303 -130.8845
5.987679 82.310 -130.8999
6.031068 82.321 -130.9191
6.074771 82.336 -130.9465
6.118792 82.354 -130.9865
6.163131 82.376 -131.0435
6.207792 82.401 -131.1207
6.252776 82.429 -131.2201
6.298086 82.460 -131.3422
6.343725 82.494 -131.4871
6.389694 82.530 -131.6549
6.435996 82.567 -131.8457
6.482634 82.605 -132.0599
6.529610 82.644 -132.2983
6.576926 82.681 -132.5613
6.624585 82.719 -132.8492
6.672590 82.755 -133.1613
6.720942 82.791 -133.4960
6.769645 82.825 -133.8503
6.818700 82.857 -134.2211
6.868111 82.888 -134.6049
6.917881 82.916 -134.9994
6.968010 82.941 -135.4025
7.018504 82.964 -135.8131
7.069362 82.984 -136.2294
7.120590 83.001 -136.6487
7.172189 83.016 -137.0677
7.224161 83.028 -137.4822
7.276511 83.039 -137.8887
7.329239 83.047 -138.2845
7.382350 83.054 -138.6677
7.435845 83.059 -139.0372
7.489729 83.062 -139.3921
7.544002 83.065 -139.7310
7.598669 83.068 -140.0522
7.653732 83.070 -140.3542
7.709194 83.074 -140.6360
7.765058 83.078 -140.8972
7.821327 83.084 -141.1386
7.878004 83.091 -141.3615
7.935091 83.100 -141.5678
7.992592 83.112 -141.7594
8.050510 83.126 -141.9377
8.108847 83.144 -142.1044
8.167607 83.165 -142.2610
8.226793 83.188 -142.4100
8.286408 83.215 -142.5543
8.346454 83.245 -142.6971
8.406936 83.277 -142.8412
8.467856 83.312 -142.9885
8.529218 83.350 -143.1404
8.591024 83.389 -143.2982
8.653278 83.431 -143.4629
8.715983 83.473 -143.6357
8.779143 83.516 -143.8175
8.842760 83.560 -144.0084
8.906839 83.603 -144.2082
8.971381 83.647 -144.4158
9.036392 83.690 -144.6297
9.101873 83.731 -144.8484
9.167829 83.772 -145.0704
9.234263 83.811 -145.2943
9.301178 83.848 -145.5184
9.368578 83.884 -145.7406
9.436467 83.919 -145.9586
9.504847 83.951 -146.1704
9.573723 83.982 -146.3741
9.643099 84.011 -146.5687
9.712976 84.037 -146.7531
9.783361 84.062 -146.9263
9.854255 84.083 -147.0875
9.925663 84.103 -147.2363
9.997588 84.119 -147.3727
10.070035 84.133 -147.4972
10.143007 84.146 -147.6107
10.216507 84.157 -147.7143
10.290540 84.167 -147.8089
10.365109 84.176 -147.8958
10.440219 84.185 -147.9762
10.515873 84.193 -148.0517
10.592076 84.201 -148.1237
10.668830 84.210 -148.1934
10.746141 84.218 -148.2619
10.824012 84.226 -148.3297
10.902447 84.234 -148.3974
10.981451 84.242 -148.4655
11.061027 84.248 -148.5340
11.141180 84.254 -148.6028
11.221913 84.259 -148.6714
11.303232 84.263 -148.7393
11.385140 84.266 -148.8059
11.467641 84.267 -148.8706
11.550741 84.268 -148.9329
11.634442 84.268 -148.9923
11.718750 84.267 -149.0484
11.803669 84.266 -149.1012
11.889203 84.265 -149.1505
11.975357 84.264 -149.1970
12.062136 84.262 -149.2411
12.149543 84.261 -149.2837
12.237583 84.260 -149.3255
12.326262 84.259 -149.3678
12.415583 84.258 -149.4117
12.505552 84.258 -149.4583
12.596172 84.257 -149.5087
12.687449 84.256 -149.5639
12.779387 84.254 -149.6246
12.871992 84.253 -149.6914
12.965268 84.250 -149.7646
13.059220 84.248 -149.8445
13.153852 84.245 -149.9308
13.249170 84.242 -150.0233
13.345179 84.238 -150.1217
13.441884 84.234 -150.2257
13.539289 84.229 -150.3347
13.637401 84.224 -150.4483
13.736223 84.219 -150.5664
13.835761 84.214 -150.6888
13.936021 84.209 -150.8156
14.037007 84.203 -150.9469
14.138725 84.198 -151.0830
14.241180 84.192 -151.2243
14.344377 84.187 -151.3712
14.448323 84.181 -151.5241
14.553021 84.176 -151.6831
14.658478 84.171 -151.8483
14.764700 84.166 -152.0195
14.871691 84.161 -152.1964
14.979457 84.156 -152.3783
15.088005 84.151 -152.5642
15.197339 84.146 -152.7531
15.307465 84.142 -152.9440
15.418389 84.138 -153.1355
15.530117 84.133 -153.3266
15.642655 84.130 -153.5165
15.756008 84.127 -153.7045
15.870182 84.124 -153.8901
15.985184 84.123 -154.0732
16.101019 84.123 -154.2541
16.217694 84.124 -154.4331
16.335214 84.127 -154.6107
16.453586 84.131 -154.7877
16.572815 84.136 -154.9644
16.692909 84.143 -155.1413
16.813872 84.152 -155.3184
16.935713 84.161 -155.4955
17.058436 84.171 -155.6720
17.182048 84.183 -155.8472
17.306556 84.195 -156.0200
17.431967 84.207 -156.1894
17.558286 84.219 -156.3541
17.685521 84.232 -156.5132
17.813677 84.245 -156.6660
17.942762 84.258 -156.8122
18.072783 84.272 -156.9515
18.203746 84.287 -157.0845
18.335658 84.302 -157.2116
18.468526 84.317 -157.3336
18.602356 84.333 -157.4514
18.737156 84.349 -157.5658
18.872934 84.365 -157.6772
19.009695 84.382 -157.7860
19.147447 84.398 -157.8921
19.286197 84.413 -157.9952
19.425953 84.428 -158.0947
19.566721 84.441 -158.1899
19.708510 84.454 -158.2803
19.851326 84.466 -158.3652
19.995177 84.477 -158.4445
20.140070 84.486 -158.5182
20.286013 84.495 -158.5868
20.433014 84.504 -158.6512
20.581080 84.512 -158.7124
20.730219 84.519 -158.7717
20.880439 84.526 -158.8301
21.031747 84.533 -158.8888
21.184152 84.539 -158.9487
21.337661 84.545 -159.0102
21.492282 84.550 -159.0739
21.648024 84.555 -159.1399
21.804895 84.559 -159.2084
21.962902 84.563 -159.2794
22.122054 84.566 -159.3534
22.282360 84.569 -159.4307
22.443827 84.571 -159.5119
22.606464 84.573 -159.5977
22.770280 84.576 -159.6887
22.935283 84.578 -159.7854
23.101481 84.580 -159.8880
23.268884 84.581 -159.9962
23.437500 84.583 -160.1095
23.607338 84.584 -160.2267
23.778406 84.585 -160.3466
23.950714 84.585 -160.4680
24.124271 84.586 -160.5897
24.299086 84.587 -160.7112
24.475167 84.590 -160.8323
24.652524 84.593 -160.9537
24.831166 84.597 -161.0763
25.011103 84.603 -161.2017
25.192344 84.610 -161.3310
25.374898 84.617 -161.4650
25.558775 84.625 -161.6034
25.743984 84.633 -161.7447
25.930536 84.640 -161.8860
26.118439 84.646 -162.0231
26.307704 84.652 -162.1511
26.498341 84.656 -162.2649
26.690359 84.660 -162.3605
26.883768 84.665 -162.4353
27.078579 84.671 -162.4896
27.274801 84.680 -162.5266
27.472446 84.692 -162.5523
27.671522 84.708 -162.5748
27.872042 84.727 -162.6035
28.074014 84.748 -162.6466
28.277450 84.771 -162.7104
28.482360 84.792 -162.7976
28.688755 84.812 -162.9066
28.896645 84.828 -163.0318
29.106042 84.840 -163.1648
29.316957 84.847 -163.2960
29.529400 84.849 -163.4162
29.743382 84.849 -163.5190
29.958915 84.848 -163.6018
30.176009 84.847 -163.6665
30.394677 84.848 -163.7191
30.614929 84.851 -163.7680
30.836778 84.856 -163.8222
31.060234 84.862 -163.8893
31.285309 84.869 -163.9735
31.512015 84.876 -164.0754
31.740364 84.881 -164.1918
31.970368 84.884 -164.3173
32.202039 84.886 -164.4456
32.435388 84.886 -164.5713
32.670428 84.886 -164.6915
32.907171 84.887 -164.8056
33.145630 84.888 -164.9154
33.385817 84.892 -165.0235
33.627745 84.896 -165.1324
33.871425 84.902 -165.2429
34.116871 84.908 -165.3542
34.364096 84.915 -165.4634
34.613113 84.922 -165.5675
34.863934 84.931 -165.6639
35.116572 84.940 -165.7523
35.371041 84.952 -165.8348
35.627354 84.965 -165.9154
35.885525 84.980 -165.9991
36.145566 84.996 -166.0901
36.407492 85.013 -166.1905
36.671316 85.028 -166.2995
36.937051 85.042 -166.4143
37.204712 85.053 -166.5307
37.474313 85.062 -166.6446
37.745867 85.069 -166.7529
38.019389 85.074 -166.8541
38.294893 85.078 -166.9478
38.572394 85.081 -167.0343
38.851905 85.082 -167.1142
39.133442 85.083 -167.1887
39.417019 85.084 -167.2599
39.702651 85.085 -167.3315
39.990353 85.085 -167.4073
40.280140 85.085 -167.4903
40.572026 85.084 -167.5804
40.866028 85.082 -167.6730
41.162160 85.077 -167.7600
41.460438 85.071 -167.8325
41.760877 85.065 -167.8849
42.063494 85.062 -167.9183
42.368303 85.064 -167.9416
42.675322 85.070 -167.9687
42.984565 85.081 -168.0129
43.296048 85.095 -168.0820
43.609789 85.109 -168.1754
43.925804 85.123 -168.2860
44.244108 85.135 -168.4042
44.564719 85.147 -168.5238
44.887654 85.159 -168.6433
45.212928 85.171 -168.7654
45.540560 85.182 -168.8916
45.870565 85.191 -169.0190
46.202962 85.198 -169.1393
46.537768 85.203 -169.2417
46.875000 85.207 -169.3183
47.214676 85.212 -169.3697
47.556813 85.220 -169.4046
47.901429 85.232 -169.4372
48.248542 85.246 -169.4803
48.598171 85.261 -169.5409
48.950334 85.275 -169.6183
49.305048 85.287 -169.7066
49.662333 85.295 -169.7986
50.022206 85.302 -169.8890
50.384688 85.307 -169.9754
50.749796 85.310 -170.0577
51.117550 85.313 -170.1371
51.487969 85.315 -170.2147
51.861072 85.316 -170.2914
52.236879 85.316 -170.3679
52.615409 85.317 -170.4446
52.996681 85.317 -170.5220
53.380717 85.317 -170.5999
53.767536 85.317 -170.6785
54.157158 85.317 -170.7580
54.549603 85.318 -170.8380
54.944892 85.319 -170.9179
55.343045 85.322 -170.9968
55.744084 85.326 -171.0749
56.148028 85.332 -171.1541
56.554900 85.340 -171.2381
56.964720 85.349 -171.3312
57.377510 85.360 -171.4352
57.793291 85.371 -171.5485
58.212085 85.382 -171.6669
58.633914 85.392 -171.7859
59.058799 85.402 -171.9032
59.486764 85.412 -172.0191
59.917829 85.421 -172.1352
60.352019 85.430 -172.2520
60.789354 85.438 -172.3682
61.229859 85.444 -172.4813
61.673556 85.449 -172.5898
62.120468 85.453 -172.6936
62.570618 85.457 -172.7932
63.024031 85.459 -172.8889
63.480729 85.460 -172.9795
63.940736 85.460 -173.0638
64.404077 85.461 -173.1417
64.870776 85.461 -173.2145
65.340856 85.462 -173.2844
65.814343 85.464 -173.3532
66.291261 85.466 -173.4220
