* Measurement data measured by REW V5.31
* Source: EXCL: Microphone (USB Sound Device        ), MICROPHONE (Master Volume), L, volume: 0.390
* Format: 256k Log Swept Sine, 1 sweep at -4.0 dBFS with no timing reference
* Dated: Aug 23, 2024 12:56:01 AM
* REW Settings:
*  C-weighting compensation: Off
*  Target level: 75.0 dB
* Note: KZ AS24 Pro 1100 L
* Measurement: L AS24 Pro 1100
* Smoothing: 1/12 octave
* Frequency Step: 96 ppo
* Start Frequency: 0.36621094 Hz
*
* Freq(Hz) SPL(dB) Phase(degrees)
0.366211 86.455 160.2319
0.368865 86.446 160.2142
0.371538 86.433 160.1876
0.374230 86.416 160.1541
0.376942 86.398 160.1153
0.379673 86.378 160.0725
0.382424 86.357 160.0264
0.385196 86.336 159.9777
0.387987 86.314 159.9264
0.390798 86.292 159.8729
0.393630 86.270 159.8171
0.396483 86.248 159.7591
0.399356 86.225 159.6988
0.402250 86.202 159.6364
0.405165 86.179 159.5717
0.408101 86.156 159.5047
0.411058 86.133 159.4355
0.414037 86.110 159.3639
0.417037 86.086 159.2901
0.420059 86.063 159.2139
0.423103 86.039 159.1353
0.426169 86.015 159.0543
0.429257 85.990 158.9709
0.432368 85.966 158.8851
0.435501 85.941 158.7968
0.438656 85.917 158.7061
0.441835 85.892 158.6129
0.445037 85.866 158.5171
0.448262 85.841 158.4188
0.451510 85.816 158.3180
0.454782 85.790 158.2146
0.458077 85.764 158.1086
0.461397 85.738 158.0000
0.464740 85.712 157.8888
0.468108 85.685 157.7750
0.471500 85.659 157.6585
0.474917 85.632 157.5393
0.478358 85.605 157.4175
0.481825 85.578 157.2930
0.485316 85.550 157.1658
0.488833 85.523 157.0359
0.492375 85.495 156.9033
0.495943 85.467 156.7679
0.499537 85.439 156.6298
0.503157 85.410 156.4890
0.506803 85.382 156.3455
0.510475 85.353 156.1992
0.514175 85.324 156.0502
0.517900 85.295 155.8985
0.521653 85.265 155.7440
0.525434 85.235 155.5869
0.529241 85.206 155.4270
0.533076 85.175 155.2645
0.536939 85.145 155.0992
0.540830 85.115 154.9313
0.544749 85.084 154.7608
0.548696 85.053 154.5876
0.552673 85.022 154.4118
0.556677 84.990 154.2335
0.560711 84.959 154.0527
0.564774 84.927 153.8694
0.568867 84.895 153.6836
0.572989 84.862 153.4955
0.577141 84.830 153.3049
0.581324 84.797 153.1121
0.585536 84.764 152.9171
0.589779 84.730 152.7199
0.594053 84.697 152.5206
0.598358 84.663 152.3193
0.602694 84.629 152.1160
0.607061 84.595 151.9109
0.611460 84.560 151.7041
0.615891 84.525 151.4956
0.620354 84.490 151.2856
0.624849 84.455 151.0742
0.629377 84.420 150.8615
0.633938 84.384 150.6477
0.638532 84.348 150.4328
0.643159 84.311 150.2171
0.647819 84.275 150.0008
0.652514 84.238 149.7840
0.657242 84.201 149.5669
0.662005 84.163 149.3497
0.666802 84.126 149.1325
0.671634 84.088 148.9158
0.676501 84.050 148.6996
0.681403 84.011 148.4843
0.686341 83.972 148.2701
0.691314 83.933 148.0572
0.696324 83.894 147.8460
0.701370 83.853 147.6367
0.706452 83.813 147.4296
0.711571 83.770 147.2248
0.716728 83.727 147.0224
0.721921 83.680 146.8221
0.727153 83.630 146.6236
0.732422 83.575 146.4260
0.737729 83.515 146.2285
0.743075 83.449 146.0297
0.748460 83.378 145.8288
0.753883 83.303 145.6250
0.759346 83.225 145.4178
0.764849 83.145 145.2067
0.770391 83.062 144.9915
0.775974 82.977 144.7722
0.781597 82.889 144.5484
0.787261 82.800 144.3202
0.792966 82.709 144.0875
0.798712 82.615 143.8501
0.804500 82.520 143.6080
0.810329 82.423 143.3612
0.816201 82.324 143.1096
0.822116 82.222 142.8532
0.828073 82.119 142.5918
0.834074 82.014 142.3255
0.840118 81.907 142.0542
0.846206 81.797 141.7779
0.852338 81.686 141.4965
0.858514 81.573 141.2101
0.864735 81.458 140.9186
0.871001 81.341 140.6219
0.877313 81.222 140.3203
0.883670 81.101 140.0135
0.890074 80.978 139.7018
0.896524 80.853 139.3850
0.903020 80.726 139.0634
0.909564 80.597 138.7370
0.916155 80.466 138.4059
0.922794 80.334 138.0703
0.929481 80.199 137.7303
0.936216 80.063 137.3861
0.943000 79.925 137.0380
0.949834 79.785 136.6862
0.956717 79.643 136.3311
0.963649 79.499 135.9731
0.970632 79.354 135.6125
0.977666 79.207 135.2498
0.984750 79.058 134.8857
0.991886 78.908 134.5207
0.999074 78.756 134.1556
1.006314 78.602 133.7913
1.013606 78.447 133.4286
1.020951 78.290 133.0686
1.028349 78.132 132.7124
1.035801 77.972 132.3616
1.043307 77.811 132.0174
1.050867 77.649 131.6817
1.058482 77.485 131.3562
1.066152 77.319 131.0429
1.073878 77.151 130.7440
1.081660 76.982 130.4616
1.089498 76.809 130.1979
1.097393 76.632 129.9550
1.105345 76.449 129.7346
1.113355 76.260 129.5384
1.121423 76.062 129.3682
1.129549 75.855 129.2259
1.137734 75.639 129.1138
1.145979 75.414 129.0345
1.154283 75.179 128.9911
1.162647 74.936 128.9875
1.171072 74.685 129.0283
1.179558 74.425 129.1187
1.188106 74.159 129.2653
1.196715 73.886 129.4760
1.205387 73.607 129.7605
1.214122 73.324 130.1304
1.222920 73.036 130.6006
1.231782 72.746 131.1896
1.240708 72.453 131.9207
1.249699 72.158 132.8241
1.258754 71.864 133.9392
1.267876 71.570 135.3177
1.277063 71.278 137.0293
1.286318 70.989 139.1685
1.295639 70.704 141.8657
1.305027 70.424 145.3023
1.314484 70.152 149.7297
1.324009 69.888 155.4881
1.333604 69.634 163.0020
1.343268 69.391 172.6916
1.353002 69.161 -175.3077
1.362806 68.946 -161.6003
1.372681 68.747 -147.6677
1.382628 68.567 -135.1284
1.392647 68.408 -124.8318
1.402739 68.271 -116.7893
1.412904 68.160 -110.6177
1.423142 68.075 -105.8798
1.433455 68.020 -102.2118
1.443843 67.998 -99.3416
1.454305 68.009 -97.0733
1.464844 68.058 -95.2665
1.475459 68.145 -93.8206
1.486150 68.271 -92.6619
1.496920 68.437 -91.7356
1.507767 68.642 -90.9996
1.518693 68.885 -90.4211
1.529698 69.164 -89.9737
1.540783 69.478 -89.6366
1.551948 69.825 -89.3924
1.563194 70.201 -89.2272
1.574521 70.604 -89.1293
1.585931 71.033 -89.0892
1.597423 71.484 -89.0987
1.608999 71.954 -89.1510
1.620658 72.441 -89.2405
1.632402 72.942 -89.3623
1.644232 73.453 -89.5123
1.656146 73.972 -89.6868
1.668147 74.496 -89.8828
1.680235 75.021 -90.0976
1.692411 75.544 -90.3291
1.704675 76.061 -90.5751
1.717028 76.570 -90.8341
1.729470 77.067 -91.1046
1.742003 77.548 -91.3853
1.754626 78.010 -91.6754
1.767341 78.451 -91.9742
1.780147 78.868 -92.2815
1.793047 79.259 -92.5977
1.806040 79.622 -92.9238
1.819128 79.958 -93.2614
1.832310 80.268 -93.6129
1.845587 80.554 -93.9810
1.858961 80.818 -94.3677
1.872432 81.064 -94.7742
1.886001 81.293 -95.2001
1.899667 81.507 -95.6447
1.913433 81.706 -96.1062
1.927299 81.892 -96.5828
1.941265 82.065 -97.0723
1.955332 82.226 -97.5726
1.969501 82.377 -98.0816
1.983773 82.517 -98.5974
1.998148 82.648 -99.1178
2.012627 82.771 -99.6411
2.027212 82.886 -100.1654
2.041902 82.995 -100.6891
2.056698 83.098 -101.2104
2.071602 83.198 -101.7279
2.086614 83.294 -102.2402
2.101734 83.387 -102.7459
2.116964 83.480 -103.2440
2.132304 83.573 -103.7339
2.147756 83.667 -104.2153
2.163320 83.761 -104.6890
2.178996 83.857 -105.1564
2.194786 83.954 -105.6202
2.210690 84.049 -106.0838
2.226710 84.144 -106.5508
2.242845 84.235 -107.0237
2.259098 84.323 -107.5042
2.275468 84.406 -107.9926
2.291957 84.485 -108.4887
2.308566 84.560 -108.9914
2.325295 84.630 -109.4995
2.342145 84.697 -110.0112
2.359117 84.759 -110.5248
2.376212 84.818 -111.0387
2.393431 84.873 -111.5507
2.410775 84.925 -112.0589
2.428244 84.974 -112.5613
2.445840 85.020 -113.0558
2.463564 85.064 -113.5406
2.481416 85.106 -114.0138
2.499397 85.146 -114.4739
2.517509 85.185 -114.9200
2.535752 85.221 -115.3518
2.554127 85.256 -115.7702
2.572635 85.289 -116.1769
2.591277 85.318 -116.5744
2.610055 85.345 -116.9650
2.628968 85.369 -117.3505
2.648019 85.389 -117.7317
2.667208 85.405 -118.1090
2.686535 85.419 -118.4821
2.706003 85.429 -118.8504
2.725612 85.437 -119.2129
2.745363 85.442 -119.5684
2.765257 85.445 -119.9156
2.785295 85.446 -120.2529
2.805478 85.445 -120.5789
2.825808 85.443 -120.8916
2.846285 85.440 -121.1895
2.866910 85.436 -121.4708
2.887685 85.431 -121.7341
2.908611 85.425 -121.9781
2.929688 85.418 -122.2021
2.950917 85.410 -122.4060
2.972301 85.401 -122.5900
2.993839 85.389 -122.7547
3.015534 85.376 -122.9007
3.037386 85.360 -123.0286
3.059396 85.344 -123.1393
3.081565 85.326 -123.2331
3.103896 85.307 -123.3109
3.126388 85.287 -123.3731
3.149043 85.268 -123.4204
3.171862 85.250 -123.4531
3.194847 85.232 -123.4717
3.217998 85.215 -123.4762
3.241317 85.201 -123.4664
3.264805 85.188 -123.4415
3.288463 85.178 -123.4003
3.312293 85.169 -123.3412
3.336295 85.163 -123.2627
3.360471 85.158 -123.1639
3.384822 85.154 -123.0454
3.409350 85.152 -122.9085
3.434056 85.152 -122.7553
3.458940 85.153 -122.5888
3.484005 85.156 -122.4123
3.509252 85.162 -122.2292
3.534681 85.169 -122.0431
3.560295 85.179 -121.8576
3.586094 85.192 -121.6756
3.612081 85.207 -121.4994
3.638255 85.226 -121.3301
3.664620 85.248 -121.1679
3.691175 85.274 -121.0117
3.717923 85.303 -120.8605
3.744864 85.335 -120.7136
3.772001 85.371 -120.5717
3.799335 85.410 -120.4361
3.826866 85.451 -120.3088
3.854597 85.494 -120.1924
3.882529 85.539 -120.0893
3.910664 85.585 -120.0025
3.939002 85.632 -119.9344
3.967546 85.679 -119.8873
3.996296 85.727 -119.8628
4.025255 85.775 -119.8621
4.054423 85.824 -119.8851
4.083804 85.874 -119.9315
4.113396 85.924 -120.0003
4.143204 85.975 -120.0905
4.173227 86.026 -120.2010
4.203468 86.077 -120.3308
4.233928 86.127 -120.4789
4.264609 86.176 -120.6446
4.295512 86.224 -120.8274
4.326639 86.270 -121.0273
4.357992 86.314 -121.2447
4.389572 86.355 -121.4802
4.421380 86.393 -121.7347
4.453419 86.430 -122.0088
4.485691 86.463 -122.3019
4.518196 86.495 -122.6127
4.550936 86.523 -122.9388
4.583914 86.550 -123.2771
4.617131 86.573 -123.6248
4.650589 86.594 -123.9786
4.684289 86.612 -124.3362
4.718233 86.627 -124.6959
4.752424 86.638 -125.0571
4.786862 86.646 -125.4204
4.821549 86.651 -125.7864
4.856488 86.652 -126.1554
4.891680 86.650 -126.5265
4.927127 86.645 -126.8980
4.962831 86.637 -127.2673
4.998794 86.627 -127.6314
5.035017 86.614 -127.9872
5.071503 86.600 -128.3321
5.108253 86.583 -128.6640
5.145270 86.564 -128.9819
5.182555 86.543 -129.2857
5.220110 86.521 -129.5757
5.257937 86.496 -129.8522
5.296038 86.470 -130.1152
5.334415 86.444 -130.3644
5.373071 86.417 -130.5993
5.412006 86.390 -130.8191
5.451224 86.364 -131.0226
5.490725 86.339 -131.2087
5.530514 86.315 -131.3768
5.570590 86.292 -131.5269
5.610957 86.271 -131.6597
5.651616 86.251 -131.7771
5.692570 86.233 -131.8816
5.733821 86.218 -131.9755
5.775370 86.205 -132.0611
5.817221 86.195 -132.1401
5.859375 86.189 -132.2139
5.901834 86.187 -132.2840
5.944602 86.188 -132.3535
5.987679 86.193 -132.4257
6.031068 86.201 -132.5041
6.074771 86.212 -132.5918
6.118792 86.226 -132.6912
6.163131 86.244 -132.8043
6.207792 86.264 -132.9325
6.252776 86.286 -133.0766
6.298086 86.312 -133.2369
6.343725 86.340 -133.4135
6.389694 86.370 -133.6061
6.435996 86.402 -133.8145
6.482634 86.434 -134.0393
6.529610 86.468 -134.2814
6.576926 86.501 -134.5424
6.624585 86.535 -134.8238
6.672590 86.568 -135.1262
6.720942 86.601 -135.4486
6.769645 86.633 -135.7890
6.818700 86.664 -136.1446
6.868111 86.694 -136.5129
6.917881 86.723 -136.8918
6.968010 86.749 -137.2800
7.018504 86.774 -137.6764
7.069362 86.796 -138.0794
7.120590 86.817 -138.4869
7.172189 86.836 -138.8959
7.224161 86.853 -139.3030
7.276511 86.868 -139.7055
7.329239 86.882 -140.1009
7.382350 86.894 -140.4879
7.435845 86.905 -140.8653
7.489729 86.915 -141.2321
7.544002 86.924 -141.5869
7.598669 86.933 -141.9279
7.653732 86.941 -142.2536
7.709194 86.950 -142.5629
7.765058 86.960 -142.8554
7.821327 86.970 -143.1313
7.878004 86.981 -143.3914
7.935091 86.994 -143.6368
7.992592 87.009 -143.8684
8.050510 87.025 -144.0872
8.108847 87.044 -144.2941
8.167607 87.066 -144.4901
8.226793 87.090 -144.6772
8.286408 87.116 -144.8574
8.346454 87.144 -145.0333
8.406936 87.176 -145.2070
8.467856 87.209 -145.3799
8.529218 87.244 -145.5534
8.591024 87.282 -145.7285
8.653278 87.321 -145.9065
8.715983 87.362 -146.0886
8.779143 87.403 -146.2758
8.842760 87.445 -146.4686
8.906839 87.488 -146.6671
8.971381 87.531 -146.8707
9.036392 87.574 -147.0787
9.101873 87.616 -147.2904
9.167829 87.658 -147.5048
9.234263 87.699 -147.7213
9.301178 87.738 -147.9384
9.368578 87.777 -148.1548
9.436467 87.814 -148.3689
9.504847 87.850 -148.5791
9.573723 87.885 -148.7841
9.643099 87.918 -148.9830
9.712976 87.949 -149.1749
9.783361 87.977 -149.3587
9.854255 88.003 -149.5338
9.925663 88.026 -149.6995
9.997588 88.046 -149.8557
10.070035 88.063 -150.0026
10.143007 88.078 -150.1405
10.216507 88.092 -150.2700
10.290540 88.104 -150.3917
10.365109 88.114 -150.5061
10.440219 88.124 -150.6143
10.515873 88.133 -150.7172
10.592076 88.142 -150.8160
10.668830 88.151 -150.9115
10.746141 88.159 -151.0045
10.824012 88.167 -151.0956
10.902447 88.174 -151.1856
10.981451 88.182 -151.2749
11.061027 88.188 -151.3639
11.141180 88.194 -151.4527
11.221913 88.199 -151.5413
11.303232 88.203 -151.6297
11.385140 88.206 -151.7177
11.467641 88.208 -151.8052
11.550741 88.210 -151.8920
11.634442 88.210 -151.9781
11.718750 88.210 -152.0632
11.803669 88.210 -152.1474
11.889203 88.209 -152.2309
11.975357 88.208 -152.3140
12.062136 88.206 -152.3969
12.149543 88.204 -152.4802
12.237583 88.202 -152.5643
12.326262 88.200 -152.6499
12.415583 88.197 -152.7375
12.505552 88.193 -152.8279
12.596172 88.189 -152.9213
12.687449 88.185 -153.0182
12.779387 88.179 -153.1190
12.871992 88.173 -153.2237
12.965268 88.166 -153.3325
13.059220 88.159 -153.4451
13.153852 88.151 -153.5613
13.249170 88.142 -153.6809
13.345179 88.133 -153.8037
13.441884 88.124 -153.9293
13.539289 88.115 -154.0574
13.637401 88.106 -154.1881
13.736223 88.097 -154.3214
13.835761 88.088 -154.4575
13.936021 88.079 -154.5968
14.037007 88.070 -154.7399
14.138725 88.062 -154.8874
14.241180 88.055 -155.0401
14.344377 88.048 -155.1988
14.448323 88.041 -155.3641
14.553021 88.035 -155.5366
14.658478 88.029 -155.7167
14.764700 88.024 -155.9045
14.871691 88.019 -156.0999
14.979457 88.015 -156.3022
15.088005 88.011 -156.5109
15.197339 88.007 -156.7249
15.307465 88.003 -156.9430
15.418389 87.999 -157.1640
15.530117 87.996 -157.3866
15.642655 87.993 -157.6096
15.756008 87.990 -157.8320
15.870182 87.989 -158.0530
15.985184 87.987 -158.2720
16.101019 87.987 -158.4888
16.217694 87.988 -158.7034
16.335214 87.990 -158.9161
16.453586 87.994 -159.1273
16.572815 87.999 -159.3374
16.692909 88.005 -159.5469
16.813872 88.013 -159.7560
16.935713 88.022 -159.9649
17.058436 88.032 -160.1734
17.182048 88.043 -160.3812
17.306556 88.055 -160.5874
17.431967 88.067 -160.7914
17.558286 88.080 -160.9921
17.685521 88.092 -161.1884
17.813677 88.104 -161.3795
17.942762 88.117 -161.5644
18.072783 88.129 -161.7425
18.203746 88.141 -161.9133
18.335658 88.153 -162.0768
18.468526 88.166 -162.2328
18.602356 88.178 -162.3816
18.737156 88.191 -162.5236
18.872934 88.204 -162.6592
19.009695 88.217 -162.7888
19.147447 88.229 -162.9129
19.286197 88.242 -163.0318
19.425953 88.254 -163.1458
19.566721 88.266 -163.2553
19.708510 88.278 -163.3607
19.851326 88.289 -163.4625
19.995177 88.299 -163.5611
20.140070 88.308 -163.6573
20.286013 88.317 -163.7517
20.433014 88.325 -163.8452
20.581080 88.332 -163.9386
20.730219 88.339 -164.0325
20.880439 88.345 -164.1276
21.031747 88.350 -164.2241
21.184152 88.354 -164.3226
21.337661 88.358 -164.4229
21.492282 88.360 -164.5253
21.648024 88.363 -164.6299
21.804895 88.364 -164.7367
21.962902 88.365 -164.8461
22.122054 88.366 -164.9586
22.282360 88.366 -165.0750
22.443827 88.366 -165.1960
22.606464 88.367 -165.3225
22.770280 88.367 -165.4553
22.935283 88.366 -165.5948
23.101481 88.366 -165.7412
23.268884 88.366 -165.8944
23.437500 88.365 -166.0537
23.607338 88.364 -166.2183
23.778406 88.363 -166.3870
23.950714 88.362 -166.5590
24.124271 88.361 -166.7331
24.299086 88.361 -166.9088
24.475167 88.361 -167.0857
24.652524 88.362 -167.2640
24.831166 88.364 -167.4437
25.011103 88.367 -167.6255
25.192344 88.371 -167.8096
25.374898 88.376 -167.9960
25.558775 88.381 -168.1845
25.743984 88.387 -168.3742
25.930536 88.393 -168.5638
26.118439 88.399 -168.7514
26.307704 88.405 -168.9352
26.498341 88.411 -169.1129
26.690359 88.417 -169.2830
26.883768 88.423 -169.4442
27.078579 88.429 -169.5959
27.274801 88.436 -169.7384
27.472446 88.443 -169.8729
27.671522 88.452 -170.0009
27.872042 88.461 -170.1246
28.074014 88.470 -170.2460
28.277450 88.479 -170.3669
28.482360 88.488 -170.4884
28.688755 88.497 -170.6111
28.896645 88.505 -170.7346
29.106042 88.512 -170.8584
29.316957 88.518 -170.9817
29.529400 88.523 -171.1037
29.743382 88.527 -171.2244
29.958915 88.530 -171.3442
30.176009 88.533 -171.4642
30.394677 88.536 -171.5858
30.614929 88.539 -171.7106
30.836778 88.541 -171.8398
31.060234 88.542 -171.9738
31.285309 88.543 -172.1127
31.512015 88.543 -172.2557
31.740364 88.542 -172.4018
31.970368 88.541 -172.5500
32.202039 88.540 -172.6996
32.435388 88.538 -172.8504
32.670428 88.537 -173.0029
32.907171 88.536 -173.1575
33.145630 88.536 -173.3150
33.385817 88.536 -173.4756
33.627745 88.537 -173.6390
33.871425 88.537 -173.8047
34.116871 88.538 -173.9713
34.364096 88.539 -174.1377
34.613113 88.540 -174.3028
34.863934 88.541 -174.4659
35.116572 88.543 -174.6268
35.371041 88.545 -174.7859
35.627354 88.548 -174.9435
35.885525 88.551 -175.1001
36.145566 88.553 -175.2557
36.407492 88.556 -175.4100
36.671316 88.558 -175.5624
36.937051 88.560 -175.7122
37.204712 88.561 -175.8590
37.474313 88.562 -176.0027
37.745867 88.563 -176.1439
38.019389 88.564 -176.2835
38.294893 88.565 -176.4227
38.572394 88.565 -176.5623
38.851905 88.565 -176.7031
39.133442 88.565 -176.8447
39.417019 88.564 -176.9869
39.702651 88.562 -177.1288
39.990353 88.560 -177.2697
40.280140 88.557 -177.4088
40.572026 88.554 -177.5457
40.866028 88.551 -177.6799
41.162160 88.548 -177.8111
41.460438 88.545 -177.9399
41.760877 88.544 -178.0677
42.063494 88.543 -178.1972
42.368303 88.542 -178.3311
42.675322 88.542 -178.4719
42.984565 88.542 -178.6201
43.296048 88.540 -178.7736
43.609789 88.537 -178.9284
43.925804 88.532 -179.0793
44.244108 88.527 -179.2223
44.564719 88.522 -179.3564
44.887654 88.517 -179.4838
45.212928 88.514 -179.6094
45.540560 88.512 -179.7384
45.870565 88.510 -179.8743
46.202962 88.508 179.9821
46.537768 88.506 179.8328
46.875000 88.503 179.6807
47.214676 88.500 179.5284
47.556813 88.497 179.3764
47.901429 88.494 179.2240
48.248542 88.492 179.0698
48.598171 88.489 178.9129
48.950334 88.486 178.7539
49.305048 88.482 178.5949
49.662333 88.478 178.4384
50.022206 88.472 178.2869
50.384688 88.466 178.1422
50.749796 88.459 178.0055
51.117550 88.452 177.8779
51.487969 88.443 177.7613
51.861072 88.434 177.6580
52.236879 88.425 177.5697
52.615409 88.417 177.4960
52.996681 88.411 177.4328
53.380717 88.406 177.3722
53.767536 88.404 177.3053
54.157158 88.403 177.2253
54.549603 88.401 177.1314
54.944892 88.398 177.0286
55.343045 88.393 176.9260
55.744084 88.387 176.8317
56.148028 88.381 176.7499
56.554900 88.377 176.6791
56.964720 88.376 176.6146
57.377510 88.377 176.5508
57.793291 88.382 176.4839
58.212085 88.389 176.4120
58.633914 88.398 176.3333
59.058799 88.410 176.2450
59.486764 88.425 176.1422
59.917829 88.442 176.0190
60.352019 88.460 175.8706
60.789354 88.477 175.6950
61.229859 88.493 175.4941
61.673556 88.506 175.2726
62.120468 88.515 175.0364
62.570618 88.521 174.7915
63.024031 88.524 174.5426
63.480729 88.524 174.2937
63.940736 88.521 174.0475
64.404077 88.516 173.8062
64.870776 88.510 173.5709
65.340856 88.502 173.3421
65.814343 88.494 173.1202
66.291261 88.485 172.9055
66.771635 88.475 172.6985
