* Measurement data measured by REW V5.31
* Source: EXCL: Microphone (2- USB Sound Device        ), MICROPHONE (Master Volume), L, volume: 0.560
* Format: 256k Log Swept Sine, 1 sweep at -4.0 dBFS with no timing reference
* Dated: Jul 5, 2024 12:02:50 PM
* REW Settings:
*  C-weighting compensation: Off
*  Target level: 75.0 dB
* Note: kz xtra
* Measurement: L KZ Xtra
* Smoothing: 1/12 octave
* Frequency Step: 96 ppo
* Start Frequency: 0.36621094 Hz
*
* Freq(Hz) SPL(dB) Phase(degrees)
0.366211 80.038 165.2428
0.368865 80.033 165.2254
0.371538 80.026 165.1993
0.374230 80.018 165.1667
0.376942 80.008 165.1291
0.379673 79.998 165.0879
0.382424 79.987 165.0440
0.385196 79.976 164.9977
0.387987 79.965 164.9494
0.390798 79.953 164.8993
0.393630 79.942 164.8474
0.396483 79.930 164.7938
0.399356 79.918 164.7385
0.402250 79.906 164.6814
0.405165 79.894 164.6226
0.408101 79.882 164.5620
0.411058 79.870 164.4997
0.414037 79.858 164.4355
0.417037 79.846 164.3696
0.420059 79.834 164.3018
0.423103 79.821 164.2322
0.426169 79.809 164.1607
0.429257 79.796 164.0874
0.432368 79.783 164.0122
0.435501 79.770 163.9350
0.438656 79.758 163.8560
0.441835 79.745 163.7750
0.445037 79.731 163.6921
0.448262 79.718 163.6072
0.451510 79.705 163.5203
0.454782 79.692 163.4314
0.458077 79.678 163.3406
0.461397 79.664 163.2477
0.464740 79.651 163.1528
0.468108 79.637 163.0558
0.471500 79.623 162.9568
0.474917 79.609 162.8557
0.478358 79.595 162.7525
0.481825 79.581 162.6472
0.485316 79.567 162.5399
0.488833 79.552 162.4304
0.492375 79.538 162.3188
0.495943 79.523 162.2051
0.499537 79.508 162.0892
0.503157 79.494 161.9713
0.506803 79.479 161.8511
0.510475 79.464 161.7289
0.514175 79.449 161.6044
0.517900 79.433 161.4779
0.521653 79.418 161.3492
0.525434 79.403 161.2183
0.529241 79.387 161.0853
0.533076 79.371 160.9501
0.536939 79.356 160.8127
0.540830 79.340 160.6733
0.544749 79.324 160.5316
0.548696 79.307 160.3879
0.552673 79.291 160.2421
0.556677 79.275 160.0941
0.560711 79.258 159.9440
0.564774 79.242 159.7918
0.568867 79.225 159.6376
0.572989 79.208 159.4813
0.577141 79.191 159.3230
0.581324 79.174 159.1626
0.585536 79.157 159.0003
0.589779 79.139 158.8360
0.594053 79.122 158.6698
0.598358 79.104 158.5017
0.602694 79.087 158.3317
0.607061 79.069 158.1598
0.611460 79.051 157.9862
0.615891 79.033 157.8108
0.620354 79.014 157.6337
0.624849 78.996 157.4549
0.629377 78.977 157.2745
0.633938 78.959 157.0925
0.638532 78.940 156.9090
0.643159 78.921 156.7241
0.647819 78.902 156.5378
0.652514 78.883 156.3502
0.657242 78.863 156.1613
0.662005 78.844 155.9713
0.666802 78.824 155.7802
0.671634 78.805 155.5881
0.676501 78.785 155.3951
0.681403 78.765 155.2012
0.686341 78.744 155.0067
0.691314 78.724 154.8115
0.696324 78.703 154.6158
0.701370 78.683 154.4196
0.706452 78.662 154.2231
0.711571 78.640 154.0262
0.716728 78.618 153.8288
0.721921 78.595 153.6308
0.727153 78.570 153.4319
0.732422 78.544 153.2315
0.737729 78.517 153.0290
0.743075 78.487 152.8237
0.748460 78.456 152.6149
0.753883 78.424 152.4023
0.759346 78.391 152.1854
0.764849 78.358 151.9641
0.770391 78.324 151.7382
0.775974 78.289 151.5076
0.781597 78.254 151.2723
0.787261 78.219 151.0321
0.792966 78.183 150.7870
0.798712 78.146 150.5370
0.804500 78.109 150.2819
0.810329 78.071 150.0219
0.816201 78.033 149.7568
0.822116 77.994 149.4866
0.828073 77.955 149.2113
0.834074 77.915 148.9308
0.840118 77.874 148.6452
0.846206 77.833 148.3544
0.852338 77.791 148.0583
0.858514 77.749 147.7570
0.864735 77.705 147.4504
0.871001 77.661 147.1386
0.877313 77.617 146.8215
0.883670 77.571 146.4992
0.890074 77.524 146.1716
0.896524 77.477 145.8388
0.903020 77.429 145.5007
0.909564 77.380 145.1575
0.916155 77.330 144.8091
0.922794 77.279 144.4556
0.929481 77.227 144.0971
0.936216 77.174 143.7335
0.943000 77.120 143.3650
0.949834 77.064 142.9917
0.956717 77.008 142.6136
0.963649 76.950 142.2308
0.970632 76.892 141.8435
0.977666 76.831 141.4517
0.984750 76.770 141.0557
0.991886 76.707 140.6556
0.999074 76.643 140.2515
1.006314 76.578 139.8437
1.013606 76.511 139.4323
1.020951 76.442 139.0175
1.028349 76.372 138.5997
1.035801 76.300 138.1791
1.043307 76.227 137.7558
1.050867 76.152 137.3303
1.058482 76.075 136.9027
1.066152 75.996 136.4734
1.073878 75.915 136.0423
1.081660 75.833 135.6096
1.089498 75.748 135.1749
1.097393 75.660 134.7379
1.105345 75.570 134.2978
1.113355 75.477 133.8537
1.121423 75.382 133.4046
1.129549 75.283 132.9498
1.137734 75.182 132.4886
1.145979 75.077 132.0203
1.154283 74.969 131.5443
1.162647 74.859 131.0603
1.171072 74.745 130.5675
1.179558 74.629 130.0656
1.188106 74.510 129.5538
1.196715 74.388 129.0318
1.205387 74.264 128.4989
1.214122 74.138 127.9545
1.222920 74.009 127.3979
1.231782 73.877 126.8283
1.240708 73.744 126.2452
1.249699 73.608 125.6477
1.258754 73.471 125.0350
1.267876 73.332 124.4063
1.277063 73.191 123.7606
1.286318 73.049 123.0970
1.295639 72.905 122.4145
1.305027 72.761 121.7120
1.314484 72.615 120.9884
1.324009 72.469 120.2426
1.333604 72.321 119.4732
1.343268 72.174 118.6791
1.353002 72.026 117.8588
1.362806 71.878 117.0110
1.372681 71.731 116.1342
1.382628 71.583 115.2268
1.392647 71.437 114.2873
1.402739 71.291 113.3139
1.412904 71.146 112.3048
1.423142 71.002 111.2582
1.433455 70.860 110.1719
1.443843 70.718 109.0435
1.454305 70.576 107.8703
1.464844 70.434 106.6487
1.475459 70.290 105.3747
1.486150 70.143 104.0440
1.496920 69.993 102.6514
1.507767 69.840 101.1922
1.518693 69.682 99.6610
1.529698 69.520 98.0528
1.540783 69.355 96.3621
1.551948 69.187 94.5833
1.563194 69.016 92.7112
1.574521 68.844 90.7399
1.585931 68.671 88.6642
1.597423 68.497 86.4789
1.608999 68.324 84.1792
1.620658 68.152 81.7609
1.632402 67.983 79.2210
1.644232 67.817 76.5574
1.656146 67.655 73.7699
1.668147 67.498 70.8600
1.680235 67.348 67.8316
1.692411 67.206 64.6911
1.704675 67.072 61.4477
1.717028 66.948 58.1135
1.729470 66.836 54.7034
1.742003 66.736 51.2345
1.754626 66.651 47.7261
1.767341 66.581 44.1982
1.780147 66.529 40.6715
1.793047 66.495 37.1652
1.806040 66.483 33.6970
1.819128 66.492 30.2813
1.832310 66.525 26.9297
1.845587 66.582 23.6503
1.858961 66.664 20.4499
1.872432 66.772 17.3341
1.886001 66.904 14.3085
1.899667 67.060 11.3780
1.913433 67.238 8.5469
1.927299 67.437 5.8185
1.941265 67.654 3.1949
1.955332 67.889 0.6773
1.969501 68.140 -1.7342
1.983773 68.404 -4.0407
1.998148 68.679 -6.2437
2.012627 68.963 -8.3455
2.027212 69.255 -10.3490
2.041902 69.551 -12.2573
2.056698 69.849 -14.0738
2.071602 70.148 -15.8020
2.086614 70.444 -17.4458
2.101734 70.736 -19.0089
2.116964 71.020 -20.4952
2.132304 71.296 -21.9088
2.147756 71.562 -23.2543
2.163320 71.816 -24.5367
2.178996 72.058 -25.7614
2.194786 72.289 -26.9350
2.210690 72.511 -28.0641
2.226710 72.724 -29.1548
2.242845 72.931 -30.2122
2.259098 73.133 -31.2401
2.275468 73.331 -32.2408
2.291957 73.526 -33.2158
2.308566 73.716 -34.1660
2.325295 73.904 -35.0917
2.342145 74.089 -35.9931
2.359117 74.271 -36.8702
2.376212 74.450 -37.7228
2.393431 74.626 -38.5508
2.410775 74.799 -39.3538
2.428244 74.970 -40.1317
2.445840 75.138 -40.8841
2.463564 75.303 -41.6109
2.481416 75.465 -42.3120
2.499397 75.625 -42.9875
2.517509 75.782 -43.6383
2.535752 75.937 -44.2652
2.554127 76.088 -44.8703
2.572635 76.235 -45.4559
2.591277 76.379 -46.0248
2.610055 76.518 -46.5795
2.628968 76.654 -47.1217
2.648019 76.785 -47.6526
2.667208 76.912 -48.1726
2.686535 77.036 -48.6818
2.706003 77.156 -49.1800
2.725612 77.272 -49.6668
2.745363 77.386 -50.1417
2.765257 77.497 -50.6038
2.785295 77.606 -51.0527
2.805478 77.713 -51.4874
2.825808 77.818 -51.9074
2.846285 77.922 -52.3119
2.866910 78.025 -52.7005
2.887685 78.127 -53.0730
2.908611 78.228 -53.4295
2.929688 78.328 -53.7706
2.950917 78.427 -54.0973
2.972301 78.523 -54.4108
2.993839 78.618 -54.7119
3.015534 78.710 -55.0015
3.037386 78.800 -55.2801
3.059396 78.888 -55.5479
3.081565 78.975 -55.8050
3.103896 79.060 -56.0514
3.126388 79.143 -56.2869
3.149043 79.226 -56.5114
3.171862 79.308 -56.7245
3.194847 79.390 -56.9260
3.217998 79.472 -57.1155
3.241317 79.553 -57.2926
3.264805 79.635 -57.4569
3.288463 79.717 -57.6080
3.312293 79.800 -57.7457
3.336295 79.882 -57.8700
3.360471 79.963 -57.9812
3.384822 80.045 -58.0800
3.409350 80.126 -58.1674
3.434056 80.207 -58.2445
3.458940 80.287 -58.3126
3.484005 80.368 -58.3731
3.509252 80.449 -58.4271
3.534681 80.530 -58.4761
3.560295 80.612 -58.5210
3.586094 80.695 -58.5629
3.612081 80.778 -58.6021
3.638255 80.863 -58.6390
3.664620 80.948 -58.6730
3.691175 81.035 -58.7037
3.717923 81.123 -58.7306
3.744864 81.211 -58.7537
3.772001 81.301 -58.7735
3.799335 81.391 -58.7910
3.826866 81.482 -58.8074
3.854597 81.573 -58.8243
3.882529 81.666 -58.8431
3.910664 81.758 -58.8654
3.939002 81.852 -58.8925
3.967546 81.945 -58.9253
3.996296 82.040 -58.9644
4.025255 82.135 -59.0100
4.054423 82.231 -59.0616
4.083804 82.327 -59.1188
4.113396 82.424 -59.1812
4.143204 82.522 -59.2490
4.173227 82.620 -59.3223
4.203468 82.718 -59.4020
4.233928 82.816 -59.4885
4.264609 82.914 -59.5829
4.295512 83.012 -59.6860
4.326639 83.110 -59.7983
4.357992 83.207 -59.9206
4.389572 83.303 -60.0531
4.421380 83.399 -60.1959
4.453419 83.494 -60.3486
4.485691 83.589 -60.5109
4.518196 83.683 -60.6820
4.550936 83.776 -60.8614
4.583914 83.869 -61.0484
4.617131 83.961 -61.2424
4.650589 84.051 -61.4429
4.684289 84.141 -61.6497
4.718233 84.229 -61.8625
4.752424 84.315 -62.0815
4.786862 84.401 -62.3069
4.821549 84.484 -62.5387
4.856488 84.567 -62.7765
4.891680 84.648 -63.0199
4.927127 84.727 -63.2679
4.962831 84.805 -63.5192
4.998794 84.882 -63.7728
5.035017 84.957 -64.0275
5.071503 85.031 -64.2826
5.108253 85.104 -64.5376
5.145270 85.175 -64.7925
5.182555 85.245 -65.0474
5.220110 85.313 -65.3024
5.257937 85.380 -65.5571
5.296038 85.446 -65.8111
5.334415 85.511 -66.0637
5.373071 85.574 -66.3139
5.412006 85.637 -66.5609
5.451224 85.699 -66.8040
5.490725 85.761 -67.0429
5.530514 85.821 -67.2774
5.570590 85.882 -67.5077
5.610957 85.941 -67.7340
5.651616 86.000 -67.9566
5.692570 86.059 -68.1756
5.733821 86.118 -68.3913
5.775370 86.177 -68.6037
5.817221 86.236 -68.8126
5.859375 86.296 -69.0182
5.901834 86.355 -69.2204
5.944602 86.416 -69.4194
5.987679 86.476 -69.6159
6.031068 86.538 -69.8107
6.074771 86.599 -70.0047
6.118792 86.662 -70.1989
6.163131 86.725 -70.3942
6.207792 86.789 -70.5912
6.252776 86.854 -70.7903
6.298086 86.919 -70.9915
6.343725 86.986 -71.1954
6.389694 87.053 -71.4026
6.435996 87.121 -71.6138
6.482634 87.189 -71.8299
6.529610 87.258 -72.0518
6.576926 87.328 -72.2801
6.624585 87.398 -72.5151
6.672590 87.468 -72.7570
6.720942 87.539 -73.0056
6.769645 87.610 -73.2610
6.818700 87.682 -73.5232
6.868111 87.753 -73.7923
6.917881 87.824 -74.0684
6.968010 87.895 -74.3515
7.018504 87.965 -74.6415
7.069362 88.035 -74.9381
7.120590 88.105 -75.2406
7.172189 88.175 -75.5484
7.224161 88.244 -75.8607
7.276511 88.312 -76.1768
7.329239 88.380 -76.4962
7.382350 88.447 -76.8185
7.435845 88.513 -77.1433
7.489729 88.579 -77.4699
7.544002 88.645 -77.7975
7.598669 88.709 -78.1252
7.653732 88.774 -78.4522
7.709194 88.838 -78.7779
7.765058 88.902 -79.1021
7.821327 88.965 -79.4244
7.878004 89.028 -79.7447
7.935091 89.091 -80.0624
7.992592 89.155 -80.3774
8.050510 89.218 -80.6893
8.108847 89.282 -80.9981
8.167607 89.345 -81.3038
8.226793 89.410 -81.6067
8.286408 89.475 -81.9070
8.346454 89.540 -82.2053
8.406936 89.606 -82.5017
8.467856 89.673 -82.7966
8.529218 89.740 -83.0902
8.591024 89.808 -83.3831
8.653278 89.877 -83.6757
8.715983 89.946 -83.9687
8.779143 90.016 -84.2624
8.842760 90.087 -84.5572
8.906839 90.158 -84.8533
8.971381 90.229 -85.1510
9.036392 90.301 -85.4503
9.101873 90.373 -85.7515
9.167829 90.446 -86.0547
9.234263 90.518 -86.3597
9.301178 90.591 -86.6665
9.368578 90.664 -86.9746
9.436467 90.736 -87.2838
9.504847 90.808 -87.5937
9.573723 90.880 -87.9039
9.643099 90.952 -88.2140
9.712976 91.024 -88.5237
9.783361 91.095 -88.8323
9.854255 91.166 -89.1393
9.925663 91.237 -89.4444
9.997588 91.307 -89.7472
10.070035 91.377 -90.0474
10.143007 91.447 -90.3449
10.216507 91.517 -90.6392
10.290540 91.586 -90.9305
10.365109 91.656 -91.2185
10.440219 91.725 -91.5035
10.515873 91.795 -91.7855
10.592076 91.865 -92.0648
10.668830 91.934 -92.3417
10.746141 92.004 -92.6162
10.824012 92.073 -92.8889
10.902447 92.143 -93.1600
10.981451 92.213 -93.4298
11.061027 92.283 -93.6987
11.141180 92.352 -93.9668
11.221913 92.422 -94.2343
11.303232 92.491 -94.5014
11.385140 92.560 -94.7682
11.467641 92.629 -95.0347
11.550741 92.697 -95.3009
11.634442 92.765 -95.5667
11.718750 92.833 -95.8320
11.803669 92.900 -96.0967
11.889203 92.967 -96.3606
11.975357 93.033 -96.6235
12.062136 93.099 -96.8854
12.149543 93.164 -97.1461
12.237583 93.229 -97.4056
12.326262 93.294 -97.6639
12.415583 93.358 -97.9210
12.505552 93.422 -98.1772
12.596172 93.486 -98.4324
12.687449 93.549 -98.6870
12.779387 93.612 -98.9412
12.871992 93.675 -99.1954
12.965268 93.738 -99.4497
13.059220 93.801 -99.7045
13.153852 93.863 -99.9602
13.249170 93.925 -100.2168
13.345179 93.987 -100.4747
13.441884 94.049 -100.7340
13.539289 94.111 -100.9948
13.637401 94.172 -101.2572
13.736223 94.233 -101.5212
13.835761 94.294 -101.7869
13.936021 94.355 -102.0541
14.037007 94.415 -102.3230
14.138725 94.476 -102.5934
14.241180 94.536 -102.8655
14.344377 94.596 -103.1392
14.448323 94.656 -103.4146
14.553021 94.716 -103.6919
14.658478 94.777 -103.9711
14.764700 94.837 -104.2526
14.871691 94.898 -104.5366
14.979457 94.959 -104.8232
15.088005 95.020 -105.1127
15.197339 95.081 -105.4054
15.307465 95.143 -105.7015
15.418389 95.205 -106.0012
15.530117 95.268 -106.3046
15.642655 95.330 -106.6118
15.756008 95.393 -106.9230
15.870182 95.457 -107.2382
15.985184 95.521 -107.5575
16.101019 95.585 -107.8809
16.217694 95.650 -108.2086
16.335214 95.716 -108.5406
16.453586 95.782 -108.8771
16.572815 95.848 -109.2182
16.692909 95.915 -109.5643
16.813872 95.983 -109.9154
16.935713 96.051 -110.2719
17.058436 96.120 -110.6341
17.182048 96.189 -111.0023
17.306556 96.260 -111.3767
17.431967 96.330 -111.7578
17.558286 96.401 -112.1457
17.685521 96.473 -112.5408
17.813677 96.545 -112.9434
17.942762 96.618 -113.3539
18.072783 96.691 -113.7726
18.203746 96.764 -114.2000
18.335658 96.838 -114.6365
18.468526 96.911 -115.0827
18.602356 96.985 -115.5391
18.737156 97.059 -116.0062
18.872934 97.133 -116.4847
19.009695 97.207 -116.9752
19.147447 97.280 -117.4781
19.286197 97.353 -117.9939
19.425953 97.424 -118.5229
19.566721 97.495 -119.0654
19.708510 97.565 -119.6215
19.851326 97.633 -120.1912
19.995177 97.700 -120.7743
20.140070 97.764 -121.3706
20.286013 97.827 -121.9798
20.433014 97.888 -122.6014
20.581080 97.946 -123.2351
20.730219 98.002 -123.8803
20.880439 98.055 -124.5364
21.031747 98.105 -125.2026
21.184152 98.152 -125.8782
21.337661 98.196 -126.5621
21.492282 98.236 -127.2533
21.648024 98.273 -127.9505
21.804895 98.306 -128.6523
21.962902 98.336 -129.3571
22.122054 98.362 -130.0635
22.282360 98.385 -130.7697
22.443827 98.404 -131.4742
22.606464 98.419 -132.1754
22.770280 98.432 -132.8719
22.935283 98.441 -133.5625
23.101481 98.447 -134.2462
23.268884 98.450 -134.9220
23.437500 98.451 -135.5893
23.607338 98.450 -136.2473
23.778406 98.446 -136.8955
23.950714 98.440 -137.5335
24.124271 98.432 -138.1608
24.299086 98.423 -138.7768
24.475167 98.412 -139.3811
24.652524 98.400 -139.9731
24.831166 98.387 -140.5524
25.011103 98.373 -141.1187
25.192344 98.358 -141.6717
25.374898 98.343 -142.2114
25.558775 98.327 -142.7378
25.743984 98.311 -143.2513
25.930536 98.296 -143.7523
26.118439 98.281 -144.2413
26.307704 98.266 -144.7190
26.498341 98.252 -145.1862
26.690359 98.238 -145.6434
26.883768 98.225 -146.0914
27.078579 98.212 -146.5307
27.274801 98.200 -146.9618
27.472446 98.189 -147.3852
27.671522 98.178 -147.8010
27.872042 98.168 -148.2096
28.074014 98.158 -148.6110
28.277450 98.148 -149.0055
28.482360 98.139 -149.3930
28.688755 98.131 -149.7737
28.896645 98.123 -150.1478
29.106042 98.115 -150.5154
29.316957 98.108 -150.8769
29.529400 98.101 -151.2328
29.743382 98.095 -151.5836
29.958915 98.090 -151.9298
30.176009 98.085 -152.2722
30.394677 98.081 -152.6116
30.614929 98.077 -152.9486
30.836778 98.074 -153.2838
31.060234 98.071 -153.6176
31.285309 98.068 -153.9503
31.512015 98.065 -154.2819
31.740364 98.063 -154.6121
31.970368 98.060 -154.9407
32.202039 98.058 -155.2672
32.435388 98.055 -155.5915
32.670428 98.053 -155.9132
32.907171 98.051 -156.2325
33.145630 98.049 -156.5497
33.385817 98.047 -156.8651
33.627745 98.046 -157.1795
33.871425 98.046 -157.4935
34.116871 98.045 -157.8078
34.364096 98.045 -158.1227
34.613113 98.044 -158.4384
34.863934 98.044 -158.7548
35.116572 98.043 -159.0716
35.371041 98.043 -159.3882
35.627354 98.042 -159.7042
35.885525 98.041 -160.0191
36.145566 98.040 -160.3328
36.407492 98.039 -160.6458
36.671316 98.038 -160.9587
36.937051 98.037 -161.2723
37.204712 98.036 -161.5876
37.474313 98.036 -161.9050
37.745867 98.035 -162.2246
38.019389 98.033 -162.5460
38.294893 98.032 -162.8684
38.572394 98.029 -163.1911
38.851905 98.027 -163.5135
39.133442 98.025 -163.8356
39.417019 98.022 -164.1576
39.702651 98.020 -164.4802
39.990353 98.018 -164.8039
40.280140 98.016 -165.1291
40.572026 98.013 -165.4554
40.866028 98.011 -165.7822
41.162160 98.008 -166.1086
41.460438 98.006 -166.4342
41.760877 98.003 -166.7587
42.063494 98.000 -167.0823
42.368303 97.998 -167.4057
42.675322 97.996 -167.7294
42.984565 97.993 -168.0540
43.296048 97.991 -168.3793
43.609789 97.988 -168.7050
43.925804 97.985 -169.0302
44.244108 97.981 -169.3544
44.564719 97.977 -169.6771
44.887654 97.973 -169.9980
45.212928 97.969 -170.3171
45.540560 97.964 -170.6349
45.870565 97.960 -170.9520
46.202962 97.955 -171.2692
46.537768 97.951 -171.5874
46.875000 97.946 -171.9075
47.214676 97.942 -172.2298
47.556813 97.937 -172.5545
47.901429 97.932 -172.8811
48.248542 97.926 -173.2090
48.598171 97.920 -173.5373
48.950334 97.914 -173.8656
49.305048 97.907 -174.1935
49.662333 97.901 -174.5208
50.022206 97.894 -174.8474
50.384688 97.887 -175.1728
50.749796 97.880 -175.4967
51.117550 97.873 -175.8189
51.487969 97.866 -176.1397
51.861072 97.859 -176.4595
52.236879 97.852 -176.7791
52.615409 97.846 -177.0988
52.996681 97.839 -177.4189
53.380717 97.832 -177.7393
53.767536 97.824 -178.0598
54.157158 97.817 -178.3804
54.549603 97.809 -178.7010
54.944892 97.801 -179.0220
55.343045 97.793 -179.3436
55.744084 97.784 -179.6659
56.148028 97.775 -179.9884
56.554900 97.766 179.6895
56.964720 97.757 179.3687
57.377510 97.747 179.0495
57.793291 97.738 178.7317
58.212085 97.728 178.4145
58.633914 97.719 178.0969
59.058799 97.710 177.7787
59.486764 97.701 177.4605
59.917829 97.691 177.1434
60.352019 97.681 176.8282
60.789354 97.671 176.5153
61.229859 97.661 176.2043
61.673556 97.651 175.8947
62.120468 97.640 175.5866
62.570618 97.630 175.2802
63.024031 97.620 174.9756
63.480729 97.609 174.6721
63.940736 97.599 174.3688
64.404077 97.589 174.0648
64.870776 97.579 173.7601
65.340856 97.568 173.4549
65.814343 97.558 173.1497
66.291261 97.549 172.8440
66.771635 97.539 172.5367
67.255489 97.530 172.2270
67.742850 97.521 171.9147
68.233743 97.512 171.6009
68.728193 97.503 171.2871
69.226226 97.494 170.9746
69.727867 97.486 170.6641
70.233144 97.477 170.3559
70.742083 97.470 170.0501
71.254709 97.463 169.7463
71.771050 97.457 169.4436
72.291132 97.453 169.1405
