* Measurement data measured by REW V5.31
* Source: EXCL: Microphone (USB Sound Device        ), MICROPHONE (Master Volume), L, volume: 0.560
* Format: 256k Log Swept Sine, 1 sweep at -9.0 dBFS with no timing reference
* Dated: Apr 17, 2024 12:53:21 AM
* REW Settings:
*  C-weighting compensation: Off
*  Target level: 75.0 dB
* Note: zs10
* Measurement: L Apr 17
* Smoothing: 1/12 octave
* Frequency Step: 96 ppo
* Start Frequency: 0.36621094 Hz
*
* Freq(Hz) SPL(dB) Phase(degrees)
0.366211 82.535 157.0853
0.368865 82.529 157.0612
0.371538 82.519 157.0250
0.374230 82.507 156.9794
0.376942 82.494 156.9270
0.379673 82.480 156.8693
0.382424 82.465 156.8075
0.385196 82.450 156.7423
0.387987 82.434 156.6741
0.390798 82.418 156.6030
0.393630 82.402 156.5293
0.396483 82.386 156.4530
0.399356 82.370 156.3739
0.402250 82.354 156.2922
0.405165 82.338 156.2078
0.408101 82.321 156.1208
0.411058 82.304 156.0309
0.414037 82.287 155.9383
0.417037 82.271 155.8430
0.420059 82.254 155.7448
0.423103 82.236 155.6437
0.426169 82.219 155.5398
0.429257 82.202 155.4330
0.432368 82.184 155.3233
0.435501 82.167 155.2106
0.438656 82.149 155.0950
0.441835 82.131 154.9763
0.445037 82.113 154.8546
0.448262 82.095 154.7299
0.451510 82.076 154.6021
0.454782 82.058 154.4712
0.458077 82.039 154.3371
0.461397 82.021 154.2000
0.464740 82.002 154.0596
0.468108 81.983 153.9161
0.471500 81.964 153.7693
0.474917 81.944 153.6194
0.478358 81.925 153.4662
0.481825 81.905 153.3097
0.485316 81.886 153.1499
0.488833 81.866 152.9869
0.492375 81.846 152.8206
0.495943 81.826 152.6509
0.499537 81.806 152.4779
0.503157 81.785 152.3016
0.506803 81.765 152.1219
0.510475 81.744 151.9389
0.514175 81.723 151.7525
0.517900 81.702 151.5628
0.521653 81.681 151.3697
0.525434 81.660 151.1733
0.529241 81.638 150.9735
0.533076 81.617 150.7703
0.536939 81.595 150.5638
0.540830 81.573 150.3540
0.544749 81.551 150.1409
0.548696 81.529 149.9245
0.552673 81.506 149.7048
0.556677 81.484 149.4819
0.560711 81.461 149.2557
0.564774 81.438 149.0263
0.568867 81.415 148.7938
0.572989 81.392 148.5581
0.577141 81.368 148.3194
0.581324 81.345 148.0776
0.585536 81.321 147.8328
0.589779 81.297 147.5851
0.594053 81.273 147.3345
0.598358 81.249 147.0811
0.602694 81.224 146.8249
0.607061 81.200 146.5661
0.611460 81.175 146.3047
0.615891 81.150 146.0408
0.620354 81.125 145.7744
0.624849 81.099 145.5058
0.629377 81.074 145.2349
0.633938 81.048 144.9620
0.638532 81.022 144.6870
0.643159 80.996 144.4102
0.647819 80.970 144.1317
0.652514 80.943 143.8517
0.657242 80.917 143.5702
0.662005 80.890 143.2874
0.666802 80.863 143.0035
0.671634 80.836 142.7188
0.676501 80.808 142.4333
0.681403 80.781 142.1472
0.686341 80.753 141.8609
0.691314 80.725 141.5744
0.696324 80.696 141.2879
0.701370 80.668 141.0018
0.706452 80.639 140.7160
0.711571 80.609 140.4308
0.716728 80.578 140.1459
0.721921 80.546 139.8612
0.727153 80.513 139.5762
0.732422 80.477 139.2899
0.737729 80.439 139.0013
0.743075 80.398 138.7092
0.748460 80.355 138.4126
0.753883 80.311 138.1107
0.759346 80.266 137.8029
0.764849 80.220 137.4888
0.770391 80.173 137.1682
0.775974 80.125 136.8407
0.781597 80.077 136.5064
0.787261 80.028 136.1649
0.792966 79.979 135.8163
0.798712 79.928 135.4605
0.804500 79.877 135.0972
0.810329 79.826 134.7265
0.816201 79.773 134.3482
0.822116 79.720 133.9623
0.828073 79.666 133.5686
0.834074 79.611 133.1671
0.840118 79.556 132.7578
0.846206 79.499 132.3405
0.852338 79.442 131.9152
0.858514 79.383 131.4819
0.864735 79.324 131.0404
0.871001 79.263 130.5908
0.877313 79.202 130.1331
0.883670 79.139 129.6672
0.890074 79.075 129.1931
0.896524 79.010 128.7108
0.903020 78.944 128.2204
0.909564 78.876 127.7219
0.916155 78.807 127.2154
0.922794 78.737 126.7009
0.929481 78.665 126.1785
0.936216 78.592 125.6484
0.943000 78.517 125.1106
0.949834 78.440 124.5654
0.956717 78.362 124.0129
0.963649 78.282 123.4534
0.970632 78.201 122.8871
0.977666 78.117 122.3144
0.984750 78.032 121.7354
0.991886 77.945 121.1506
0.999074 77.855 120.5603
1.006314 77.764 119.9651
1.013606 77.670 119.3654
1.020951 77.574 118.7617
1.028349 77.476 118.1545
1.035801 77.375 117.5446
1.043307 77.272 116.9326
1.050867 77.166 116.3192
1.058482 77.058 115.7050
1.066152 76.946 115.0908
1.073878 76.832 114.4771
1.081660 76.714 113.8641
1.089498 76.593 113.2520
1.097393 76.467 112.6403
1.105345 76.337 112.0280
1.113355 76.202 111.4139
1.121423 76.061 110.7966
1.129549 75.914 110.1747
1.137734 75.761 109.5472
1.145979 75.603 108.9128
1.154283 75.438 108.2704
1.162647 75.268 107.6191
1.171072 75.092 106.9578
1.179558 74.911 106.2854
1.188106 74.725 105.6007
1.196715 74.534 104.9026
1.205387 74.338 104.1897
1.214122 74.139 103.4607
1.222920 73.935 102.7140
1.231782 73.729 101.9482
1.240708 73.519 101.1616
1.249699 73.306 100.3522
1.258754 73.091 99.5183
1.267876 72.874 98.6578
1.277063 72.656 97.7683
1.286318 72.436 96.8477
1.295639 72.216 95.8932
1.305027 71.996 94.9024
1.314484 71.777 93.8722
1.324009 71.558 92.7998
1.333604 71.342 91.6818
1.343268 71.127 90.5149
1.353002 70.915 89.2956
1.362806 70.707 88.0203
1.372681 70.503 86.6853
1.382628 70.304 85.2867
1.392647 70.110 83.8209
1.402739 69.923 82.2841
1.412904 69.743 80.6727
1.423142 69.571 78.9831
1.433455 69.407 77.2121
1.443843 69.251 75.3560
1.454305 69.105 73.4107
1.464844 68.967 71.3712
1.475459 68.837 69.2308
1.486150 68.714 66.9813
1.496920 68.598 64.6130
1.507767 68.488 62.1158
1.518693 68.383 59.4789
1.529698 68.284 56.6921
1.540783 68.191 53.7457
1.551948 68.103 50.6311
1.563194 68.020 47.3423
1.574521 67.944 43.8756
1.585931 67.873 40.2315
1.597423 67.808 36.4155
1.608999 67.749 32.4385
1.620658 67.696 28.3183
1.632402 67.649 24.0792
1.644232 67.609 19.7519
1.656146 67.575 15.3726
1.668147 67.549 10.9808
1.680235 67.528 6.6175
1.692411 67.515 2.3225
1.704675 67.510 -1.8678
1.717028 67.511 -5.9220
1.729470 67.520 -9.8151
1.742003 67.536 -13.5292
1.754626 67.561 -17.0530
1.767341 67.594 -20.3815
1.780147 67.636 -23.5156
1.793047 67.687 -26.4612
1.806040 67.748 -29.2291
1.819128 67.821 -31.8339
1.832310 67.906 -34.2935
1.845587 68.006 -36.6270
1.858961 68.122 -38.8526
1.872432 68.254 -40.9851
1.886001 68.403 -43.0359
1.899667 68.568 -45.0131
1.913433 68.748 -46.9222
1.927299 68.942 -48.7671
1.941265 69.150 -50.5505
1.955332 69.369 -52.2743
1.969501 69.597 -53.9396
1.983773 69.835 -55.5473
1.998148 70.079 -57.0981
2.012627 70.328 -58.5923
2.027212 70.580 -60.0301
2.041902 70.834 -61.4114
2.056698 71.087 -62.7363
2.071602 71.338 -64.0045
2.086614 71.585 -65.2159
2.101734 71.825 -66.3706
2.116964 72.057 -67.4686
2.132304 72.280 -68.5106
2.147756 72.491 -69.4980
2.163320 72.689 -70.4333
2.178996 72.875 -71.3207
2.194786 73.047 -72.1660
2.210690 73.208 -72.9764
2.226710 73.357 -73.7595
2.242845 73.497 -74.5213
2.259098 73.627 -75.2664
2.275468 73.750 -75.9974
2.291957 73.865 -76.7156
2.308566 73.973 -77.4211
2.325295 74.075 -78.1136
2.342145 74.172 -78.7920
2.359117 74.263 -79.4550
2.376212 74.349 -80.1011
2.393431 74.431 -80.7285
2.410775 74.509 -81.3351
2.428244 74.584 -81.9188
2.445840 74.656 -82.4774
2.463564 74.726 -83.0086
2.481416 74.794 -83.5102
2.499397 74.862 -83.9802
2.517509 74.928 -84.4170
2.535752 74.992 -84.8198
2.554127 75.056 -85.1887
2.572635 75.118 -85.5250
2.591277 75.177 -85.8305
2.610055 75.232 -86.1078
2.628968 75.285 -86.3589
2.648019 75.333 -86.5857
2.667208 75.378 -86.7894
2.686535 75.420 -86.9711
2.706003 75.459 -87.1315
2.725612 75.495 -87.2712
2.745363 75.530 -87.3906
2.765257 75.564 -87.4901
2.785295 75.597 -87.5698
2.805478 75.631 -87.6299
2.825808 75.665 -87.6703
2.846285 75.701 -87.6910
2.866910 75.739 -87.6914
2.887685 75.779 -87.6710
2.908611 75.821 -87.6285
2.929688 75.866 -87.5624
2.950917 75.913 -87.4711
2.972301 75.962 -87.3537
2.993839 76.013 -87.2101
3.015534 76.064 -87.0412
3.037386 76.117 -86.8491
3.059396 76.171 -86.6365
3.081565 76.227 -86.4065
3.103896 76.284 -86.1627
3.126388 76.344 -85.9089
3.149043 76.405 -85.6489
3.171862 76.470 -85.3865
3.194847 76.537 -85.1250
3.217998 76.607 -84.8676
3.241317 76.680 -84.6162
3.264805 76.758 -84.3718
3.288463 76.839 -84.1339
3.312293 76.925 -83.9008
3.336295 77.015 -83.6705
3.360471 77.110 -83.4420
3.384822 77.208 -83.2156
3.409350 77.311 -82.9928
3.434056 77.416 -82.7765
3.458940 77.525 -82.5699
3.484005 77.635 -82.3770
3.509252 77.748 -82.2016
3.534681 77.862 -82.0473
3.560295 77.976 -81.9179
3.586094 78.092 -81.8161
3.612081 78.207 -81.7442
3.638255 78.322 -81.7034
3.664620 78.437 -81.6937
3.691175 78.553 -81.7138
3.717923 78.669 -81.7621
3.744864 78.786 -81.8366
3.772001 78.903 -81.9357
3.799335 79.021 -82.0580
3.826866 79.138 -82.2023
3.854597 79.255 -82.3677
3.882529 79.370 -82.5538
3.910664 79.484 -82.7600
3.939002 79.596 -82.9863
3.967546 79.705 -83.2329
3.996296 79.811 -83.5003
4.025255 79.915 -83.7892
4.054423 80.015 -84.1004
4.083804 80.113 -84.4339
4.113396 80.207 -84.7890
4.143204 80.299 -85.1642
4.173227 80.387 -85.5571
4.203468 80.473 -85.9652
4.233928 80.556 -86.3855
4.264609 80.636 -86.8154
4.295512 80.712 -87.2527
4.326639 80.786 -87.6958
4.357992 80.855 -88.1441
4.389572 80.921 -88.5981
4.421380 80.983 -89.0589
4.453419 81.041 -89.5276
4.485691 81.095 -90.0046
4.518196 81.146 -90.4889
4.550936 81.193 -90.9787
4.583914 81.236 -91.4711
4.617131 81.276 -91.9630
4.650589 81.313 -92.4511
4.684289 81.348 -92.9328
4.718233 81.379 -93.4059
4.752424 81.408 -93.8695
4.786862 81.434 -94.3238
4.821549 81.457 -94.7696
4.856488 81.477 -95.2075
4.891680 81.494 -95.6379
4.927127 81.508 -96.0603
4.962831 81.521 -96.4737
4.998794 81.532 -96.8766
5.035017 81.542 -97.2675
5.071503 81.551 -97.6446
5.108253 81.560 -98.0068
5.145270 81.568 -98.3530
5.182555 81.576 -98.6832
5.220110 81.583 -98.9981
5.257937 81.590 -99.2988
5.296038 81.597 -99.5869
5.334415 81.605 -99.8642
5.373071 81.613 -100.1322
5.412006 81.623 -100.3922
5.451224 81.635 -100.6449
5.490725 81.648 -100.8905
5.530514 81.664 -101.1291
5.570590 81.682 -101.3609
5.610957 81.702 -101.5871
5.651616 81.724 -101.8100
5.692570 81.748 -102.0325
5.733821 81.775 -102.2580
5.775370 81.804 -102.4897
5.817221 81.835 -102.7300
5.859375 81.868 -102.9806
5.901834 81.904 -103.2420
5.944602 81.943 -103.5148
5.987679 81.983 -103.7994
6.031068 82.026 -104.0971
6.074771 82.070 -104.4094
6.118792 82.115 -104.7384
6.163131 82.162 -105.0858
6.207792 82.208 -105.4532
6.252776 82.255 -105.8413
6.298086 82.303 -106.2502
6.343725 82.351 -106.6792
6.389694 82.399 -107.1271
6.435996 82.446 -107.5929
6.482634 82.493 -108.0754
6.529610 82.538 -108.5738
6.576926 82.583 -109.0879
6.624585 82.625 -109.6172
6.672590 82.666 -110.1613
6.720942 82.706 -110.7189
6.769645 82.743 -111.2878
6.818700 82.779 -111.8654
6.868111 82.813 -112.4492
6.917881 82.845 -113.0368
6.968010 82.875 -113.6269
7.018504 82.904 -114.2185
7.069362 82.930 -114.8109
7.120590 82.954 -115.4025
7.172189 82.977 -115.9913
7.224161 82.999 -116.5752
7.276511 83.019 -117.1518
7.329239 83.039 -117.7196
7.382350 83.058 -118.2777
7.435845 83.076 -118.8257
7.489729 83.094 -119.3634
7.544002 83.112 -119.8906
7.598669 83.130 -120.4070
7.653732 83.149 -120.9121
7.709194 83.170 -121.4056
7.765058 83.191 -121.8876
7.821327 83.213 -122.3589
7.878004 83.237 -122.8205
7.935091 83.263 -123.2741
7.992592 83.291 -123.7210
8.050510 83.320 -124.1625
8.108847 83.352 -124.5994
8.167607 83.386 -125.0328
8.226793 83.422 -125.4639
8.286408 83.459 -125.8942
8.346454 83.499 -126.3254
8.406936 83.540 -126.7590
8.467856 83.582 -127.1959
8.529218 83.626 -127.6367
8.591024 83.671 -128.0815
8.653278 83.717 -128.5307
8.715983 83.763 -128.9844
8.779143 83.809 -129.4429
8.842760 83.856 -129.9060
8.906839 83.902 -130.3732
8.971381 83.948 -130.8437
9.036392 83.993 -131.3162
9.101873 84.038 -131.7897
9.167829 84.081 -132.2630
9.234263 84.124 -132.7353
9.301178 84.165 -133.2054
9.368578 84.206 -133.6721
9.436467 84.245 -134.1339
9.504847 84.283 -134.5896
9.573723 84.321 -135.0383
9.643099 84.357 -135.4792
9.712976 84.392 -135.9118
9.783361 84.427 -136.3356
9.854255 84.461 -136.7502
9.925663 84.495 -137.1553
9.997588 84.528 -137.5511
10.070035 84.561 -137.9378
10.143007 84.593 -138.3160
10.216507 84.626 -138.6864
10.290540 84.658 -139.0495
10.365109 84.691 -139.4060
10.440219 84.723 -139.7567
10.515873 84.755 -140.1024
10.592076 84.787 -140.4442
10.668830 84.819 -140.7827
10.746141 84.850 -141.1184
10.824012 84.881 -141.4520
10.902447 84.912 -141.7839
10.981451 84.941 -142.1144
11.061027 84.970 -142.4438
11.141180 84.998 -142.7721
11.221913 85.025 -143.0994
11.303232 85.051 -143.4255
11.385140 85.076 -143.7504
11.467641 85.100 -144.0739
11.550741 85.122 -144.3960
11.634442 85.144 -144.7164
11.718750 85.164 -145.0351
11.803669 85.183 -145.3521
11.889203 85.201 -145.6676
11.975357 85.218 -145.9816
12.062136 85.234 -146.2945
12.149543 85.249 -146.6065
12.237583 85.263 -146.9179
12.326262 85.276 -147.2292
12.415583 85.288 -147.5407
12.505552 85.299 -147.8529
12.596172 85.309 -148.1659
12.687449 85.319 -148.4801
12.779387 85.327 -148.7957
12.871992 85.334 -149.1128
12.965268 85.341 -149.4315
13.059220 85.347 -149.7519
13.153852 85.352 -150.0739
13.249170 85.356 -150.3975
13.345179 85.359 -150.7228
13.441884 85.362 -151.0497
13.539289 85.364 -151.3786
13.637401 85.366 -151.7095
13.736223 85.367 -152.0429
13.835761 85.369 -152.3794
13.936021 85.370 -152.7194
14.037007 85.371 -153.0636
14.138725 85.373 -153.4127
14.241180 85.374 -153.7674
14.344377 85.376 -154.1283
14.448323 85.378 -154.4958
14.553021 85.379 -154.8703
14.658478 85.381 -155.2518
14.764700 85.382 -155.6401
14.871691 85.383 -156.0348
14.979457 85.383 -156.4350
15.088005 85.384 -156.8400
15.197339 85.383 -157.2484
15.307465 85.383 -157.6590
15.418389 85.382 -158.0706
15.530117 85.380 -158.4819
15.642655 85.379 -158.8917
15.756008 85.378 -159.2991
15.870182 85.377 -159.7034
15.985184 85.377 -160.1042
16.101019 85.377 -160.5014
16.217694 85.378 -160.8952
16.335214 85.380 -161.2861
16.453586 85.383 -161.6745
16.572815 85.388 -162.0611
16.692909 85.393 -162.4465
16.813872 85.399 -162.8313
16.935713 85.405 -163.2156
17.058436 85.413 -163.5996
17.182048 85.420 -163.9830
17.306556 85.428 -164.3653
17.431967 85.436 -164.7459
17.558286 85.443 -165.1238
17.685521 85.451 -165.4978
17.813677 85.457 -165.8671
17.942762 85.464 -166.2305
18.072783 85.470 -166.5871
18.203746 85.475 -166.9363
18.335658 85.480 -167.2775
18.468526 85.484 -167.6104
18.602356 85.489 -167.9351
18.737156 85.493 -168.2518
18.872934 85.496 -168.5609
19.009695 85.500 -168.8629
19.147447 85.503 -169.1587
19.286197 85.505 -169.4490
19.425953 85.508 -169.7346
19.566721 85.509 -170.0166
19.708510 85.510 -170.2957
19.851326 85.511 -170.5728
19.995177 85.511 -170.8487
20.140070 85.509 -171.1239
20.286013 85.507 -171.3989
20.433014 85.503 -171.6740
20.581080 85.498 -171.9489
20.730219 85.492 -172.2236
20.880439 85.484 -172.4975
21.031747 85.475 -172.7701
21.184152 85.464 -173.0407
21.337661 85.452 -173.3091
21.492282 85.440 -173.5751
21.648024 85.426 -173.8390
21.804895 85.413 -174.1017
21.962902 85.399 -174.3645
22.122054 85.385 -174.6291
22.282360 85.372 -174.8975
22.443827 85.359 -175.1718
22.606464 85.346 -175.4538
22.770280 85.334 -175.7446
22.935283 85.321 -176.0451
23.101481 85.308 -176.3548
23.268884 85.294 -176.6728
23.437500 85.280 -176.9973
23.607338 85.264 -177.3262
23.778406 85.248 -177.6572
23.950714 85.232 -177.9880
24.124271 85.215 -178.3170
24.299086 85.199 -178.6432
24.475167 85.183 -178.9661
24.652524 85.168 -179.2861
24.831166 85.154 -179.6040
25.011103 85.141 -179.9205
25.192344 85.129 179.7635
25.374898 85.117 179.4479
25.558775 85.106 179.1327
25.743984 85.096 178.8187
25.930536 85.085 178.5073
26.118439 85.075 178.1998
26.307704 85.064 177.8977
26.498341 85.054 177.6021
26.690359 85.043 177.3134
26.883768 85.033 177.0317
27.078579 85.023 176.7565
27.274801 85.012 176.4866
27.472446 85.002 176.2211
27.671522 84.992 175.9587
27.872042 84.981 175.6989
28.074014 84.970 175.4412
28.277450 84.957 175.1859
28.482360 84.944 174.9335
28.688755 84.929 174.6846
28.896645 84.913 174.4402
29.106042 84.895 174.2005
29.316957 84.877 173.9655
29.529400 84.858 173.7349
29.743382 84.838 173.5075
29.958915 84.818 173.2819
30.176009 84.798 173.0566
30.394677 84.777 172.8301
30.614929 84.756 172.6014
30.836778 84.734 172.3697
31.060234 84.713 172.1348
31.285309 84.690 171.8968
31.512015 84.668 171.6559
31.740364 84.646 171.4121
31.970368 84.623 171.1652
32.202039 84.601 170.9146
32.435388 84.579 170.6596
32.670428 84.558 170.3998
32.907171 84.536 170.1354
33.145630 84.514 169.8678
33.385817 84.492 169.5990
33.627745 84.469 169.3319
33.871425 84.445 169.0693
34.116871 84.422 168.8135
34.364096 84.399 168.5650
34.613113 84.377 168.3229
34.863934 84.356 168.0847
35.116572 84.336 167.8472
35.371041 84.316 167.6079
35.627354 84.296 167.3663
35.885525 84.274 167.1243
36.145566 84.250 166.8860
36.407492 84.225 166.6573
36.671316 84.198 166.4437
36.937051 84.170 166.2480
37.204712 84.143 166.0699
37.474313 84.116 165.9047
37.745867 84.092 165.7450
38.019389 84.070 165.5822
38.294893 84.048 165.4096
38.572394 84.026 165.2238
38.851905 84.003 165.0260
39.133442 83.978 164.8208
39.417019 83.950 164.6143
39.702651 83.921 164.4119
39.990353 83.891 164.2162
40.280140 83.860 164.0266
40.572026 83.831 163.8398
40.866028 83.802 163.6513
41.162160 83.773 163.4577
41.460438 83.744 163.2576
41.760877 83.715 163.0521
42.063494 83.685 162.8441
42.368303 83.654 162.6371
42.675322 83.622 162.4342
42.984565 83.590 162.2375
43.296048 83.558 162.0473
43.609789 83.526 161.8627
43.925804 83.495 161.6815
44.244108 83.465 161.5014
44.564719 83.436 161.3206
44.887654 83.406 161.1387
45.212928 83.376 160.9574
45.540560 83.346 160.7797
45.870565 83.316 160.6085
46.202962 83.286 160.4446
46.537768 83.257 160.2858
46.875000 83.229 160.1266
47.214676 83.203 159.9612
47.556813 83.177 159.7861
47.901429 83.149 159.6030
48.248542 83.120 159.4185
48.598171 83.088 159.2419
48.950334 83.055 159.0810
49.305048 83.022 158.9383
49.662333 82.991 158.8096
50.022206 82.962 158.6861
50.384688 82.935 158.5576
50.749796 82.908 158.4170
51.117550 82.881 158.2627
51.487969 82.852 158.0983
51.861072 82.821 157.9309
52.236879 82.786 157.7682
52.615409 82.750 157.6167
52.996681 82.713 157.4794
53.380717 82.676 157.3557
53.767536 82.640 157.2414
54.157158 82.606 157.1301
54.549603 82.573 157.0149
54.944892 82.543 156.8907
55.343045 82.512 156.7559
55.744084 82.482 156.6121
56.148028 82.452 156.4626
56.554900 82.421 156.3106
56.964720 82.390 156.1577
57.377510 82.358 156.0042
57.793291 82.326 155.8518
58.212085 82.292 155.7048
58.633914 82.257 155.5700
59.058799 82.221 155.4543
59.486764 82.186 155.3604
59.917829 82.153 155.2835
60.352019 82.123 155.2117
60.789354 82.097 155.1291
61.229859 82.071 155.0229
61.673556 82.044 154.8897
62.120468 82.014 154.7370
62.570618 81.979 154.5787
63.024031 81.941 154.4270
63.480729 81.901 154.2859
63.940736 81.859 154.1534
64.404077 81.815 154.0282
64.870776 81.769 153.9174
65.340856 81.721 153.8333
65.814343 81.674 153.7838
66.291261 81.630 153.7632
66.771635 81.592 153.7545
67.255489 81.558 153.7399
67.742850 81.526 153.7114
68.233743 81.495 153.6705
68.728193 81.465 153.6210
69.226226 81.435 153.5630
69.727867 81.406 153.4922
70.233144 81.377 153.4023
70.742083 81.348 153.2884
71.254709 81.316 153.1514
71.771050 81.280 153.0007
72.291132 81.240 152.8521
