* Measurement data measured by REW V5.31
* Source: EXCL: Microphone (USB Sound Device        ), MICROPHONE (Master Volume), L, volume: 0.560
* Format: 256k Log Swept Sine, 1 sweep at 0.0 dBFS with no timing reference
* Dated: Apr 18, 2024 12:05:40 PM
* REW Settings:
*  C-weighting compensation: Off
*  Target level: 75.0 dB
* Note: KZ ZS10 Pro 2 1000 L
* Measurement: L KZ ZS10 Pro 2 1000
* Smoothing: 1/12 octave
* Frequency Step: 96 ppo
* Start Frequency: 0.36621094 Hz
*
* Freq(Hz) SPL(dB) Phase(degrees)
0.366211 86.146 159.7470
0.368865 86.140 159.7257
0.371538 86.130 159.6938
0.374230 86.119 159.6538
0.376942 86.106 159.6076
0.379673 86.092 159.5569
0.382424 86.077 159.5025
0.385196 86.062 159.4452
0.387987 86.047 159.3853
0.390798 86.031 159.3229
0.393630 86.016 159.2581
0.396483 86.000 159.1910
0.399356 85.984 159.1216
0.402250 85.968 159.0499
0.405165 85.952 158.9758
0.408101 85.935 158.8993
0.411058 85.919 158.8205
0.414037 85.903 158.7392
0.417037 85.886 158.6555
0.420059 85.869 158.5694
0.423103 85.852 158.4808
0.426169 85.836 158.3897
0.429257 85.818 158.2960
0.432368 85.801 158.1998
0.435501 85.784 158.1011
0.438656 85.766 157.9997
0.441835 85.749 157.8958
0.445037 85.731 157.7892
0.448262 85.713 157.6799
0.451510 85.695 157.5680
0.454782 85.677 157.4534
0.458077 85.659 157.3360
0.461397 85.641 157.2160
0.464740 85.622 157.0932
0.468108 85.603 156.9676
0.471500 85.585 156.8392
0.474917 85.566 156.7081
0.478358 85.547 156.5741
0.481825 85.528 156.4373
0.485316 85.508 156.2976
0.488833 85.489 156.1552
0.492375 85.469 156.0098
0.495943 85.449 155.8616
0.499537 85.430 155.7105
0.503157 85.409 155.5565
0.506803 85.389 155.3996
0.510475 85.369 155.2398
0.514175 85.349 155.0771
0.517900 85.328 154.9116
0.521653 85.307 154.7431
0.525434 85.286 154.5717
0.529241 85.265 154.3974
0.533076 85.244 154.2202
0.536939 85.223 154.0402
0.540830 85.201 153.8573
0.544749 85.179 153.6715
0.548696 85.158 153.4829
0.552673 85.136 153.2915
0.556677 85.113 153.0972
0.560711 85.091 152.9002
0.564774 85.069 152.7005
0.568867 85.046 152.4980
0.572989 85.023 152.2928
0.577141 85.000 152.0850
0.581324 84.977 151.8745
0.585536 84.954 151.6615
0.589779 84.930 151.4460
0.594053 84.907 151.2280
0.598358 84.883 151.0076
0.602694 84.859 150.7848
0.607061 84.835 150.5598
0.611460 84.810 150.3325
0.615891 84.786 150.1031
0.620354 84.761 149.8717
0.624849 84.736 149.6382
0.629377 84.711 149.4029
0.633938 84.686 149.1658
0.638532 84.660 148.9271
0.643159 84.635 148.6868
0.647819 84.609 148.4450
0.652514 84.583 148.2019
0.657242 84.557 147.9576
0.662005 84.531 147.7123
0.666802 84.504 147.4661
0.671634 84.477 147.2192
0.676501 84.450 146.9716
0.681403 84.423 146.7237
0.686341 84.396 146.4756
0.691314 84.368 146.2275
0.696324 84.340 145.9795
0.701370 84.312 145.7318
0.706452 84.284 145.4845
0.711571 84.254 145.2378
0.716728 84.224 144.9915
0.721921 84.193 144.7455
0.727153 84.160 144.4993
0.732422 84.125 144.2522
0.737729 84.087 144.0032
0.743075 84.047 143.7513
0.748460 84.006 143.4956
0.753883 83.962 143.2355
0.759346 83.918 142.9705
0.764849 83.873 142.7001
0.770391 83.827 142.4242
0.775974 83.781 142.1427
0.781597 83.734 141.8553
0.787261 83.687 141.5620
0.792966 83.639 141.2626
0.798712 83.590 140.9572
0.804500 83.541 140.6456
0.810329 83.491 140.3277
0.816201 83.441 140.0036
0.822116 83.390 139.6731
0.828073 83.338 139.3361
0.834074 83.285 138.9926
0.840118 83.232 138.6426
0.846206 83.177 138.2860
0.852338 83.122 137.9227
0.858514 83.066 137.5528
0.864735 83.009 137.1761
0.871001 82.950 136.7927
0.877313 82.891 136.4026
0.883670 82.830 136.0057
0.890074 82.769 135.6021
0.896524 82.706 135.1917
0.903020 82.641 134.7746
0.909564 82.576 134.3508
0.916155 82.509 133.9204
0.922794 82.440 133.4834
0.929481 82.370 133.0400
0.936216 82.298 132.5902
0.943000 82.225 132.1342
0.949834 82.149 131.6720
0.956717 82.072 131.2039
0.963649 81.993 130.7301
0.970632 81.912 130.2507
0.977666 81.829 129.7661
0.984750 81.744 129.2764
0.991886 81.657 128.7820
0.999074 81.567 128.2833
1.006314 81.475 127.7805
1.013606 81.380 127.2742
1.020951 81.283 126.7648
1.028349 81.183 126.2527
1.035801 81.080 125.7386
1.043307 80.974 125.2230
1.050867 80.866 124.7066
1.058482 80.754 124.1899
1.066152 80.638 123.6736
1.073878 80.520 123.1581
1.081660 80.397 122.6440
1.089498 80.270 122.1312
1.097393 80.138 121.6195
1.105345 80.001 121.1084
1.113355 79.858 120.5969
1.121423 79.709 120.0840
1.129549 79.553 119.5688
1.137734 79.391 119.0503
1.145979 79.222 118.5279
1.154283 79.047 118.0007
1.162647 78.865 117.4679
1.171072 78.678 116.9289
1.179558 78.484 116.3828
1.188106 78.285 115.8288
1.196715 78.080 115.2659
1.205387 77.870 114.6933
1.214122 77.656 114.1099
1.222920 77.437 113.5147
1.231782 77.215 112.9063
1.240708 76.988 112.2837
1.249699 76.759 111.6453
1.258754 76.527 110.9897
1.267876 76.292 110.3153
1.277063 76.056 109.6202
1.286318 75.818 108.9027
1.295639 75.579 108.1605
1.305027 75.340 107.3915
1.314484 75.101 106.5931
1.324009 74.863 105.7628
1.333604 74.626 104.8975
1.343268 74.392 103.9942
1.353002 74.160 103.0494
1.362806 73.932 102.0593
1.372681 73.708 101.0201
1.382628 73.488 99.9272
1.392647 73.275 98.7762
1.402739 73.067 97.5619
1.412904 72.868 96.2790
1.423142 72.675 94.9220
1.433455 72.492 93.4848
1.443843 72.317 91.9606
1.454305 72.151 90.3423
1.464844 71.993 88.6213
1.475459 71.843 86.7872
1.486150 71.699 84.8276
1.496920 71.561 82.7273
1.507767 71.428 80.4689
1.518693 71.300 78.0319
1.529698 71.176 75.3938
1.540783 71.057 72.5293
1.551948 70.942 69.4113
1.563194 70.833 66.0117
1.574521 70.728 62.3025
1.585931 70.629 58.2584
1.597423 70.536 53.8601
1.608999 70.449 49.0988
1.620658 70.368 43.9813
1.632402 70.294 38.5358
1.644232 70.227 32.8155
1.656146 70.168 26.8990
1.668147 70.116 20.8859
1.680235 70.073 14.8874
1.692411 70.039 9.0140
1.704675 70.013 3.3627
1.717028 69.998 -1.9914
1.729470 69.992 -6.9989
1.742003 69.997 -11.6352
1.754626 70.014 -15.8965
1.767341 70.042 -19.7944
1.780147 70.083 -23.3511
1.793047 70.138 -26.5952
1.806040 70.208 -29.5590
1.819128 70.294 -32.2763
1.832310 70.400 -34.7809
1.845587 70.525 -37.1050
1.858961 70.672 -39.2763
1.872432 70.842 -41.3177
1.886001 71.033 -43.2465
1.899667 71.247 -45.0758
1.913433 71.481 -46.8158
1.927299 71.733 -48.4740
1.941265 72.003 -50.0564
1.955332 72.288 -51.5681
1.969501 72.585 -53.0129
1.983773 72.894 -54.3942
1.998148 73.212 -55.7148
2.012627 73.537 -56.9772
2.027212 73.865 -58.1833
2.041902 74.195 -59.3348
2.056698 74.525 -60.4332
2.071602 74.852 -61.4798
2.086614 75.172 -62.4757
2.101734 75.485 -63.4219
2.116964 75.787 -64.3197
2.132304 76.076 -65.1705
2.147756 76.351 -65.9761
2.163320 76.609 -66.7394
2.178996 76.851 -67.4641
2.194786 77.077 -68.1554
2.210690 77.287 -68.8192
2.226710 77.483 -69.4616
2.242845 77.666 -70.0874
2.259098 77.839 -70.7001
2.275468 78.001 -71.3015
2.291957 78.154 -71.8927
2.308566 78.299 -72.4736
2.325295 78.436 -73.0439
2.342145 78.566 -73.6028
2.359117 78.690 -74.1494
2.376212 78.807 -74.6825
2.393431 78.920 -75.2009
2.410775 79.029 -75.7032
2.428244 79.134 -76.1881
2.445840 79.236 -76.6542
2.463564 79.336 -77.0998
2.481416 79.435 -77.5239
2.499397 79.533 -77.9251
2.517509 79.631 -78.3028
2.535752 79.728 -78.6568
2.554127 79.825 -78.9874
2.572635 79.921 -79.2961
2.591277 80.015 -79.5846
2.610055 80.106 -79.8550
2.628968 80.194 -80.1089
2.648019 80.279 -80.3478
2.667208 80.360 -80.5727
2.686535 80.438 -80.7844
2.706003 80.514 -80.9835
2.725612 80.587 -81.1703
2.745363 80.658 -81.3453
2.765257 80.727 -81.5086
2.785295 80.795 -81.6603
2.805478 80.863 -81.8006
2.825808 80.930 -81.9294
2.846285 80.998 -82.0466
2.866910 81.066 -82.1521
2.887685 81.135 -82.2453
2.908611 81.206 -82.3257
2.929688 81.277 -82.3927
2.950917 81.349 -82.4455
2.972301 81.421 -82.4838
2.993839 81.493 -82.5078
3.015534 81.565 -82.5182
3.037386 81.637 -82.5161
3.059396 81.709 -82.5030
3.081565 81.780 -82.4805
3.103896 81.852 -82.4505
3.126388 81.925 -82.4148
3.149043 81.998 -82.3754
3.171862 82.072 -82.3339
3.194847 82.147 -82.2921
3.217998 82.223 -82.2512
3.241317 82.301 -82.2121
3.264805 82.380 -82.1750
3.288463 82.461 -82.1395
3.312293 82.544 -82.1045
3.336295 82.629 -82.0687
3.360471 82.715 -82.0317
3.384822 82.803 -81.9935
3.409350 82.892 -81.9551
3.434056 82.983 -81.9182
3.458940 83.074 -81.8848
3.484005 83.166 -81.8571
3.509252 83.259 -81.8375
3.534681 83.353 -81.8283
3.560295 83.447 -81.8317
3.586094 83.541 -81.8497
3.612081 83.635 -81.8836
3.638255 83.729 -81.9342
3.664620 83.823 -82.0015
3.691175 83.918 -82.0850
3.717923 84.012 -82.1837
3.744864 84.107 -82.2965
3.772001 84.203 -82.4229
3.799335 84.298 -82.5621
3.826866 84.393 -82.7140
3.854597 84.487 -82.8783
3.882529 84.581 -83.0552
3.910664 84.674 -83.2446
3.939002 84.765 -83.4470
3.967546 84.855 -83.6625
3.996296 84.943 -83.8918
4.025255 85.030 -84.1352
4.054423 85.115 -84.3932
4.083804 85.197 -84.6659
4.113396 85.279 -84.9528
4.143204 85.358 -85.2530
4.173227 85.436 -85.5654
4.203468 85.512 -85.8883
4.233928 85.586 -86.2204
4.264609 85.657 -86.5603
4.295512 85.727 -86.9067
4.326639 85.795 -87.2588
4.357992 85.860 -87.6164
4.389572 85.922 -87.9798
4.421380 85.982 -88.3496
4.453419 86.040 -88.7265
4.485691 86.095 -89.1105
4.518196 86.147 -89.5010
4.550936 86.197 -89.8967
4.583914 86.244 -90.2959
4.617131 86.290 -90.6965
4.650589 86.333 -91.0966
4.684289 86.374 -91.4945
4.718233 86.413 -91.8890
4.752424 86.451 -92.2796
4.786862 86.486 -92.6663
4.821549 86.519 -93.0498
4.856488 86.550 -93.4304
4.891680 86.579 -93.8083
4.927127 86.606 -94.1830
4.962831 86.631 -94.5539
4.998794 86.656 -94.9200
5.035017 86.679 -95.2803
5.071503 86.702 -95.6336
5.108253 86.724 -95.9794
5.145270 86.745 -96.3170
5.182555 86.766 -96.6467
5.220110 86.786 -96.9688
5.257937 86.806 -97.2840
5.296038 86.826 -97.5933
5.334415 86.845 -97.8976
5.373071 86.865 -98.1976
5.412006 86.886 -98.4940
5.451224 86.907 -98.7871
5.490725 86.929 -99.0771
5.530514 86.952 -99.3638
5.570590 86.976 -99.6475
5.610957 87.001 -99.9289
5.651616 87.028 -100.2093
5.692570 87.055 -100.4904
5.733821 87.083 -100.7741
5.775370 87.113 -101.0621
5.817221 87.143 -101.3557
5.859375 87.176 -101.6559
5.901834 87.209 -101.9631
5.944602 87.244 -102.2774
5.987679 87.280 -102.5993
6.031068 87.317 -102.9295
6.074771 87.355 -103.2692
6.118792 87.394 -103.6195
6.163131 87.434 -103.9816
6.207792 87.473 -104.3566
6.252776 87.514 -104.7448
6.298086 87.554 -105.1465
6.343725 87.595 -105.5612
6.389694 87.636 -105.9884
6.435996 87.677 -106.4276
6.482634 87.717 -106.8782
6.529610 87.757 -107.3400
6.576926 87.796 -107.8128
6.624585 87.835 -108.2964
6.672590 87.873 -108.7906
6.720942 87.909 -109.2946
6.769645 87.945 -109.8071
6.818700 87.980 -110.3266
6.868111 88.014 -110.8515
6.917881 88.046 -111.3804
6.968010 88.078 -111.9125
7.018504 88.108 -112.4473
7.069362 88.138 -112.9842
7.120590 88.166 -113.5221
7.172189 88.193 -114.0598
7.224161 88.220 -114.5956
7.276511 88.246 -115.1283
7.329239 88.271 -115.6567
7.382350 88.296 -116.1802
7.435845 88.321 -116.6985
7.489729 88.345 -117.2115
7.544002 88.370 -117.7186
7.598669 88.394 -118.2196
7.653732 88.420 -118.7139
7.709194 88.445 -119.2014
7.765058 88.472 -119.6818
7.821327 88.499 -120.1556
7.878004 88.527 -120.6234
7.935091 88.556 -121.0857
7.992592 88.586 -121.5433
8.050510 88.617 -121.9967
8.108847 88.650 -122.4464
8.167607 88.684 -122.8929
8.226793 88.719 -123.3369
8.286408 88.756 -123.7792
8.346454 88.794 -124.2207
8.406936 88.832 -124.6623
8.467856 88.872 -125.1044
8.529218 88.913 -125.5474
8.591024 88.954 -125.9915
8.653278 88.996 -126.4367
8.715983 89.038 -126.8834
8.779143 89.081 -127.3317
8.842760 89.124 -127.7814
8.906839 89.167 -128.2323
8.971381 89.209 -128.6840
9.036392 89.252 -129.1357
9.101873 89.293 -129.5868
9.167829 89.335 -130.0367
9.234263 89.376 -130.4847
9.301178 89.416 -130.9303
9.368578 89.455 -131.3725
9.436467 89.494 -131.8105
9.504847 89.531 -132.2434
9.573723 89.568 -132.6707
9.643099 89.603 -133.0918
9.712976 89.637 -133.5063
9.783361 89.669 -133.9138
9.854255 89.698 -134.3139
9.925663 89.725 -134.7064
9.997588 89.749 -135.0913
10.070035 89.770 -135.4688
10.143007 89.789 -135.8391
10.216507 89.807 -136.2024
10.290540 89.822 -136.5592
10.365109 89.836 -136.9099
10.440219 89.849 -137.2550
10.515873 89.861 -137.5950
10.592076 89.873 -137.9305
10.668830 89.883 -138.2622
10.746141 89.894 -138.5903
10.824012 89.903 -138.9154
10.902447 89.913 -139.2379
10.981451 89.921 -139.5580
11.061027 89.929 -139.8760
11.141180 89.935 -140.1921
11.221913 89.941 -140.5063
11.303232 89.946 -140.8187
11.385140 89.950 -141.1292
11.467641 89.953 -141.4378
11.550741 89.955 -141.7444
11.634442 89.956 -142.0489
11.718750 89.956 -142.3511
11.803669 89.956 -142.6511
11.889203 89.954 -142.9487
11.975357 89.953 -143.2440
12.062136 89.950 -143.5370
12.149543 89.947 -143.8277
12.237583 89.943 -144.1164
12.326262 89.938 -144.4031
12.415583 89.933 -144.6881
12.505552 89.927 -144.9716
12.596172 89.920 -145.2538
12.687449 89.912 -145.5349
12.779387 89.903 -145.8152
12.871992 89.894 -146.0950
12.965268 89.884 -146.3742
13.059220 89.874 -146.6533
13.153852 89.863 -146.9324
13.249170 89.852 -147.2116
13.345179 89.841 -147.4913
13.441884 89.830 -147.7715
13.539289 89.820 -148.0527
13.637401 89.809 -148.3351
13.736223 89.798 -148.6192
13.835761 89.788 -148.9053
13.936021 89.778 -149.1941
14.037007 89.768 -149.4859
14.138725 89.758 -149.7815
14.241180 89.749 -150.0814
14.344377 89.740 -150.3861
14.448323 89.731 -150.6963
14.553021 89.722 -151.0123
14.658478 89.714 -151.3345
14.764700 89.706 -151.6632
14.871691 89.699 -151.9984
14.979457 89.692 -152.3399
15.088005 89.685 -152.6877
15.197339 89.679 -153.0412
15.307465 89.672 -153.3999
15.418389 89.666 -153.7631
15.530117 89.660 -154.1302
15.642655 89.653 -154.5003
15.756008 89.647 -154.8725
15.870182 89.641 -155.2461
15.985184 89.635 -155.6203
16.101019 89.629 -155.9943
16.217694 89.624 -156.3677
16.335214 89.618 -156.7397
16.453586 89.613 -157.1101
16.572815 89.609 -157.4783
16.692909 89.605 -157.8440
16.813872 89.602 -158.2071
16.935713 89.600 -158.5672
17.058436 89.599 -158.9242
17.182048 89.597 -159.2778
17.306556 89.597 -159.6278
17.431967 89.597 -159.9739
17.558286 89.596 -160.3158
17.685521 89.596 -160.6532
17.813677 89.596 -160.9856
17.942762 89.595 -161.3127
18.072783 89.594 -161.6339
18.203746 89.593 -161.9487
18.335658 89.591 -162.2565
18.468526 89.589 -162.5566
18.602356 89.586 -162.8483
18.737156 89.582 -163.1309
18.872934 89.578 -163.4037
19.009695 89.574 -163.6660
19.147447 89.569 -163.9175
19.286197 89.565 -164.1579
19.425953 89.559 -164.3870
19.566721 89.554 -164.6053
19.708510 89.549 -164.8134
19.851326 89.544 -165.0125
19.995177 89.539 -165.2040
20.140070 89.535 -165.3898
20.286013 89.531 -165.5721
20.433014 89.527 -165.7533
20.581080 89.525 -165.9359
20.730219 89.522 -166.1222
20.880439 89.520 -166.3147
21.031747 89.518 -166.5153
21.184152 89.516 -166.7254
21.337661 89.514 -166.9463
21.492282 89.511 -167.1782
21.648024 89.507 -167.4211
21.804895 89.502 -167.6744
21.962902 89.495 -167.9369
22.122054 89.486 -168.2070
22.282360 89.475 -168.4829
22.443827 89.463 -168.7628
22.606464 89.449 -169.0449
22.770280 89.434 -169.3277
22.935283 89.418 -169.6101
23.101481 89.402 -169.8916
23.268884 89.385 -170.1724
23.437500 89.369 -170.4531
23.607338 89.353 -170.7351
23.778406 89.337 -171.0199
23.950714 89.323 -171.3092
24.124271 89.308 -171.6041
24.299086 89.294 -171.9057
24.475167 89.281 -172.2138
24.652524 89.267 -172.5275
24.831166 89.253 -172.8451
25.011103 89.238 -173.1643
25.192344 89.223 -173.4821
25.374898 89.207 -173.7961
25.558775 89.192 -174.1039
25.743984 89.176 -174.4043
25.930536 89.161 -174.6969
26.118439 89.146 -174.9822
26.307704 89.132 -175.2615
26.498341 89.119 -175.5360
26.690359 89.105 -175.8068
26.883768 89.092 -176.0737
27.078579 89.077 -176.3355
27.274801 89.062 -176.5898
27.472446 89.045 -176.8333
27.671522 89.027 -177.0625
27.872042 89.008 -177.2745
28.074014 88.989 -177.4680
28.277450 88.971 -177.6438
28.482360 88.953 -177.8050
28.688755 88.937 -177.9566
28.896645 88.923 -178.1049
29.106042 88.911 -178.2563
29.316957 88.899 -178.4158
29.529400 88.888 -178.5864
29.743382 88.875 -178.7685
29.958915 88.861 -178.9601
30.176009 88.845 -179.1577
30.394677 88.827 -179.3573
30.614929 88.808 -179.5558
30.836778 88.787 -179.7514
31.060234 88.766 -179.9448
31.285309 88.745 179.8622
31.512015 88.724 179.6669
31.740364 88.702 179.4670
31.970368 88.681 179.2616
32.202039 88.659 179.0515
32.435388 88.636 178.8392
32.670428 88.612 178.6279
32.907171 88.588 178.4202
33.145630 88.564 178.2175
33.385817 88.541 178.0194
33.627745 88.519 177.8243
33.871425 88.497 177.6303
34.116871 88.476 177.4368
34.364096 88.455 177.2448
34.613113 88.434 177.0576
34.863934 88.412 176.8794
35.116572 88.390 176.7136
35.371041 88.369 176.5615
35.627354 88.349 176.4211
35.885525 88.331 176.2880
36.145566 88.313 176.1567
36.407492 88.297 176.0237
36.671316 88.279 175.8889
36.937051 88.261 175.7567
37.204712 88.240 175.6336
37.474313 88.218 175.5262
37.745867 88.196 175.4367
38.019389 88.176 175.3614
38.294893 88.158 175.2905
38.572394 88.144 175.2115
38.851905 88.131 175.1135
39.133442 88.117 174.9910
39.417019 88.102 174.8463
39.702651 88.083 174.6876
39.990353 88.062 174.5247
40.280140 88.037 174.3649
40.572026 88.012 174.2093
40.866028 87.987 174.0534
41.162160 87.963 173.8907
41.460438 87.937 173.7176
41.760877 87.909 173.5371
42.063494 87.879 173.3594
42.368303 87.846 173.1976
42.675322 87.812 173.0614
42.984565 87.779 172.9521
43.296048 87.751 172.8608
43.609789 87.728 172.7720
43.925804 87.709 172.6704
44.244108 87.692 172.5483
44.564719 87.674 172.4088
44.887654 87.654 172.2633
45.212928 87.632 172.1255
45.540560 87.608 172.0045
45.870565 87.586 171.9005
46.202962 87.566 171.8063
46.537768 87.548 171.7120
46.875000 87.531 171.6108
47.214676 87.513 171.5014
47.556813 87.494 171.3876
47.901429 87.474 171.2737
48.248542 87.453 171.1614
48.598171 87.431 171.0493
48.950334 87.408 170.9356
49.305048 87.383 170.8218
49.662333 87.355 170.7134
50.022206 87.325 170.6180
50.384688 87.294 170.5400
50.749796 87.264 170.4778
51.117550 87.236 170.4229
51.487969 87.210 170.3653
51.861072 87.185 170.2984
52.236879 87.159 170.2224
52.615409 87.132 170.1426
52.996681 87.105 170.0661
53.380717 87.078 169.9966
53.767536 87.051 169.9341
54.157158 87.026 169.8770
54.549603 87.001 169.8240
54.944892 86.978 169.7755
55.343045 86.956 169.7318
55.744084 86.936 169.6902
56.148028 86.919 169.6453
56.554900 86.903 169.5904
56.964720 86.887 169.5218
57.377510 86.870 169.4405
57.793291 86.852 169.3519
58.212085 86.831 169.2628
58.633914 86.807 169.1788
59.058799 86.783 169.1028
59.486764 86.757 169.0357
59.917829 86.730 168.9774
60.352019 86.702 168.9276
60.789354 86.674 168.8855
61.229859 86.647 168.8499
61.673556 86.620 168.8190
62.120468 86.593 168.7907
62.570618 86.568 168.7633
63.024031 86.543 168.7348
63.480729 86.518 168.7037
63.940736 86.494 168.6689
64.404077 86.470 168.6304
64.870776 86.445 168.5898
65.340856 86.419 168.5502
65.814343 86.392 168.5151
66.291261 86.364 168.4867
66.771635 86.336 168.4648
67.255489 86.309 168.4463
67.742850 86.283 168.4268
68.233743 86.257 168.4019
68.728193 86.232 168.3692
69.226226 86.207 168.3286
69.727867 86.183 168.2816
70.233144 86.159 168.2291
70.742083 86.137 168.1703
