* Measurement data measured by REW V5.31
* Source: EXCL: Microphone (USB Sound Device        ), MICROPHONE (Master Volume), L, volume: 0.560
* Format: 256k Log Swept Sine, 1 sweep at -9.0 dBFS with no timing reference
* Dated: Apr 17, 2024 12:59:22 AM
* REW Settings:
*  C-weighting compensation: Off
*  Target level: 75.0 dB
* Note: zs10
* Measurement: L Apr 17
* Smoothing: 1/12 octave
* Frequency Step: 96 ppo
* Start Frequency: 0.36621094 Hz
*
* Freq(Hz) SPL(dB) Phase(degrees)
0.366211 75.044 -166.0037
0.368865 75.047 -166.0072
0.371538 75.051 -166.0124
0.374230 75.057 -166.0187
0.376942 75.063 -166.0258
0.379673 75.069 -166.0334
0.382424 75.076 -166.0413
0.385196 75.083 -166.0494
0.387987 75.090 -166.0576
0.390798 75.097 -166.0658
0.393630 75.104 -166.0741
0.396483 75.111 -166.0825
0.399356 75.118 -166.0909
0.402250 75.126 -166.0993
0.405165 75.133 -166.1078
0.408101 75.140 -166.1163
0.411058 75.148 -166.1249
0.414037 75.155 -166.1336
0.417037 75.163 -166.1423
0.420059 75.171 -166.1511
0.423103 75.178 -166.1599
0.426169 75.186 -166.1689
0.429257 75.194 -166.1779
0.432368 75.202 -166.1871
0.435501 75.210 -166.1963
0.438656 75.217 -166.2056
0.441835 75.226 -166.2151
0.445037 75.234 -166.2247
0.448262 75.242 -166.2344
0.451510 75.250 -166.2443
0.454782 75.258 -166.2543
0.458077 75.267 -166.2645
0.461397 75.275 -166.2748
0.464740 75.283 -166.2853
0.468108 75.292 -166.2960
0.471500 75.300 -166.3069
0.474917 75.309 -166.3180
0.478358 75.318 -166.3293
0.481825 75.327 -166.3409
0.485316 75.335 -166.3527
0.488833 75.344 -166.3647
0.492375 75.353 -166.3770
0.495943 75.362 -166.3896
0.499537 75.371 -166.4025
0.503157 75.380 -166.4157
0.506803 75.390 -166.4292
0.510475 75.399 -166.4430
0.514175 75.408 -166.4572
0.517900 75.418 -166.4718
0.521653 75.427 -166.4867
0.525434 75.437 -166.5020
0.529241 75.446 -166.5178
0.533076 75.456 -166.5339
0.536939 75.466 -166.5506
0.540830 75.476 -166.5677
0.544749 75.485 -166.5852
0.548696 75.495 -166.6033
0.552673 75.505 -166.6220
0.556677 75.516 -166.6411
0.560711 75.526 -166.6609
0.564774 75.536 -166.6812
0.568867 75.546 -166.7022
0.572989 75.557 -166.7238
0.577141 75.567 -166.7461
0.581324 75.578 -166.7691
0.585536 75.588 -166.7929
0.589779 75.599 -166.8173
0.594053 75.610 -166.8426
0.598358 75.621 -166.8687
0.602694 75.632 -166.8956
0.607061 75.643 -166.9234
0.611460 75.654 -166.9522
0.615891 75.665 -166.9818
0.620354 75.676 -167.0125
0.624849 75.688 -167.0442
0.629377 75.699 -167.0770
0.633938 75.711 -167.1109
0.638532 75.722 -167.1459
0.643159 75.734 -167.1821
0.647819 75.746 -167.2196
0.652514 75.758 -167.2583
0.657242 75.770 -167.2984
0.662005 75.782 -167.3399
0.666802 75.794 -167.3829
0.671634 75.806 -167.4273
0.676501 75.818 -167.4734
0.681403 75.831 -167.5210
0.686341 75.843 -167.5704
0.691314 75.855 -167.6215
0.696324 75.868 -167.6745
0.701370 75.880 -167.7294
0.706452 75.893 -167.7864
0.711571 75.904 -167.8455
0.716728 75.916 -167.9070
0.721921 75.926 -167.9709
0.727153 75.934 -168.0376
0.732422 75.940 -168.1073
0.737729 75.944 -168.1804
0.743075 75.945 -168.2572
0.748460 75.945 -168.3378
0.753883 75.944 -168.4225
0.759346 75.942 -168.5114
0.764849 75.940 -168.6046
0.770391 75.938 -168.7019
0.775974 75.935 -168.8035
0.781597 75.933 -168.9092
0.787261 75.930 -169.0192
0.792966 75.927 -169.1333
0.798712 75.925 -169.2514
0.804500 75.922 -169.3736
0.810329 75.918 -169.4998
0.816201 75.915 -169.6299
0.822116 75.911 -169.7639
0.828073 75.907 -169.9017
0.834074 75.902 -170.0432
0.840118 75.897 -170.1884
0.846206 75.891 -170.3371
0.852338 75.885 -170.4894
0.858514 75.878 -170.6451
0.864735 75.870 -170.8041
0.871001 75.861 -170.9664
0.877313 75.851 -171.1319
0.883670 75.841 -171.3004
0.890074 75.829 -171.4718
0.896524 75.816 -171.6461
0.903020 75.802 -171.8231
0.909564 75.786 -172.0027
0.916155 75.769 -172.1848
0.922794 75.750 -172.3693
0.929481 75.730 -172.5560
0.936216 75.708 -172.7447
0.943000 75.684 -172.9354
0.949834 75.658 -173.1278
0.956717 75.630 -173.3219
0.963649 75.600 -173.5174
0.970632 75.567 -173.7142
0.977666 75.532 -173.9121
0.984750 75.494 -174.1109
0.991886 75.454 -174.3103
0.999074 75.411 -174.5103
1.006314 75.364 -174.7105
1.013606 75.314 -174.9108
1.020951 75.261 -175.1109
1.028349 75.205 -175.3106
1.035801 75.145 -175.5096
1.043307 75.081 -175.7076
1.050867 75.012 -175.9046
1.058482 74.940 -176.1003
1.066152 74.863 -176.2948
1.073878 74.780 -176.4883
1.081660 74.693 -176.6812
1.089498 74.599 -176.8745
1.097393 74.499 -177.0699
1.105345 74.392 -177.2693
1.113355 74.276 -177.4749
1.121423 74.151 -177.6885
1.129549 74.016 -177.9117
1.137734 73.872 -178.1455
1.145979 73.719 -178.3905
1.154283 73.557 -178.6473
1.162647 73.386 -178.9160
1.171072 73.206 -179.1969
1.179558 73.017 -179.4900
1.188106 72.821 -179.7955
1.196715 72.618 179.8866
1.205387 72.407 179.5563
1.214122 72.191 179.2135
1.222920 71.968 178.8583
1.231782 71.740 178.4906
1.240708 71.508 178.1106
1.249699 71.271 177.7183
1.258754 71.031 177.3137
1.267876 70.789 176.8972
1.277063 70.545 176.4687
1.286318 70.299 176.0287
1.295639 70.053 175.5773
1.305027 69.808 175.1149
1.314484 69.564 174.6422
1.324009 69.322 174.1595
1.333604 69.084 173.6675
1.343268 68.850 173.1672
1.353002 68.621 172.6595
1.362806 68.399 172.1455
1.372681 68.185 171.6266
1.382628 67.979 171.1046
1.392647 67.784 170.5812
1.402739 67.600 170.0585
1.412904 67.429 169.5387
1.423142 67.272 169.0238
1.433455 67.130 168.5154
1.443843 67.004 168.0137
1.454305 66.894 167.5167
1.464844 66.799 167.0194
1.475459 66.720 166.5131
1.486150 66.655 165.9860
1.496920 66.603 165.4244
1.507767 66.564 164.8123
1.518693 66.537 164.1302
1.529698 66.521 163.3528
1.540783 66.516 162.4434
1.551948 66.523 161.3455
1.563194 66.540 159.9642
1.574521 66.569 158.1266
1.585931 66.608 155.4787
1.597423 66.658 151.1701
1.608999 66.718 142.5889
1.620658 66.789 118.0531
1.632402 66.871 48.3976
1.644232 66.963 11.9601
1.656146 67.064 0.6929
1.668147 67.176 -4.5397
1.680235 67.298 -7.6562
1.692411 67.430 -9.8110
1.704675 67.570 -11.4557
1.717028 67.721 -12.8020
1.729470 67.880 -13.9619
1.742003 68.049 -15.0005
1.754626 68.226 -15.9578
1.767341 68.413 -16.8599
1.780147 68.609 -17.7242
1.793047 68.815 -18.5625
1.806040 69.033 -19.3823
1.819128 69.263 -20.1880
1.832310 69.509 -20.9812
1.845587 69.772 -21.7617
1.858961 70.054 -22.5286
1.872432 70.356 -23.2806
1.886001 70.679 -24.0175
1.899667 71.022 -24.7390
1.913433 71.383 -25.4456
1.927299 71.761 -26.1380
1.941265 72.154 -26.8171
1.955332 72.561 -27.4841
1.969501 72.980 -28.1401
1.983773 73.407 -28.7861
1.998148 73.842 -29.4235
2.012627 74.281 -30.0531
2.027212 74.722 -30.6765
2.041902 75.164 -31.2946
2.056698 75.603 -31.9086
2.071602 76.037 -32.5197
2.086614 76.464 -33.1292
2.101734 76.881 -33.7382
2.116964 77.285 -34.3479
2.132304 77.675 -34.9598
2.147756 78.049 -35.5754
2.163320 78.406 -36.1959
2.178996 78.744 -36.8231
2.194786 79.064 -37.4581
2.210690 79.367 -38.1023
2.226710 79.655 -38.7561
2.242845 79.928 -39.4192
2.259098 80.188 -40.0907
2.275468 80.437 -40.7693
2.291957 80.674 -41.4534
2.308566 80.901 -42.1415
2.325295 81.119 -42.8319
2.342145 81.328 -43.5233
2.359117 81.529 -44.2143
2.376212 81.723 -44.9039
2.393431 81.910 -45.5911
2.410775 82.092 -46.2750
2.428244 82.270 -46.9552
2.445840 82.444 -47.6311
2.463564 82.615 -48.3025
2.481416 82.784 -48.9695
2.499397 82.952 -49.6327
2.517509 83.119 -50.2928
2.535752 83.285 -50.9516
2.554127 83.450 -51.6111
2.572635 83.614 -52.2739
2.591277 83.775 -52.9425
2.610055 83.933 -53.6187
2.628968 84.087 -54.3028
2.648019 84.237 -54.9946
2.667208 84.382 -55.6931
2.686535 84.523 -56.3965
2.706003 84.660 -57.1030
2.725612 84.793 -57.8107
2.745363 84.922 -58.5176
2.765257 85.048 -59.2217
2.785295 85.170 -59.9213
2.805478 85.290 -60.6147
2.825808 85.407 -61.3005
2.846285 85.522 -61.9775
2.866910 85.634 -62.6455
2.887685 85.745 -63.3044
2.908611 85.853 -63.9555
2.929688 85.959 -64.6008
2.950917 86.063 -65.2430
2.972301 86.164 -65.8846
2.993839 86.261 -66.5276
3.015534 86.355 -67.1725
3.037386 86.445 -67.8192
3.059396 86.533 -68.4666
3.081565 86.617 -69.1132
3.103896 86.698 -69.7574
3.126388 86.777 -70.3972
3.149043 86.853 -71.0304
3.171862 86.927 -71.6551
3.194847 86.999 -72.2693
3.217998 87.069 -72.8716
3.241317 87.137 -73.4609
3.264805 87.203 -74.0367
3.288463 87.268 -74.5996
3.312293 87.330 -75.1511
3.336295 87.391 -75.6930
3.360471 87.448 -76.2269
3.384822 87.503 -76.7538
3.409350 87.556 -77.2743
3.434056 87.607 -77.7880
3.458940 87.655 -78.2944
3.484005 87.701 -78.7924
3.509252 87.746 -79.2808
3.534681 87.790 -79.7582
3.560295 87.833 -80.2233
3.586094 87.875 -80.6747
3.612081 87.917 -81.1112
3.638255 87.958 -81.5320
3.664620 87.999 -81.9365
3.691175 88.039 -82.3250
3.717923 88.078 -82.6980
3.744864 88.116 -83.0563
3.772001 88.153 -83.4010
3.799335 88.190 -83.7329
3.826866 88.226 -84.0531
3.854597 88.261 -84.3623
3.882529 88.297 -84.6614
3.910664 88.334 -84.9508
3.939002 88.371 -85.2310
3.967546 88.409 -85.5019
3.996296 88.448 -85.7633
4.025255 88.489 -86.0146
4.054423 88.531 -86.2552
4.083804 88.575 -86.4845
4.113396 88.619 -86.7029
4.143204 88.665 -86.9114
4.173227 88.711 -87.1117
4.203468 88.759 -87.3058
4.233928 88.808 -87.4963
4.264609 88.859 -87.6854
4.295512 88.911 -87.8754
4.326639 88.965 -88.0681
4.357992 89.020 -88.2644
4.389572 89.077 -88.4647
4.421380 89.136 -88.6688
4.453419 89.197 -88.8760
4.485691 89.259 -89.0861
4.518196 89.324 -89.2998
4.550936 89.390 -89.5181
4.583914 89.457 -89.7426
4.617131 89.525 -89.9753
4.650589 89.593 -90.2180
4.684289 89.663 -90.4726
4.718233 89.733 -90.7405
4.752424 89.803 -91.0224
4.786862 89.873 -91.3186
4.821549 89.944 -91.6288
4.856488 90.016 -91.9525
4.891680 90.087 -92.2888
4.927127 90.159 -92.6375
4.962831 90.230 -92.9980
4.998794 90.301 -93.3704
5.035017 90.371 -93.7544
5.071503 90.439 -94.1505
5.108253 90.507 -94.5591
5.145270 90.573 -94.9805
5.182555 90.638 -95.4149
5.220110 90.701 -95.8619
5.257937 90.763 -96.3204
5.296038 90.823 -96.7889
5.334415 90.881 -97.2654
5.373071 90.938 -97.7483
5.412006 90.993 -98.2360
5.451224 91.046 -98.7275
5.490725 91.097 -99.2225
5.530514 91.145 -99.7211
5.570590 91.192 -100.2234
5.610957 91.236 -100.7291
5.651616 91.279 -101.2368
5.692570 91.319 -101.7450
5.733821 91.358 -102.2517
5.775370 91.395 -102.7550
5.817221 91.430 -103.2533
5.859375 91.464 -103.7457
5.901834 91.496 -104.2321
5.944602 91.527 -104.7123
5.987679 91.557 -105.1866
6.031068 91.585 -105.6547
6.074771 91.612 -106.1160
6.118792 91.639 -106.5696
6.163131 91.665 -107.0149
6.207792 91.691 -107.4510
6.252776 91.718 -107.8777
6.298086 91.744 -108.2949
6.343725 91.770 -108.7032
6.389694 91.797 -109.1035
6.435996 91.824 -109.4968
6.482634 91.852 -109.8842
6.529610 91.880 -110.2664
6.576926 91.910 -110.6439
6.624585 91.941 -111.0173
6.672590 91.974 -111.3870
6.720942 92.008 -111.7537
6.769645 92.043 -112.1189
6.818700 92.079 -112.4841
6.868111 92.117 -112.8513
6.917881 92.155 -113.2219
6.968010 92.195 -113.5968
7.018504 92.237 -113.9767
7.069362 92.279 -114.3620
7.120590 92.322 -114.7532
7.172189 92.367 -115.1511
7.224161 92.411 -115.5563
7.276511 92.456 -115.9698
7.329239 92.501 -116.3922
7.382350 92.547 -116.8235
7.435845 92.592 -117.2635
7.489729 92.636 -117.7119
7.544002 92.681 -118.1677
7.598669 92.725 -118.6302
7.653732 92.768 -119.0990
7.709194 92.809 -119.5734
7.765058 92.850 -120.0530
7.821327 92.890 -120.5369
7.878004 92.929 -121.0238
7.935091 92.966 -121.5124
7.992592 93.002 -122.0010
8.050510 93.037 -122.4886
8.108847 93.070 -122.9741
8.167607 93.103 -123.4570
8.226793 93.134 -123.9364
8.286408 93.164 -124.4113
8.346454 93.194 -124.8807
8.406936 93.223 -125.3436
8.467856 93.251 -125.7996
8.529218 93.279 -126.2483
8.591024 93.307 -126.6897
8.653278 93.334 -127.1241
8.715983 93.361 -127.5515
8.779143 93.389 -127.9720
8.842760 93.417 -128.3861
8.906839 93.446 -128.7941
8.971381 93.475 -129.1968
9.036392 93.504 -129.5952
9.101873 93.534 -129.9901
9.167829 93.565 -130.3826
9.234263 93.596 -130.7731
9.301178 93.628 -131.1625
9.368578 93.660 -131.5515
9.436467 93.693 -131.9409
9.504847 93.725 -132.3312
9.573723 93.758 -132.7231
9.643099 93.791 -133.1167
9.712976 93.824 -133.5121
9.783361 93.856 -133.9092
9.854255 93.888 -134.3079
9.925663 93.919 -134.7079
9.997588 93.950 -135.1090
10.070035 93.980 -135.5106
10.143007 94.009 -135.9122
10.216507 94.037 -136.3129
10.290540 94.065 -136.7121
10.365109 94.091 -137.1094
10.440219 94.117 -137.5043
10.515873 94.142 -137.8961
10.592076 94.166 -138.2845
10.668830 94.189 -138.6692
10.746141 94.212 -139.0499
10.824012 94.234 -139.4266
10.902447 94.255 -139.7996
10.981451 94.277 -140.1689
11.061027 94.298 -140.5349
11.141180 94.318 -140.8979
11.221913 94.339 -141.2585
11.303232 94.359 -141.6171
11.385140 94.378 -141.9744
11.467641 94.398 -142.3307
11.550741 94.417 -142.6865
11.634442 94.436 -143.0422
11.718750 94.454 -143.3982
11.803669 94.472 -143.7546
11.889203 94.489 -144.1115
11.975357 94.506 -144.4689
12.062136 94.522 -144.8266
12.149543 94.537 -145.1846
12.237583 94.551 -145.5427
12.326262 94.565 -145.9005
12.415583 94.578 -146.2579
12.505552 94.590 -146.6146
12.596172 94.601 -146.9704
12.687449 94.612 -147.3254
12.779387 94.622 -147.6794
12.871992 94.632 -148.0327
12.965268 94.641 -148.3853
13.059220 94.650 -148.7374
13.153852 94.659 -149.0897
13.249170 94.667 -149.4422
13.345179 94.675 -149.7955
13.441884 94.683 -150.1498
13.539289 94.691 -150.5056
13.637401 94.698 -150.8630
13.736223 94.704 -151.2223
13.835761 94.711 -151.5834
13.936021 94.717 -151.9463
14.037007 94.722 -152.3108
14.138725 94.727 -152.6766
14.241180 94.731 -153.0436
14.344377 94.735 -153.4111
14.448323 94.739 -153.7791
14.553021 94.742 -154.1471
14.658478 94.745 -154.5149
14.764700 94.748 -154.8824
14.871691 94.750 -155.2495
14.979457 94.753 -155.6164
15.088005 94.756 -155.9832
15.197339 94.758 -156.3500
15.307465 94.761 -156.7174
15.418389 94.764 -157.0854
15.530117 94.767 -157.4544
15.642655 94.770 -157.8246
15.756008 94.773 -158.1959
15.870182 94.776 -158.5685
15.985184 94.779 -158.9420
16.101019 94.782 -159.3161
16.217694 94.785 -159.6904
16.335214 94.787 -160.0645
16.453586 94.789 -160.4376
16.572815 94.791 -160.8094
16.692909 94.793 -161.1793
16.813872 94.795 -161.5470
16.935713 94.796 -161.9121
17.058436 94.798 -162.2745
17.182048 94.799 -162.6343
17.306556 94.801 -162.9913
17.431967 94.802 -163.3458
17.558286 94.804 -163.6979
17.685521 94.805 -164.0476
17.813677 94.806 -164.3951
17.942762 94.808 -164.7404
18.072783 94.809 -165.0832
18.203746 94.809 -165.4235
18.335658 94.810 -165.7610
18.468526 94.810 -166.0955
18.602356 94.810 -166.4268
18.737156 94.809 -166.7549
18.872934 94.808 -167.0796
19.009695 94.807 -167.4011
19.147447 94.806 -167.7198
19.286197 94.804 -168.0360
19.425953 94.802 -168.3500
19.566721 94.800 -168.6623
19.708510 94.797 -168.9732
19.851326 94.794 -169.2830
19.995177 94.790 -169.5916
20.140070 94.786 -169.8992
20.286013 94.780 -170.2054
20.433014 94.774 -170.5100
20.581080 94.768 -170.8127
20.730219 94.760 -171.1133
20.880439 94.752 -171.4117
21.031747 94.744 -171.7078
21.184152 94.735 -172.0020
21.337661 94.726 -172.2946
21.492282 94.716 -172.5862
21.648024 94.706 -172.8774
21.804895 94.696 -173.1689
21.962902 94.686 -173.4611
22.122054 94.675 -173.7545
22.282360 94.664 -174.0492
22.443827 94.653 -174.3453
22.606464 94.641 -174.6428
22.770280 94.629 -174.9414
22.935283 94.617 -175.2408
23.101481 94.605 -175.5408
23.268884 94.592 -175.8412
23.437500 94.579 -176.1419
23.607338 94.566 -176.4427
23.778406 94.552 -176.7438
23.950714 94.539 -177.0451
24.124271 94.526 -177.3465
24.299086 94.513 -177.6479
24.475167 94.499 -177.9492
24.652524 94.486 -178.2501
24.831166 94.473 -178.5504
25.011103 94.460 -178.8495
25.192344 94.446 -179.1475
25.374898 94.433 -179.4438
25.558775 94.420 -179.7382
25.743984 94.407 179.9694
25.930536 94.393 179.6793
26.118439 94.380 179.3917
26.307704 94.367 179.1067
26.498341 94.353 178.8245
26.690359 94.340 178.5449
26.883768 94.326 178.2682
27.078579 94.313 177.9941
27.274801 94.299 177.7226
27.472446 94.285 177.4536
27.671522 94.271 177.1871
27.872042 94.256 176.9232
28.074014 94.241 176.6619
28.277450 94.225 176.4035
28.482360 94.209 176.1480
28.688755 94.193 175.8954
28.896645 94.176 175.6455
29.106042 94.159 175.3979
29.316957 94.142 175.1521
29.529400 94.125 174.9073
29.743382 94.107 174.6631
29.958915 94.089 174.4189
30.176009 94.070 174.1746
30.394677 94.051 173.9302
30.614929 94.031 173.6859
30.836778 94.011 173.4420
31.060234 93.991 173.1986
31.285309 93.970 172.9557
31.512015 93.949 172.7131
31.740364 93.928 172.4703
31.970368 93.907 172.2272
32.202039 93.886 171.9832
32.435388 93.865 171.7383
32.670428 93.844 171.4926
32.907171 93.822 171.2463
33.145630 93.801 170.9999
33.385817 93.779 170.7535
33.627745 93.757 170.5076
33.871425 93.735 170.2624
34.116871 93.713 170.0182
34.364096 93.691 169.7754
34.613113 93.669 169.5344
34.863934 93.646 169.2954
35.116572 93.623 169.0589
35.371041 93.600 168.8250
35.627354 93.577 168.5938
35.885525 93.554 168.3651
36.145566 93.530 168.1392
36.407492 93.506 167.9160
36.671316 93.482 167.6956
36.937051 93.458 167.4781
37.204712 93.434 167.2635
37.474313 93.409 167.0513
37.745867 93.384 166.8408
38.019389 93.359 166.6315
38.294893 93.334 166.4227
38.572394 93.308 166.2145
38.851905 93.282 166.0072
39.133442 93.255 165.8015
39.417019 93.228 165.5983
39.702651 93.201 165.3984
39.990353 93.173 165.2019
40.280140 93.145 165.0088
40.572026 93.117 164.8185
40.866028 93.089 164.6304
41.162160 93.062 164.4438
41.460438 93.034 164.2584
41.760877 93.007 164.0739
42.063494 92.980 163.8902
42.368303 92.952 163.7073
42.675322 92.925 163.5251
42.984565 92.897 163.3439
43.296048 92.869 163.1640
43.609789 92.841 162.9858
43.925804 92.812 162.8096
44.244108 92.783 162.6355
44.564719 92.754 162.4634
44.887654 92.725 162.2931
45.212928 92.696 162.1240
45.540560 92.667 161.9561
45.870565 92.637 161.7890
46.202962 92.607 161.6230
46.537768 92.577 161.4580
46.875000 92.546 161.2939
47.214676 92.516 161.1306
47.556813 92.485 160.9680
47.901429 92.454 160.8067
48.248542 92.423 160.6474
48.598171 92.391 160.4910
48.950334 92.359 160.3380
49.305048 92.328 160.1887
49.662333 92.296 160.0428
50.022206 92.265 159.8995
50.384688 92.234 159.7584
50.749796 92.202 159.6190
51.117550 92.171 159.4815
51.487969 92.140 159.3463
51.861072 92.108 159.2141
52.236879 92.076 159.0853
52.615409 92.044 158.9600
52.996681 92.011 158.8380
53.380717 91.979 158.7189
53.767536 91.947 158.6017
54.157158 91.915 158.4857
54.549603 91.883 158.3699
54.944892 91.851 158.2538
55.343045 91.820 158.1370
55.744084 91.788 158.0193
56.148028 91.757 157.9008
56.554900 91.725 157.7817
56.964720 91.694 157.6621
57.377510 91.663 157.5414
57.793291 91.633 157.4194
58.212085 91.602 157.2960
58.633914 91.572 157.1716
59.058799 91.541 157.0467
59.486764 91.510 156.9217
59.917829 91.479 156.7963
60.352019 91.447 156.6705
60.789354 91.414 156.5454
61.229859 91.380 156.4229
61.673556 91.345 156.3057
62.120468 91.309 156.1956
62.570618 91.273 156.0924
63.024031 91.237 155.9948
63.480729 91.201 155.9008
63.940736 91.164 155.8090
64.404077 91.127 155.7191
64.870776 91.091 155.6318
65.340856 91.054 155.5477
65.814343 91.017 155.4678
66.291261 90.980 155.3930
66.771635 90.944 155.3235
67.255489 90.908 155.2583
67.742850 90.874 155.1953
68.233743 90.840 155.1317
