* Measurement data measured by REW V5.31
* Source: EXCL: Microphone (2- USB Sound Device        ), no input selected, L, volume: 0.560
* Format: 256k Log Swept Sine, 1 sweep at -4.0 dBFS with no timing reference
* Dated: Jul 5, 2024 11:57:39 AM
* REW Settings:
*  C-weighting compensation: Off
*  Target level: 75.0 dB
* Note: QCY MeloBuds
* Measurement: L QCY MeloBuds Default
* Smoothing: 1/12 octave
* Frequency Step: 96 ppo
* Start Frequency: 0.36621094 Hz
*
* Freq(Hz) SPL(dB) Phase(degrees)
0.366211 83.195 156.2727
0.368865 83.190 156.2482
0.371538 83.181 156.2114
0.374230 83.170 156.1652
0.376942 83.158 156.1119
0.379673 83.145 156.0533
0.382424 83.132 155.9906
0.385196 83.118 155.9245
0.387987 83.104 155.8553
0.390798 83.090 155.7832
0.393630 83.075 155.7084
0.396483 83.061 155.6310
0.399356 83.046 155.5508
0.402250 83.032 155.4680
0.405165 83.017 155.3824
0.408101 83.002 155.2942
0.411058 82.987 155.2031
0.414037 82.972 155.1093
0.417037 82.956 155.0127
0.420059 82.941 154.9132
0.423103 82.925 154.8109
0.426169 82.910 154.7057
0.429257 82.894 154.5975
0.432368 82.878 154.4864
0.435501 82.862 154.3724
0.438656 82.846 154.2554
0.441835 82.830 154.1353
0.445037 82.814 154.0122
0.448262 82.797 153.8861
0.451510 82.781 153.7569
0.454782 82.764 153.6245
0.458077 82.747 153.4891
0.461397 82.730 153.3505
0.464740 82.713 153.2087
0.468108 82.696 153.0638
0.471500 82.679 152.9156
0.474917 82.662 152.7643
0.478358 82.644 152.6097
0.481825 82.626 152.4518
0.485316 82.609 152.2907
0.488833 82.591 152.1264
0.492375 82.573 151.9587
0.495943 82.555 151.7878
0.499537 82.536 151.6135
0.503157 82.518 151.4360
0.506803 82.499 151.2552
0.510475 82.481 151.0710
0.514175 82.462 150.8836
0.517900 82.443 150.6928
0.521653 82.424 150.4988
0.525434 82.404 150.3014
0.529241 82.385 150.1008
0.533076 82.365 149.8969
0.536939 82.346 149.6897
0.540830 82.326 149.4793
0.544749 82.306 149.2657
0.548696 82.286 149.0488
0.552673 82.266 148.8288
0.556677 82.245 148.6057
0.560711 82.225 148.3794
0.564774 82.204 148.1501
0.568867 82.183 147.9177
0.572989 82.162 147.6824
0.577141 82.141 147.4441
0.581324 82.120 147.2029
0.585536 82.098 146.9589
0.589779 82.077 146.7122
0.594053 82.055 146.4627
0.598358 82.033 146.2106
0.602694 82.011 145.9560
0.607061 81.989 145.6989
0.611460 81.966 145.4395
0.615891 81.944 145.1778
0.620354 81.921 144.9139
0.624849 81.898 144.6479
0.629377 81.875 144.3800
0.633938 81.852 144.1103
0.638532 81.829 143.8389
0.643159 81.805 143.5659
0.647819 81.781 143.2916
0.652514 81.757 143.0160
0.657242 81.733 142.7393
0.662005 81.709 142.4616
0.666802 81.685 142.1833
0.671634 81.660 141.9044
0.676501 81.635 141.6252
0.681403 81.610 141.3459
0.686341 81.585 141.0666
0.691314 81.560 140.7876
0.696324 81.534 140.5092
0.701370 81.508 140.2315
0.706452 81.482 139.9546
0.711571 81.455 139.6788
0.716728 81.428 139.4039
0.721921 81.399 139.1296
0.727153 81.369 138.8556
0.732422 81.337 138.5810
0.737729 81.303 138.3047
0.743075 81.266 138.0257
0.748460 81.229 137.7429
0.753883 81.190 137.4556
0.759346 81.150 137.1633
0.764849 81.109 136.8656
0.770391 81.067 136.5622
0.775974 81.025 136.2531
0.781597 80.983 135.9380
0.787261 80.939 135.6169
0.792966 80.896 135.2898
0.798712 80.851 134.9565
0.804500 80.807 134.6170
0.810329 80.761 134.2712
0.816201 80.715 133.9192
0.822116 80.668 133.5608
0.828073 80.621 133.1962
0.834074 80.573 132.8251
0.840118 80.524 132.4476
0.846206 80.474 132.0638
0.852338 80.424 131.6736
0.858514 80.372 131.2769
0.864735 80.320 130.8740
0.871001 80.267 130.4646
0.877313 80.213 130.0490
0.883670 80.158 129.6272
0.890074 80.102 129.1992
0.896524 80.045 128.7651
0.903020 79.987 128.3251
0.909564 79.928 127.8792
0.916155 79.867 127.4276
0.922794 79.806 126.9704
0.929481 79.743 126.5078
0.936216 79.678 126.0401
0.943000 79.613 125.5674
0.949834 79.546 125.0901
0.956717 79.477 124.6083
0.963649 79.407 124.1225
0.970632 79.336 123.6329
0.977666 79.262 123.1400
0.984750 79.188 122.6441
0.991886 79.111 122.1457
0.999074 79.033 121.6454
1.006314 78.952 121.1436
1.013606 78.870 120.6409
1.020951 78.786 120.1381
1.028349 78.700 119.6357
1.035801 78.611 119.1345
1.043307 78.521 118.6352
1.050867 78.428 118.1387
1.058482 78.333 117.6459
1.066152 78.236 117.1575
1.073878 78.137 116.6743
1.081660 78.036 116.1968
1.089498 77.934 115.7255
1.097393 77.832 115.2604
1.105345 77.730 114.8011
1.113355 77.630 114.3471
1.121423 77.531 113.8975
1.129549 77.436 113.4519
1.137734 77.343 113.0096
1.145979 77.253 112.5702
1.154283 77.166 112.1333
1.162647 77.081 111.6984
1.171072 76.997 111.2654
1.179558 76.915 110.8337
1.188106 76.833 110.4032
1.196715 76.751 109.9735
1.205387 76.669 109.5442
1.214122 76.586 109.1151
1.222920 76.500 108.6858
1.231782 76.412 108.2558
1.240708 76.321 107.8250
1.249699 76.226 107.3928
1.258754 76.126 106.9589
1.267876 76.021 106.5229
1.277063 75.909 106.0845
1.286318 75.789 105.6431
1.295639 75.662 105.1983
1.305027 75.525 104.7498
1.314484 75.379 104.2970
1.324009 75.221 103.8396
1.333604 75.051 103.3771
1.343268 74.868 102.9090
1.353002 74.671 102.4350
1.362806 74.459 101.9547
1.372681 74.231 101.4676
1.382628 73.984 100.9736
1.392647 73.719 100.4722
1.402739 73.434 99.9635
1.412904 73.127 99.4474
1.423142 72.797 98.9243
1.433455 72.442 98.3950
1.443843 72.059 97.8606
1.454305 71.645 97.3229
1.464844 71.195 96.7845
1.475459 70.706 96.2485
1.486150 70.173 95.7177
1.496920 69.593 95.1949
1.507767 68.962 94.6821
1.518693 68.282 94.1811
1.529698 67.551 93.6930
1.540783 66.773 93.2190
1.551948 65.949 92.7601
1.563194 65.081 92.3176
1.574521 64.173 91.8926
1.585931 63.229 91.4866
1.597423 62.252 91.1015
1.608999 61.246 90.7394
1.620658 60.216 90.4028
1.632402 59.167 90.0951
1.644232 58.104 89.8204
1.656146 57.032 89.5836
1.668147 55.958 89.3916
1.680235 54.889 89.2526
1.692411 53.831 89.1777
1.704675 52.793 89.1819
1.717028 51.783 89.2854
1.729470 50.813 89.5164
1.742003 49.893 89.9159
1.754626 49.036 90.5446
1.767341 48.256 91.4978
1.780147 47.568 92.9313
1.793047 46.989 95.1176
1.806040 46.538 98.5675
1.819128 46.229 104.3224
1.832310 46.076 114.6648
1.845587 46.088 134.2899
1.858961 46.265 166.1431
1.872432 46.603 -164.2034
1.886001 47.091 -147.2519
1.899667 47.714 -138.4299
1.913433 48.458 -133.6041
1.927299 49.306 -130.8397
1.941265 50.240 -129.2332
1.955332 51.244 -128.3256
1.969501 52.304 -127.8640
1.983773 53.404 -127.6985
1.998148 54.531 -127.7357
2.012627 55.671 -127.9142
2.027212 56.813 -128.1924
2.041902 57.944 -128.5410
2.056698 59.053 -128.9390
2.071602 60.130 -129.3712
2.086614 61.165 -129.8264
2.101734 62.149 -130.2964
2.116964 63.073 -130.7759
2.132304 63.930 -131.2619
2.147756 64.714 -131.7545
2.163320 65.423 -132.2567
2.178996 66.055 -132.7751
2.194786 66.613 -133.3199
2.210690 67.104 -133.9030
2.226710 67.532 -134.5353
2.242845 67.906 -135.2238
2.259098 68.231 -135.9707
2.275468 68.509 -136.7742
2.291957 68.746 -137.6296
2.308566 68.944 -138.5309
2.325295 69.106 -139.4709
2.342145 69.235 -140.4422
2.359117 69.334 -141.4376
2.376212 69.407 -142.4496
2.393431 69.455 -143.4712
2.410775 69.484 -144.4955
2.428244 69.497 -145.5162
2.445840 69.497 -146.5270
2.463564 69.489 -147.5227
2.481416 69.476 -148.4988
2.499397 69.461 -149.4528
2.517509 69.449 -150.3843
2.535752 69.440 -151.2968
2.554127 69.435 -152.1978
2.572635 69.432 -153.0992
2.591277 69.430 -154.0148
2.610055 69.424 -154.9573
2.628968 69.412 -155.9362
2.648019 69.392 -156.9568
2.667208 69.363 -158.0212
2.686535 69.323 -159.1289
2.706003 69.271 -160.2772
2.725612 69.207 -161.4618
2.745363 69.131 -162.6772
2.765257 69.041 -163.9168
2.785295 68.936 -165.1727
2.805478 68.817 -166.4362
2.825808 68.683 -167.6983
2.846285 68.534 -168.9495
2.866910 68.367 -170.1817
2.887685 68.184 -171.3890
2.908611 67.983 -172.5696
2.929688 67.763 -173.7274
2.950917 67.523 -174.8722
2.972301 67.263 -176.0170
2.993839 66.983 -177.1756
3.015534 66.682 -178.3598
3.037386 66.361 -179.5792
3.059396 66.020 179.1588
3.081565 65.659 177.8489
3.103896 65.281 176.4875
3.126388 64.885 175.0726
3.149043 64.472 173.6042
3.171862 64.043 172.0840
3.194847 63.599 170.5154
3.217998 63.140 168.9037
3.241317 62.664 167.2545
3.264805 62.169 165.5713
3.288463 61.650 163.8520
3.312293 61.102 162.0840
3.336295 60.519 160.2393
3.360471 59.895 158.2719
3.384822 59.231 156.1113
3.409350 58.530 153.6505
3.434056 57.801 150.7186
3.458940 57.055 147.0239
3.484005 56.310 142.0199
3.509252 55.584 134.5682
3.534681 54.904 122.0210
3.560295 54.302 98.3277
3.586094 53.812 59.7481
3.612081 53.475 26.8065
3.638255 53.329 8.7953
3.664620 53.401 -1.4370
3.691175 53.699 -8.1769
3.717923 54.207 -13.1853
3.744864 54.890 -17.2221
3.772001 55.703 -20.6440
3.799335 56.601 -23.6318
3.826866 57.542 -26.2847
3.854597 58.490 -28.6628
3.882529 59.416 -30.8066
3.910664 60.295 -32.7475
3.939002 61.109 -34.5139
3.967546 61.844 -36.1344
3.996296 62.492 -37.6407
4.025255 63.053 -39.0676
4.054423 63.529 -40.4496
4.083804 63.929 -41.8149
4.113396 64.261 -43.1797
4.143204 64.534 -44.5468
4.173227 64.756 -45.9094
4.203468 64.933 -47.2533
4.233928 65.071 -48.5616
4.264609 65.178 -49.8163
4.295512 65.259 -51.0015
4.326639 65.318 -52.1059
4.357992 65.359 -53.1248
4.389572 65.381 -54.0617
4.421380 65.385 -54.9271
4.453419 65.369 -55.7339
4.485691 65.331 -56.4909
4.518196 65.270 -57.1996
4.550936 65.187 -57.8534
4.583914 65.084 -58.4383
4.617131 64.961 -58.9346
4.650589 64.820 -59.3180
4.684289 64.663 -59.5620
4.718233 64.491 -59.6401
4.752424 64.301 -59.5277
4.786862 64.093 -59.2044
4.821549 63.866 -58.6534
4.856488 63.621 -57.8597
4.891680 63.363 -56.8095
4.927127 63.099 -55.4894
4.962831 62.840 -53.8881
4.998794 62.598 -51.9977
5.035017 62.386 -49.8162
5.071503 62.218 -47.3486
5.108253 62.102 -44.6078
5.145270 62.047 -41.6172
5.182555 62.054 -38.4147
5.220110 62.119 -35.0599
5.257937 62.238 -31.6350
5.296038 62.403 -28.2371
5.334415 62.608 -24.9654
5.373071 62.844 -21.9079
5.412006 63.108 -19.1311
5.451224 63.394 -16.6751
5.490725 63.702 -14.5536
5.530514 64.029 -12.7586
5.570590 64.375 -11.2686
5.610957 64.735 -10.0564
5.651616 65.103 -9.0937
5.692570 65.472 -8.3538
5.733821 65.833 -7.8127
5.775370 66.179 -7.4502
5.817221 66.505 -7.2496
5.859375 66.808 -7.1976
5.901834 67.086 -7.2814
5.944602 67.341 -7.4865
5.987679 67.574 -7.7948
6.031068 67.786 -8.1853
6.074771 67.977 -8.6366
6.118792 68.149 -9.1291
6.163131 68.301 -9.6482
6.207792 68.435 -10.1845
6.252776 68.549 -10.7342
6.298086 68.643 -11.2954
6.343725 68.719 -11.8638
6.389694 68.777 -12.4302
6.435996 68.819 -12.9817
6.482634 68.845 -13.5029
6.529610 68.858 -13.9793
6.576926 68.858 -14.3996
6.624585 68.846 -14.7573
6.672590 68.823 -15.0496
6.720942 68.789 -15.2753
6.769645 68.747 -15.4325
6.818700 68.700 -15.5180
6.868111 68.649 -15.5272
6.917881 68.599 -15.4554
6.968010 68.550 -15.2986
7.018504 68.505 -15.0559
7.069362 68.464 -14.7316
7.120590 68.430 -14.3349
7.172189 68.403 -13.8797
7.224161 68.388 -13.3816
7.276511 68.385 -12.8561
7.329239 68.398 -12.3165
7.382350 68.426 -11.7743
7.435845 68.469 -11.2422
7.489729 68.527 -10.7358
7.544002 68.597 -10.2738
7.598669 68.679 -9.8748
7.653732 68.771 -9.5549
7.709194 68.872 -9.3249
7.765058 68.980 -9.1904
7.821327 69.094 -9.1530
7.878004 69.212 -9.2130
7.935091 69.332 -9.3700
7.992592 69.450 -9.6236
8.050510 69.566 -9.9729
8.108847 69.677 -10.4150
8.167607 69.783 -10.9443
8.226793 69.884 -11.5523
8.286408 69.978 -12.2286
8.346454 70.064 -12.9631
8.406936 70.143 -13.7475
8.467856 70.214 -14.5752
8.529218 70.277 -15.4401
8.591024 70.333 -16.3345
8.653278 70.381 -17.2490
8.715983 70.423 -18.1735
8.779143 70.460 -19.0994
8.842760 70.493 -20.0206
8.906839 70.521 -20.9329
8.971381 70.547 -21.8325
9.036392 70.572 -22.7152
9.101873 70.597 -23.5768
9.167829 70.624 -24.4136
9.234263 70.653 -25.2243
9.301178 70.686 -26.0095
9.368578 70.724 -26.7713
9.436467 70.768 -27.5126
9.504847 70.819 -28.2364
9.573723 70.878 -28.9453
9.643099 70.944 -29.6426
9.712976 71.019 -30.3327
9.783361 71.102 -31.0206
9.854255 71.193 -31.7114
9.925663 71.292 -32.4086
9.997588 71.398 -33.1147
10.070035 71.510 -33.8311
10.143007 71.627 -34.5593
10.216507 71.750 -35.3001
10.290540 71.876 -36.0534
10.365109 72.004 -36.8179
10.440219 72.136 -37.5911
10.515873 72.268 -38.3696
10.592076 72.402 -39.1502
10.668830 72.536 -39.9294
10.746141 72.669 -40.7039
10.824012 72.803 -41.4699
10.902447 72.936 -42.2234
10.981451 73.068 -42.9610
11.061027 73.200 -43.6799
11.141180 73.332 -44.3781
11.221913 73.463 -45.0540
11.303232 73.594 -45.7064
11.385140 73.726 -46.3345
11.467641 73.857 -46.9386
11.550741 73.988 -47.5194
11.634442 74.120 -48.0780
11.718750 74.252 -48.6160
11.803669 74.385 -49.1346
11.889203 74.517 -49.6355
11.975357 74.648 -50.1203
12.062136 74.780 -50.5905
12.149543 74.910 -51.0473
12.237583 75.039 -51.4914
12.326262 75.167 -51.9235
12.415583 75.293 -52.3438
12.505552 75.417 -52.7523
12.596172 75.539 -53.1489
12.687449 75.659 -53.5336
12.779387 75.776 -53.9059
12.871992 75.892 -54.2658
12.965268 76.005 -54.6136
13.059220 76.116 -54.9499
13.153852 76.226 -55.2755
13.249170 76.333 -55.5916
13.345179 76.440 -55.8999
13.441884 76.544 -56.2023
13.539289 76.648 -56.5012
13.637401 76.750 -56.7986
13.736223 76.851 -57.0970
13.835761 76.950 -57.3984
13.936021 77.047 -57.7046
14.037007 77.142 -58.0171
14.138725 77.234 -58.3367
14.241180 77.324 -58.6639
14.344377 77.411 -58.9986
14.448323 77.496 -59.3404
14.553021 77.577 -59.6884
14.658478 77.655 -60.0415
14.764700 77.731 -60.3988
14.871691 77.804 -60.7594
14.979457 77.875 -61.1226
15.088005 77.943 -61.4883
15.197339 78.011 -61.8566
15.307465 78.077 -62.2287
15.418389 78.143 -62.6059
15.530117 78.209 -62.9900
15.642655 78.274 -63.3833
15.756008 78.340 -63.7881
15.870182 78.406 -64.2066
15.985184 78.472 -64.6408
16.101019 78.538 -65.0922
16.217694 78.604 -65.5615
16.335214 78.670 -66.0490
16.453586 78.735 -66.5540
16.572815 78.799 -67.0752
16.692909 78.863 -67.6108
16.813872 78.926 -68.1585
16.935713 78.988 -68.7157
17.058436 79.050 -69.2801
17.182048 79.112 -69.8495
17.306556 79.174 -70.4218
17.431967 79.237 -70.9956
17.558286 79.301 -71.5700
17.685521 79.366 -72.1444
17.813677 79.433 -72.7187
17.942762 79.501 -73.2930
18.072783 79.571 -73.8672
18.203746 79.643 -74.4414
18.335658 79.717 -75.0155
18.468526 79.793 -75.5889
18.602356 79.870 -76.1609
18.737156 79.948 -76.7304
18.872934 80.028 -77.2963
19.009695 80.109 -77.8577
19.147447 80.191 -78.4137
19.286197 80.274 -78.9636
19.425953 80.358 -79.5073
19.566721 80.443 -80.0449
19.708510 80.530 -80.5768
19.851326 80.617 -81.1038
19.995177 80.704 -81.6263
20.140070 80.791 -82.1447
20.286013 80.878 -82.6589
20.433014 80.964 -83.1684
20.581080 81.049 -83.6722
20.730219 81.133 -84.1690
20.880439 81.215 -84.6573
21.031747 81.296 -85.1356
21.184152 81.375 -85.6029
21.337661 81.453 -86.0587
21.492282 81.530 -86.5034
21.648024 81.606 -86.9380
21.804895 81.682 -87.3647
21.962902 81.757 -87.7859
22.122054 81.832 -88.2045
22.282360 81.907 -88.6235
22.443827 81.980 -89.0453
22.606464 82.053 -89.4718
22.770280 82.124 -89.9043
22.935283 82.194 -90.3432
23.101481 82.263 -90.7882
23.268884 82.329 -91.2389
23.437500 82.395 -91.6947
23.607338 82.458 -92.1551
23.778406 82.521 -92.6199
23.950714 82.583 -93.0896
24.124271 82.644 -93.5649
24.299086 82.705 -94.0467
24.475167 82.765 -94.5361
24.652524 82.826 -95.0338
24.831166 82.886 -95.5405
25.011103 82.946 -96.0560
25.192344 83.006 -96.5799
25.374898 83.067 -97.1114
25.558775 83.127 -97.6493
25.743984 83.187 -98.1927
25.930536 83.248 -98.7407
26.118439 83.309 -99.2926
26.307704 83.371 -99.8481
26.498341 83.434 -100.4071
26.690359 83.497 -100.9696
26.883768 83.562 -101.5356
27.078579 83.627 -102.1048
27.274801 83.693 -102.6769
27.472446 83.759 -103.2514
27.671522 83.825 -103.8275
27.872042 83.891 -104.4043
28.074014 83.958 -104.9810
28.277450 84.023 -105.5567
28.482360 84.089 -106.1305
28.688755 84.154 -106.7018
28.896645 84.218 -107.2699
29.106042 84.282 -107.8343
29.316957 84.345 -108.3951
29.529400 84.407 -108.9520
29.743382 84.469 -109.5057
29.958915 84.530 -110.0568
30.176009 84.590 -110.6064
30.394677 84.649 -111.1557
30.614929 84.708 -111.7063
30.836778 84.766 -112.2596
31.060234 84.823 -112.8169
31.285309 84.879 -113.3796
31.512015 84.934 -113.9486
31.740364 84.988 -114.5244
31.970368 85.040 -115.1072
32.202039 85.091 -115.6970
32.435388 85.140 -116.2932
32.670428 85.188 -116.8949
32.907171 85.235 -117.5013
33.145630 85.280 -118.1113
33.385817 85.324 -118.7243
33.627745 85.368 -119.3400
33.871425 85.412 -119.9588
34.116871 85.455 -120.5811
34.364096 85.498 -121.2079
34.613113 85.541 -121.8399
34.863934 85.584 -122.4774
35.116572 85.627 -123.1202
35.371041 85.669 -123.7674
35.627354 85.710 -124.4174
35.885525 85.750 -125.0685
36.145566 85.790 -125.7191
36.407492 85.829 -126.3681
36.671316 85.867 -127.0151
36.937051 85.906 -127.6608
37.204712 85.943 -128.3061
37.474313 85.981 -128.9524
37.745867 86.018 -129.6005
38.019389 86.053 -130.2511
38.294893 86.088 -130.9037
38.572394 86.121 -131.5576
38.851905 86.153 -132.2116
39.133442 86.183 -132.8648
39.417019 86.211 -133.5168
39.702651 86.238 -134.1676
39.990353 86.265 -134.8178
40.280140 86.289 -135.4679
40.572026 86.313 -136.1184
40.866028 86.336 -136.7691
41.162160 86.357 -137.4197
41.460438 86.377 -138.0696
41.760877 86.396 -138.7184
42.063494 86.414 -139.3661
42.368303 86.431 -140.0129
42.675322 86.447 -140.6586
42.984565 86.463 -141.3030
43.296048 86.477 -141.9455
43.609789 86.491 -142.5858
43.925804 86.504 -143.2240
44.244108 86.516 -143.8613
44.564719 86.528 -144.4991
44.887654 86.540 -145.1389
45.212928 86.550 -145.7810
45.540560 86.558 -146.4247
45.870565 86.565 -147.0677
46.202962 86.570 -147.7076
46.537768 86.573 -148.3421
46.875000 86.575 -148.9707
47.214676 86.577 -149.5940
47.556813 86.578 -150.2136
47.901429 86.578 -150.8309
48.248542 86.577 -151.4467
48.598171 86.576 -152.0611
48.950334 86.573 -152.6733
49.305048 86.570 -153.2827
49.662333 86.566 -153.8890
50.022206 86.561 -154.4921
50.384688 86.556 -155.0919
50.749796 86.550 -155.6881
51.117550 86.543 -156.2797
51.487969 86.535 -156.8658
51.861072 86.527 -157.4455
52.236879 86.518 -158.0188
52.615409 86.509 -158.5867
52.996681 86.499 -159.1506
53.380717 86.490 -159.7122
53.767536 86.480 -160.2726
54.157158 86.469 -160.8318
54.549603 86.457 -161.3893
54.944892 86.444 -161.9443
55.343045 86.431 -162.4964
55.744084 86.417 -163.0459
56.148028 86.403 -163.5932
56.554900 86.388 -164.1383
56.964720 86.372 -164.6806
57.377510 86.355 -165.2193
57.793291 86.338 -165.7531
58.212085 86.320 -166.2816
58.633914 86.302 -166.8048
59.058799 86.283 -167.3225
59.486764 86.265 -167.8350
59.917829 86.246 -168.3421
60.352019 86.227 -168.8446
60.789354 86.207 -169.3433
61.229859 86.188 -169.8393
61.673556 86.168 -170.3331
62.120468 86.147 -170.8248
62.570618 86.126 -171.3137
63.024031 86.103 -171.7991
63.480729 86.080 -172.2803
63.940736 86.056 -172.7566
64.404077 86.031 -173.2275
64.870776 86.006 -173.6933
65.340856 85.981 -174.1545
65.814343 85.956 -174.6122
66.291261 85.930 -175.0673
66.771635 85.904 -175.5205
67.255489 85.878 -175.9721
67.742850 85.852 -176.4224
68.233743 85.826 -176.8723
68.728193 85.800 -177.3224
69.226226 85.774 -177.7737
69.727867 85.747 -178.2260
70.233144 85.720 -178.6783
70.742083 85.692 -179.1287
71.254709 85.664 -179.5756
71.771050 85.636 179.9819
72.291132 85.607 179.5435
