* Measurement data measured by REW V5.31
* Source: EXCL: Microphone (USB Sound Device        ), MICROPHONE (Master Volume), L, volume: 0.250
* Format: 256k Log Swept Sine, 1 sweep at -5.0 dBFS with no timing reference
* Dated: Jun 24, 2024 12:56:47 PM
* REW Settings:
*  C-weighting compensation: Off
*  Target level: 75.0 dB
* Note: S08 No foam
* Measurement: S08 No Foam
* Smoothing: 1/12 octave
* Frequency Step: 96 ppo
* Start Frequency: 0.36621094 Hz
*
* Freq(Hz) SPL(dB) Phase(degrees)
0.366211 83.839 160.3283
0.368865 83.833 160.3073
0.371538 83.825 160.2757
0.374230 83.814 160.2361
0.376942 83.802 160.1904
0.379673 83.790 160.1403
0.382424 83.777 160.0866
0.385196 83.763 160.0300
0.387987 83.749 159.9709
0.390798 83.735 159.9094
0.393630 83.721 159.8456
0.396483 83.707 159.7796
0.399356 83.693 159.7113
0.402250 83.678 159.6408
0.405165 83.664 159.5680
0.408101 83.649 159.4930
0.411058 83.634 159.4156
0.414037 83.619 159.3359
0.417037 83.604 159.2538
0.420059 83.589 159.1694
0.423103 83.574 159.0826
0.426169 83.558 158.9934
0.429257 83.543 158.9018
0.432368 83.528 158.8077
0.435501 83.512 158.7111
0.438656 83.496 158.6120
0.441835 83.480 158.5104
0.445037 83.464 158.4063
0.448262 83.448 158.2996
0.451510 83.432 158.1903
0.454782 83.415 158.0785
0.458077 83.399 157.9640
0.461397 83.382 157.8469
0.464740 83.366 157.7272
0.468108 83.349 157.6048
0.471500 83.332 157.4798
0.474917 83.315 157.3520
0.478358 83.298 157.2215
0.481825 83.280 157.0883
0.485316 83.263 156.9524
0.488833 83.245 156.8138
0.492375 83.227 156.6724
0.495943 83.210 156.5283
0.499537 83.192 156.3813
0.503157 83.174 156.2317
0.506803 83.155 156.0792
0.510475 83.137 155.9240
0.514175 83.119 155.7660
0.517900 83.100 155.6052
0.521653 83.081 155.4416
0.525434 83.062 155.2752
0.529241 83.043 155.1061
0.533076 83.024 154.9342
0.536939 83.005 154.7595
0.540830 82.985 154.5821
0.544749 82.966 154.4020
0.548696 82.946 154.2191
0.552673 82.926 154.0336
0.556677 82.906 153.8453
0.560711 82.886 153.6544
0.564774 82.866 153.4609
0.568867 82.845 153.2647
0.572989 82.824 153.0660
0.577141 82.804 152.8648
0.581324 82.783 152.6610
0.585536 82.762 152.4548
0.589779 82.741 152.2461
0.594053 82.719 152.0351
0.598358 82.698 151.8218
0.602694 82.676 151.6062
0.607061 82.654 151.3884
0.611460 82.632 151.1685
0.615891 82.610 150.9465
0.620354 82.588 150.7226
0.624849 82.565 150.4967
0.629377 82.543 150.2691
0.633938 82.520 150.0396
0.638532 82.497 149.8086
0.643159 82.474 149.5760
0.647819 82.450 149.3421
0.652514 82.427 149.1068
0.657242 82.403 148.8703
0.662005 82.379 148.6328
0.666802 82.355 148.3944
0.671634 82.331 148.1552
0.676501 82.307 147.9154
0.681403 82.282 147.6751
0.686341 82.258 147.4346
0.691314 82.233 147.1939
0.696324 82.208 146.9533
0.701370 82.182 146.7128
0.706452 82.156 146.4727
0.711571 82.130 146.2329
0.716728 82.103 145.9934
0.721921 82.075 145.7541
0.727153 82.045 145.5144
0.732422 82.014 145.2737
0.737729 81.980 145.0312
0.743075 81.944 144.7859
0.748460 81.907 144.5370
0.753883 81.869 144.2838
0.759346 81.829 144.0260
0.764849 81.789 143.7631
0.770391 81.748 143.4951
0.775974 81.706 143.2217
0.781597 81.664 142.9428
0.787261 81.621 142.6584
0.792966 81.578 142.3684
0.798712 81.534 142.0727
0.804500 81.490 141.7713
0.810329 81.445 141.4641
0.816201 81.399 141.1510
0.822116 81.353 140.8321
0.828073 81.306 140.5073
0.834074 81.258 140.1764
0.840118 81.210 139.8396
0.846206 81.161 139.4968
0.852338 81.111 139.1479
0.858514 81.060 138.7930
0.864735 81.008 138.4320
0.871001 80.955 138.0649
0.877313 80.902 137.6918
0.883670 80.847 137.3126
0.890074 80.792 136.9273
0.896524 80.735 136.5361
0.903020 80.678 136.1389
0.909564 80.619 135.7359
0.916155 80.559 135.3270
0.922794 80.498 134.9124
0.929481 80.436 134.4922
0.936216 80.372 134.0664
0.943000 80.308 133.6353
0.949834 80.241 133.1989
0.956717 80.174 132.7575
0.963649 80.105 132.3112
0.970632 80.034 131.8602
0.977666 79.962 131.4049
0.984750 79.888 130.9454
0.991886 79.813 130.4820
0.999074 79.735 130.0152
1.006314 79.656 129.5452
1.013606 79.576 129.0724
1.020951 79.493 128.5972
1.028349 79.408 128.1202
1.035801 79.321 127.6418
1.043307 79.232 127.1625
1.050867 79.141 126.6829
1.058482 79.048 126.2036
1.066152 78.952 125.7250
1.073878 78.854 125.2477
1.081660 78.754 124.7719
1.089498 78.651 124.2978
1.097393 78.545 123.8252
1.105345 78.436 123.3536
1.113355 78.324 122.8822
1.121423 78.210 122.4102
1.129549 78.092 121.9368
1.137734 77.971 121.4615
1.145979 77.847 120.9835
1.154283 77.720 120.5023
1.162647 77.590 120.0173
1.171072 77.457 119.5281
1.179558 77.321 119.0341
1.188106 77.182 118.5347
1.196715 77.040 118.0293
1.205387 76.895 117.5174
1.214122 76.748 116.9982
1.222920 76.597 116.4710
1.231782 76.444 115.9352
1.240708 76.288 115.3899
1.249699 76.129 114.8343
1.258754 75.967 114.2675
1.267876 75.803 113.6886
1.277063 75.637 113.0965
1.286318 75.468 112.4903
1.295639 75.297 111.8688
1.305027 75.124 111.2308
1.314484 74.948 110.5750
1.324009 74.770 109.9001
1.333604 74.591 109.2046
1.343268 74.409 108.4872
1.353002 74.226 107.7461
1.362806 74.040 106.9798
1.372681 73.854 106.1864
1.382628 73.666 105.3644
1.392647 73.476 104.5116
1.402739 73.285 103.6264
1.412904 73.093 102.7068
1.423142 72.899 101.7508
1.433455 72.704 100.7565
1.443843 72.506 99.7221
1.454305 72.306 98.6454
1.464844 72.101 97.5243
1.475459 71.891 96.3560
1.486150 71.673 95.1372
1.496920 71.447 93.8637
1.507767 71.212 92.5302
1.518693 70.967 91.1308
1.529698 70.714 89.6585
1.540783 70.452 88.1055
1.551948 70.183 86.4630
1.563194 69.907 84.7212
1.574521 69.625 82.8692
1.585931 69.338 80.8950
1.597423 69.049 78.7853
1.608999 68.757 76.5258
1.620658 68.464 74.1010
1.632402 68.173 71.4948
1.644232 67.883 68.6903
1.656146 67.597 65.6711
1.668147 67.317 62.4221
1.680235 67.045 58.9305
1.692411 66.782 55.1879
1.704675 66.529 51.1923
1.717028 66.291 46.9504
1.729470 66.068 42.4797
1.742003 65.862 37.8101
1.754626 65.677 32.9843
1.767341 65.515 28.0560
1.780147 65.379 23.0864
1.793047 65.270 18.1392
1.806040 65.193 13.2739
1.819128 65.149 8.5405
1.832310 65.140 3.9760
1.845587 65.168 -0.3967
1.858961 65.234 -4.5664
1.872432 65.337 -8.5289
1.886001 65.476 -12.2850
1.899667 65.650 -15.8382
1.913433 65.856 -19.1936
1.927299 66.092 -22.3580
1.941265 66.355 -25.3388
1.955332 66.642 -28.1441
1.969501 66.951 -30.7824
1.983773 67.278 -33.2621
1.998148 67.620 -35.5915
2.012627 67.974 -37.7787
2.027212 68.336 -39.8312
2.041902 68.703 -41.7563
2.056698 69.072 -43.5606
2.071602 69.439 -45.2504
2.086614 69.800 -46.8313
2.101734 70.153 -48.3088
2.116964 70.493 -49.6882
2.132304 70.818 -50.9747
2.147756 71.126 -52.1739
2.163320 71.414 -53.2922
2.178996 71.683 -54.3372
2.194786 71.933 -55.3175
2.210690 72.166 -56.2430
2.226710 72.383 -57.1231
2.242845 72.589 -57.9655
2.259098 72.784 -58.7761
2.275468 72.969 -59.5589
2.291957 73.146 -60.3161
2.308566 73.316 -61.0490
2.325295 73.479 -61.7583
2.342145 73.636 -62.4437
2.359117 73.787 -63.1051
2.376212 73.932 -63.7418
2.393431 74.073 -64.3529
2.410775 74.210 -64.9374
2.428244 74.343 -65.4942
2.445840 74.473 -66.0221
2.463564 74.601 -66.5199
2.481416 74.726 -66.9863
2.499397 74.850 -67.4205
2.517509 74.972 -67.8217
2.535752 75.093 -68.1901
2.554127 75.212 -68.5263
2.572635 75.329 -68.8320
2.591277 75.442 -69.1094
2.610055 75.551 -69.3610
2.628968 75.657 -69.5889
2.648019 75.758 -69.7950
2.667208 75.854 -69.9807
2.686535 75.947 -70.1471
2.706003 76.037 -70.2952
2.725612 76.124 -70.4257
2.745363 76.208 -70.5393
2.765257 76.290 -70.6363
2.785295 76.371 -70.7175
2.805478 76.452 -70.7829
2.825808 76.532 -70.8331
2.846285 76.613 -70.8680
2.866910 76.696 -70.8877
2.887685 76.779 -70.8920
2.908611 76.864 -70.8802
2.929688 76.950 -70.8517
2.950917 77.038 -70.8057
2.972301 77.126 -70.7418
2.993839 77.215 -70.6600
3.015534 77.303 -70.5612
3.037386 77.392 -70.4468
3.059396 77.481 -70.3187
3.081565 77.570 -70.1789
3.103896 77.660 -70.0297
3.126388 77.750 -69.8735
3.149043 77.842 -69.7126
3.171862 77.934 -69.5492
3.194847 78.028 -69.3854
3.217998 78.123 -69.2228
3.241317 78.221 -69.0626
3.264805 78.320 -68.9050
3.288463 78.421 -68.7496
3.312293 78.525 -68.5952
3.336295 78.631 -68.4404
3.360471 78.739 -68.2845
3.384822 78.849 -68.1278
3.409350 78.961 -67.9716
3.434056 79.075 -67.8178
3.458940 79.190 -67.6687
3.484005 79.306 -67.5269
3.509252 79.423 -67.3953
3.534681 79.540 -67.2763
3.560295 79.658 -67.1725
3.586094 79.775 -67.0858
3.612081 79.893 -67.0178
3.638255 80.011 -66.9691
3.664620 80.129 -66.9397
3.691175 80.247 -66.9287
3.717923 80.365 -66.9348
3.744864 80.484 -66.9569
3.772001 80.602 -66.9941
3.799335 80.721 -67.0457
3.826866 80.839 -67.1112
3.854597 80.957 -67.1904
3.882529 81.074 -67.2832
3.910664 81.189 -67.3896
3.939002 81.304 -67.5098
3.967546 81.416 -67.6439
3.996296 81.527 -67.7922
4.025255 81.635 -67.9551
4.054423 81.742 -68.1327
4.083804 81.847 -68.3249
4.113396 81.950 -68.5311
4.143204 82.051 -68.7505
4.173227 82.150 -68.9817
4.203468 82.246 -69.2232
4.233928 82.341 -69.4736
4.264609 82.434 -69.7314
4.295512 82.525 -69.9956
4.326639 82.613 -70.2652
4.357992 82.699 -70.5401
4.389572 82.782 -70.8203
4.421380 82.863 -71.1064
4.453419 82.940 -71.3988
4.485691 83.016 -71.6976
4.518196 83.088 -72.0020
4.550936 83.159 -72.3108
4.583914 83.226 -72.6222
4.617131 83.292 -72.9345
4.650589 83.356 -73.2456
4.684289 83.417 -73.5542
4.718233 83.477 -73.8589
4.752424 83.535 -74.1595
4.786862 83.590 -74.4559
4.821549 83.644 -74.7486
4.856488 83.695 -75.0379
4.891680 83.745 -75.3240
4.927127 83.793 -75.6066
4.962831 83.839 -75.8849
4.998794 83.885 -76.1582
5.035017 83.929 -76.4257
5.071503 83.972 -76.6864
5.108253 84.015 -76.9398
5.145270 84.058 -77.1855
5.182555 84.099 -77.4238
5.220110 84.141 -77.6548
5.257937 84.181 -77.8795
5.296038 84.222 -78.0985
5.334415 84.262 -78.3127
5.373071 84.302 -78.5228
5.412006 84.343 -78.7296
5.451224 84.384 -78.9333
5.490725 84.427 -79.1340
5.530514 84.469 -79.3319
5.570590 84.513 -79.5272
5.610957 84.558 -79.7205
5.651616 84.603 -79.9128
5.692570 84.649 -80.1058
5.733821 84.696 -80.3008
5.775370 84.744 -80.4995
5.817221 84.793 -80.7029
5.859375 84.842 -80.9118
5.901834 84.893 -81.1264
5.944602 84.945 -81.3471
5.987679 84.998 -81.5742
6.031068 85.052 -81.8084
6.074771 85.106 -82.0505
6.118792 85.161 -82.3017
6.163131 85.216 -82.5629
6.207792 85.272 -82.8348
6.252776 85.327 -83.1179
6.298086 85.383 -83.4122
6.343725 85.440 -83.7175
6.389694 85.496 -84.0334
6.435996 85.552 -84.3594
6.482634 85.607 -84.6953
6.529610 85.663 -85.0407
6.576926 85.718 -85.3956
6.624585 85.772 -85.7599
6.672590 85.825 -86.1333
6.720942 85.878 -86.5152
6.769645 85.930 -86.9047
6.818700 85.981 -87.3008
6.868111 86.032 -87.7023
6.917881 86.082 -88.1083
6.968010 86.130 -88.5182
7.018504 86.179 -88.9315
7.069362 86.226 -89.3480
7.120590 86.272 -89.7668
7.172189 86.318 -90.1871
7.224161 86.364 -90.6078
7.276511 86.409 -91.0280
7.329239 86.454 -91.4469
7.382350 86.498 -91.8643
7.435845 86.543 -92.2799
7.489729 86.587 -92.6936
7.544002 86.632 -93.1053
7.598669 86.676 -93.5146
7.653732 86.721 -93.9214
7.709194 86.767 -94.3255
7.765058 86.813 -94.7269
7.821327 86.860 -95.1259
7.878004 86.907 -95.5229
7.935091 86.956 -95.9182
7.992592 87.005 -96.3124
8.050510 87.055 -96.7059
8.108847 87.106 -97.0989
8.167607 87.158 -97.4916
8.226793 87.212 -97.8846
8.286408 87.266 -98.2783
8.346454 87.321 -98.6733
8.406936 87.376 -99.0699
8.467856 87.433 -99.4685
8.529218 87.490 -99.8691
8.591024 87.548 -100.2719
8.653278 87.607 -100.6769
8.715983 87.666 -101.0840
8.779143 87.725 -101.4932
8.842760 87.785 -101.9046
8.906839 87.844 -102.3177
8.971381 87.904 -102.7324
9.036392 87.964 -103.1479
9.101873 88.024 -103.5639
9.167829 88.084 -103.9800
9.234263 88.143 -104.3956
9.301178 88.203 -104.8105
9.368578 88.262 -105.2239
9.436467 88.320 -105.6354
9.504847 88.379 -106.0443
9.573723 88.437 -106.4504
9.643099 88.494 -106.8532
9.712976 88.550 -107.2524
9.783361 88.604 -107.6478
9.854255 88.656 -108.0392
9.925663 88.706 -108.4263
9.997588 88.754 -108.8091
10.070035 88.799 -109.1876
10.143007 88.842 -109.5620
10.216507 88.884 -109.9324
10.290540 88.924 -110.2988
10.365109 88.963 -110.6616
10.440219 89.001 -111.0208
10.515873 89.038 -111.3769
10.592076 89.074 -111.7300
10.668830 89.110 -112.0805
10.746141 89.146 -112.4285
10.824012 89.182 -112.7744
10.902447 89.217 -113.1181
10.981451 89.252 -113.4601
11.061027 89.286 -113.8003
11.141180 89.320 -114.1390
11.221913 89.353 -114.4761
11.303232 89.385 -114.8117
11.385140 89.417 -115.1459
11.467641 89.448 -115.4786
11.550741 89.479 -115.8099
11.634442 89.509 -116.1397
11.718750 89.538 -116.4679
11.803669 89.568 -116.7947
11.889203 89.596 -117.1200
11.975357 89.625 -117.4438
12.062136 89.653 -117.7661
12.149543 89.680 -118.0869
12.237583 89.707 -118.4063
12.326262 89.733 -118.7243
12.415583 89.759 -119.0410
12.505552 89.784 -119.3565
12.596172 89.808 -119.6710
12.687449 89.831 -119.9844
12.779387 89.854 -120.2971
12.871992 89.876 -120.6090
12.965268 89.897 -120.9205
13.059220 89.918 -121.2318
13.153852 89.939 -121.5431
13.249170 89.959 -121.8547
13.345179 89.979 -122.1670
13.441884 89.999 -122.4802
13.539289 90.019 -122.7949
13.637401 90.039 -123.1113
13.736223 90.059 -123.4300
13.835761 90.079 -123.7514
13.936021 90.099 -124.0758
14.037007 90.118 -124.4038
14.138725 90.137 -124.7356
14.241180 90.155 -125.0715
14.344377 90.173 -125.4117
14.448323 90.191 -125.7564
14.553021 90.209 -126.1055
14.658478 90.225 -126.4589
14.764700 90.242 -126.8165
14.871691 90.258 -127.1777
14.979457 90.274 -127.5424
15.088005 90.290 -127.9099
15.197339 90.305 -128.2797
15.307465 90.320 -128.6515
15.418389 90.335 -129.0245
15.530117 90.350 -129.3984
15.642655 90.364 -129.7728
15.756008 90.379 -130.1473
15.870182 90.394 -130.5219
15.985184 90.408 -130.8965
16.101019 90.424 -131.2710
16.217694 90.439 -131.6457
16.335214 90.456 -132.0207
16.453586 90.472 -132.3963
16.572815 90.490 -132.7728
16.692909 90.508 -133.1504
16.813872 90.527 -133.5293
16.935713 90.546 -133.9097
17.058436 90.567 -134.2914
17.182048 90.588 -134.6745
17.306556 90.609 -135.0585
17.431967 90.630 -135.4433
17.558286 90.652 -135.8284
17.685521 90.673 -136.2131
17.813677 90.694 -136.5970
17.942762 90.715 -136.9795
18.072783 90.736 -137.3599
18.203746 90.756 -137.7376
18.335658 90.776 -138.1123
18.468526 90.796 -138.4833
18.602356 90.816 -138.8504
18.737156 90.836 -139.2133
18.872934 90.855 -139.5717
19.009695 90.875 -139.9254
19.147447 90.894 -140.2746
19.286197 90.914 -140.6191
19.425953 90.933 -140.9590
19.566721 90.952 -141.2946
19.708510 90.971 -141.6259
19.851326 90.989 -141.9534
19.995177 91.007 -142.2772
20.140070 91.024 -142.5979
20.286013 91.042 -142.9158
20.433014 91.058 -143.2314
20.581080 91.075 -143.5453
20.730219 91.091 -143.8579
20.880439 91.106 -144.1699
21.031747 91.122 -144.4816
21.184152 91.136 -144.7935
21.337661 91.151 -145.1061
21.492282 91.165 -145.4198
21.648024 91.179 -145.7347
21.804895 91.192 -146.0510
21.962902 91.204 -146.3688
22.122054 91.216 -146.6880
22.282360 91.227 -147.0085
22.443827 91.237 -147.3301
22.606464 91.246 -147.6526
22.770280 91.255 -147.9758
22.935283 91.263 -148.2995
23.101481 91.271 -148.6236
23.268884 91.278 -148.9482
23.437500 91.285 -149.2736
23.607338 91.292 -149.5999
23.778406 91.298 -149.9276
23.950714 91.305 -150.2572
24.124271 91.311 -150.5890
24.299086 91.317 -150.9232
24.475167 91.323 -151.2599
24.652524 91.329 -151.5989
24.831166 91.335 -151.9396
25.011103 91.341 -152.2815
25.192344 91.346 -152.6238
25.374898 91.351 -152.9655
25.558775 91.357 -153.3060
25.743984 91.362 -153.6447
25.930536 91.367 -153.9813
26.118439 91.373 -154.3157
26.307704 91.378 -154.6479
26.498341 91.384 -154.9781
26.690359 91.390 -155.3065
26.883768 91.395 -155.6327
27.078579 91.401 -155.9566
27.274801 91.406 -156.2774
27.472446 91.411 -156.5945
27.671522 91.416 -156.9072
27.872042 91.420 -157.2150
28.074014 91.425 -157.5178
28.277450 91.429 -157.8163
28.482360 91.433 -158.1115
28.688755 91.438 -158.4051
28.896645 91.443 -158.6989
29.106042 91.448 -158.9945
29.316957 91.453 -159.2933
29.529400 91.457 -159.5959
29.743382 91.461 -159.9021
29.958915 91.464 -160.2112
30.176009 91.465 -160.5218
30.394677 91.466 -160.8324
30.614929 91.466 -161.1415
30.836778 91.464 -161.4484
31.060234 91.463 -161.7528
31.285309 91.461 -162.0552
31.512015 91.459 -162.3564
31.740364 91.457 -162.6579
31.970368 91.456 -162.9607
32.202039 91.454 -163.2658
32.435388 91.452 -163.5736
32.670428 91.450 -163.8839
32.907171 91.448 -164.1963
33.145630 91.446 -164.5100
33.385817 91.443 -164.8241
33.627745 91.441 -165.1379
33.871425 91.438 -165.4508
34.116871 91.435 -165.7626
34.364096 91.432 -166.0731
34.613113 91.429 -166.3822
34.863934 91.426 -166.6898
35.116572 91.423 -166.9960
35.371041 91.420 -167.3005
35.627354 91.417 -167.6030
35.885525 91.413 -167.9035
36.145566 91.409 -168.2015
36.407492 91.405 -168.4969
36.671316 91.400 -168.7894
36.937051 91.394 -169.0786
37.204712 91.389 -169.3645
37.474313 91.383 -169.6470
37.745867 91.376 -169.9263
38.019389 91.370 -170.2030
38.294893 91.363 -170.4778
38.572394 91.356 -170.7516
38.851905 91.349 -171.0254
39.133442 91.341 -171.2997
39.417019 91.334 -171.5751
39.702651 91.326 -171.8516
39.990353 91.317 -172.1288
40.280140 91.308 -172.4061
40.572026 91.298 -172.6828
40.866028 91.288 -172.9581
41.162160 91.278 -173.2317
41.460438 91.268 -173.5033
41.760877 91.257 -173.7728
42.063494 91.247 -174.0405
42.368303 91.236 -174.3068
42.675322 91.226 -174.5721
42.984565 91.215 -174.8368
43.296048 91.205 -175.1012
43.609789 91.194 -175.3654
43.925804 91.184 -175.6292
44.244108 91.172 -175.8925
44.564719 91.161 -176.1547
44.887654 91.149 -176.4155
45.212928 91.137 -176.6743
45.540560 91.124 -176.9310
45.870565 91.111 -177.1855
46.202962 91.098 -177.4378
46.537768 91.084 -177.6883
46.875000 91.071 -177.9374
47.214676 91.057 -178.1857
47.556813 91.043 -178.4337
47.901429 91.030 -178.6817
48.248542 91.016 -178.9297
48.598171 91.002 -179.1775
48.950334 90.988 -179.4246
49.305048 90.974 -179.6709
49.662333 90.959 -179.9162
50.022206 90.944 179.8392
50.384688 90.929 179.5955
50.749796 90.914 179.3527
51.117550 90.899 179.1117
51.487969 90.882 178.8732
51.861072 90.866 178.6380
52.236879 90.850 178.4063
52.615409 90.833 178.1782
52.996681 90.816 177.9531
53.380717 90.800 177.7307
53.767536 90.783 177.5112
54.157158 90.767 177.2944
54.549603 90.751 177.0803
54.944892 90.735 176.8678
55.343045 90.720 176.6552
55.744084 90.706 176.4399
56.148028 90.692 176.2200
56.554900 90.679 175.9944
56.964720 90.665 175.7637
57.377510 90.650 175.5293
57.793291 90.635 175.2926
58.212085 90.620 175.0547
58.633914 90.603 174.8166
59.058799 90.585 174.5791
59.486764 90.567 174.3441
59.917829 90.547 174.1130
60.352019 90.527 173.8869
60.789354 90.506 173.6652
61.229859 90.484 173.4467
61.673556 90.463 173.2303
62.120468 90.440 173.0161
62.570618 90.417 172.8047
63.024031 90.394 172.5968
63.480729 90.371 172.3916
63.940736 90.348 172.1879
64.404077 90.325 171.9842
64.870776 90.302 171.7800
65.340856 90.279 171.5754
65.814343 90.256 171.3710
66.291261 90.233 171.1675
66.771635 90.210 170.9655
67.255489 90.187 170.7652
67.742850 90.163 170.5672
68.233743 90.139 170.3716
68.728193 90.115 170.1787
69.226226 90.091 169.9885
69.727867 90.066 169.8010
70.233144 90.041 169.6163
70.742083 90.015 169.4342
71.254709 89.989 169.2549
