* Measurement data measured by REW V5.31
* Source: EXCL: Microphone (USB Sound Device        ), MICROPHONE (Master Volume), L, volume: 0.250
* Format: 256k Log Swept Sine, 1 sweep at -5.0 dBFS with no timing reference
* Dated: Jun 20, 2024 11:11:02 AM
* REW Settings:
*  C-weighting compensation: Off
*  Target level: 75.0 dB
* Note: Meze Audio ALBA R
* Measurement: R Meze Audio ALBA
* Smoothing: 1/12 octave
* Frequency Step: 96 ppo
* Start Frequency: 0.36621094 Hz
*
* Freq(Hz) SPL(dB) Phase(degrees)
0.366211 78.943 177.8692
0.368865 78.941 177.8603
0.371538 78.938 177.8470
0.374230 78.935 177.8304
0.376942 78.931 177.8113
0.379673 78.927 177.7906
0.382424 78.923 177.7686
0.385196 78.918 177.7456
0.387987 78.914 177.7217
0.390798 78.910 177.6971
0.393630 78.905 177.6718
0.396483 78.901 177.6459
0.399356 78.896 177.6192
0.402250 78.892 177.5918
0.405165 78.887 177.5638
0.408101 78.882 177.5351
0.411058 78.878 177.5056
0.414037 78.873 177.4755
0.417037 78.868 177.4446
0.420059 78.863 177.4130
0.423103 78.858 177.3807
0.426169 78.854 177.3476
0.429257 78.849 177.3138
0.432368 78.844 177.2792
0.435501 78.839 177.2439
0.438656 78.834 177.2077
0.441835 78.829 177.1709
0.445037 78.824 177.1332
0.448262 78.819 177.0947
0.451510 78.813 177.0554
0.454782 78.808 177.0153
0.458077 78.803 176.9743
0.461397 78.798 176.9326
0.464740 78.792 176.8900
0.468108 78.787 176.8466
0.471500 78.782 176.8023
0.474917 78.776 176.7571
0.478358 78.771 176.7111
0.481825 78.765 176.6642
0.485316 78.760 176.6164
0.488833 78.754 176.5677
0.492375 78.749 176.5181
0.495943 78.743 176.4676
0.499537 78.737 176.4161
0.503157 78.732 176.3638
0.506803 78.726 176.3105
0.510475 78.720 176.2563
0.514175 78.714 176.2011
0.517900 78.708 176.1449
0.521653 78.702 176.0878
0.525434 78.696 176.0297
0.529241 78.690 175.9706
0.533076 78.684 175.9106
0.536939 78.678 175.8495
0.540830 78.672 175.7874
0.544749 78.666 175.7243
0.548696 78.659 175.6601
0.552673 78.653 175.5950
0.556677 78.647 175.5287
0.560711 78.640 175.4615
0.564774 78.634 175.3931
0.568867 78.627 175.3237
0.572989 78.621 175.2532
0.577141 78.614 175.1817
0.581324 78.608 175.1090
0.585536 78.601 175.0352
0.589779 78.594 174.9603
0.594053 78.587 174.8843
0.598358 78.581 174.8071
0.602694 78.574 174.7288
0.607061 78.567 174.6493
0.611460 78.560 174.5687
0.615891 78.553 174.4869
0.620354 78.546 174.4039
0.624849 78.539 174.3197
0.629377 78.531 174.2343
0.633938 78.524 174.1477
0.638532 78.517 174.0598
0.643159 78.510 173.9707
0.647819 78.502 173.8804
0.652514 78.495 173.7887
0.657242 78.487 173.6958
0.662005 78.480 173.6016
0.666802 78.472 173.5061
0.671634 78.464 173.4093
0.676501 78.457 173.3111
0.681403 78.449 173.2116
0.686341 78.441 173.1107
0.691314 78.433 173.0085
0.696324 78.425 172.9048
0.701370 78.417 172.7996
0.706452 78.408 172.6930
0.711571 78.400 172.5847
0.716728 78.390 172.4748
0.721921 78.380 172.3631
0.727153 78.368 172.2493
0.732422 78.355 172.1331
0.737729 78.340 172.0141
0.743075 78.324 171.8921
0.748460 78.306 171.7666
0.753883 78.287 171.6374
0.759346 78.268 171.5045
0.764849 78.248 171.3676
0.770391 78.228 171.2267
0.775974 78.208 171.0818
0.781597 78.187 170.9329
0.787261 78.167 170.7798
0.792966 78.146 170.6226
0.798712 78.124 170.4613
0.804500 78.103 170.2959
0.810329 78.081 170.1264
0.816201 78.059 169.9527
0.822116 78.036 169.7749
0.828073 78.013 169.5929
0.834074 77.990 169.4068
0.840118 77.966 169.2166
0.846206 77.942 169.0222
0.852338 77.917 168.8237
0.858514 77.891 168.6210
0.864735 77.865 168.4142
0.871001 77.837 168.2034
0.877313 77.810 167.9884
0.883670 77.781 167.7694
0.890074 77.752 167.5462
0.896524 77.721 167.3191
0.903020 77.690 167.0880
0.909564 77.657 166.8528
0.916155 77.624 166.6137
0.922794 77.589 166.3707
0.929481 77.553 166.1238
0.936216 77.516 165.8730
0.943000 77.477 165.6184
0.949834 77.437 165.3600
0.956717 77.396 165.0979
0.963649 77.352 164.8322
0.970632 77.308 164.5628
0.977666 77.261 164.2898
0.984750 77.213 164.0133
0.991886 77.163 163.7333
0.999074 77.110 163.4500
1.006314 77.056 163.1634
1.013606 76.999 162.8735
1.020951 76.940 162.5804
1.028349 76.879 162.2843
1.035801 76.815 161.9851
1.043307 76.749 161.6830
1.050867 76.680 161.3779
1.058482 76.608 161.0699
1.066152 76.533 160.7587
1.073878 76.454 160.4443
1.081660 76.372 160.1260
1.089498 76.287 159.8031
1.097393 76.197 159.4743
1.105345 76.102 159.1380
1.113355 76.002 158.7927
1.121423 75.896 158.4368
1.129549 75.785 158.0690
1.137734 75.668 157.6883
1.145979 75.544 157.2939
1.154283 75.416 156.8851
1.162647 75.281 156.4613
1.171072 75.141 156.0221
1.179558 74.996 155.5669
1.188106 74.846 155.0952
1.196715 74.692 154.6064
1.205387 74.533 154.0999
1.214122 74.370 153.5752
1.222920 74.203 153.0316
1.231782 74.032 152.4685
1.240708 73.859 151.8851
1.249699 73.682 151.2807
1.258754 73.504 150.6544
1.267876 73.323 150.0055
1.277063 73.141 149.3329
1.286318 72.957 148.6358
1.295639 72.773 147.9130
1.305027 72.589 147.1635
1.314484 72.405 146.3860
1.324009 72.222 145.5791
1.333604 72.040 144.7415
1.343268 71.860 143.8717
1.353002 71.682 142.9678
1.362806 71.508 142.0280
1.372681 71.337 141.0503
1.382628 71.171 140.0323
1.392647 71.010 138.9715
1.402739 70.855 137.8647
1.412904 70.706 136.7084
1.423142 70.564 135.4981
1.433455 70.430 134.2282
1.443843 70.303 132.8914
1.454305 70.184 131.4778
1.464844 70.072 129.9749
1.475459 69.965 128.3668
1.486150 69.863 126.6353
1.496920 69.765 124.7604
1.507767 69.670 122.7206
1.518693 69.579 120.4931
1.529698 69.490 118.0533
1.540783 69.404 115.3747
1.551948 69.322 112.4296
1.563194 69.243 109.1886
1.574521 69.169 105.6229
1.585931 69.099 101.7059
1.597423 69.034 97.4167
1.608999 68.974 92.7445
1.620658 68.921 87.6937
1.632402 68.874 82.2903
1.644232 68.834 76.5849
1.656146 68.801 70.6547
1.668147 68.777 64.5987
1.680235 68.762 58.5287
1.692411 68.757 52.5569
1.704675 68.761 46.7827
1.717028 68.777 41.2836
1.729470 68.805 36.1109
1.742003 68.845 31.2906
1.754626 68.898 26.8273
1.767341 68.967 22.7100
1.780147 69.050 18.9171
1.793047 69.151 15.4213
1.806040 69.270 12.1931
1.819128 69.410 9.2029
1.832310 69.572 6.4234
1.845587 69.757 3.8303
1.858961 69.968 1.4035
1.872432 70.205 -0.8735
1.886001 70.468 -3.0140
1.899667 70.754 -5.0294
1.913433 71.064 -6.9299
1.927299 71.395 -8.7244
1.941265 71.745 -10.4214
1.955332 72.112 -12.0285
1.969501 72.494 -13.5531
1.983773 72.888 -15.0017
1.998148 73.291 -16.3807
2.012627 73.702 -17.6958
2.027212 74.118 -18.9524
2.041902 74.535 -20.1555
2.056698 74.951 -21.3096
2.071602 75.364 -22.4192
2.086614 75.771 -23.4881
2.101734 76.168 -24.5203
2.116964 76.554 -25.5195
2.132304 76.925 -26.4892
2.147756 77.281 -27.4330
2.163320 77.619 -28.3548
2.178996 77.939 -29.2584
2.194786 78.242 -30.1477
2.210690 78.528 -31.0264
2.226710 78.800 -31.8975
2.242845 79.060 -32.7630
2.259098 79.307 -33.6234
2.275468 79.545 -34.4787
2.291957 79.773 -35.3283
2.308566 79.993 -36.1713
2.325295 80.204 -37.0066
2.342145 80.408 -37.8331
2.359117 80.606 -38.6501
2.376212 80.797 -39.4566
2.393431 80.983 -40.2517
2.410775 81.163 -41.0350
2.428244 81.340 -41.8059
2.445840 81.513 -42.5640
2.463564 81.683 -43.3092
2.481416 81.851 -44.0416
2.499397 82.017 -44.7617
2.517509 82.182 -45.4705
2.535752 82.345 -46.1698
2.554127 82.507 -46.8618
2.572635 82.667 -47.5496
2.591277 82.823 -48.2360
2.610055 82.976 -48.9233
2.628968 83.125 -49.6127
2.648019 83.270 -50.3042
2.667208 83.410 -50.9972
2.686535 83.546 -51.6905
2.706003 83.678 -52.3826
2.725612 83.805 -53.0718
2.745363 83.929 -53.7563
2.765257 84.050 -54.4345
2.785295 84.168 -55.1047
2.805478 84.283 -55.7652
2.825808 84.395 -56.4147
2.846285 84.505 -57.0520
2.866910 84.613 -57.6765
2.887685 84.720 -58.2883
2.908611 84.824 -58.8883
2.929688 84.926 -59.4781
2.950917 85.026 -60.0604
2.972301 85.122 -60.6374
2.993839 85.216 -61.2109
3.015534 85.306 -61.7819
3.037386 85.393 -62.3503
3.059396 85.477 -62.9153
3.081565 85.558 -63.4760
3.103896 85.637 -64.0309
3.126388 85.713 -64.5783
3.149043 85.786 -65.1164
3.171862 85.858 -65.6437
3.194847 85.928 -66.1583
3.217998 85.997 -66.6588
3.241317 86.064 -67.1441
3.264805 86.130 -67.6137
3.288463 86.194 -68.0677
3.312293 86.257 -68.5070
3.336295 86.318 -68.9329
3.360471 86.377 -69.3467
3.384822 86.434 -69.7495
3.409350 86.488 -70.1418
3.434056 86.541 -70.5238
3.458940 86.593 -70.8954
3.484005 86.643 -71.2563
3.509252 86.692 -71.6060
3.534681 86.740 -71.9437
3.560295 86.788 -72.2688
3.586094 86.836 -72.5804
3.612081 86.884 -72.8778
3.638255 86.932 -73.1602
3.664620 86.981 -73.4269
3.691175 87.030 -73.6778
3.717923 87.078 -73.9130
3.744864 87.127 -74.1331
3.772001 87.175 -74.3391
3.799335 87.223 -74.5321
3.826866 87.272 -74.7138
3.854597 87.321 -74.8855
3.882529 87.370 -75.0487
3.910664 87.421 -75.2047
3.939002 87.473 -75.3547
3.967546 87.526 -75.4994
3.996296 87.581 -75.6388
4.025255 87.638 -75.7728
4.054423 87.696 -75.9005
4.083804 87.756 -76.0216
4.113396 87.818 -76.1362
4.143204 87.882 -76.2450
4.173227 87.947 -76.3499
4.203468 88.013 -76.4529
4.233928 88.081 -76.5565
4.264609 88.151 -76.6632
4.295512 88.221 -76.7752
4.326639 88.293 -76.8945
4.357992 88.366 -77.0222
4.389572 88.441 -77.1589
4.421380 88.517 -77.3044
4.453419 88.595 -77.4580
4.485691 88.674 -77.6195
4.518196 88.754 -77.7889
4.550936 88.835 -77.9667
4.583914 88.918 -78.1540
4.617131 89.000 -78.3517
4.650589 89.083 -78.5613
4.684289 89.166 -78.7839
4.718233 89.249 -79.0205
4.752424 89.331 -79.2717
4.786862 89.413 -79.5378
4.821549 89.494 -79.8184
4.856488 89.576 -80.1130
4.891680 89.656 -80.4207
4.927127 89.736 -80.7404
4.962831 89.816 -81.0713
4.998794 89.894 -81.4124
5.035017 89.971 -81.7633
5.071503 90.046 -82.1235
5.108253 90.120 -82.4933
5.145270 90.192 -82.8727
5.182555 90.262 -83.2621
5.220110 90.330 -83.6610
5.257937 90.397 -84.0684
5.296038 90.462 -84.4829
5.334415 90.525 -84.9027
5.373071 90.586 -85.3257
5.412006 90.645 -85.7503
5.451224 90.703 -86.1754
5.490725 90.758 -86.6004
5.530514 90.812 -87.0254
5.570590 90.863 -87.4504
5.610957 90.913 -87.8753
5.651616 90.961 -88.2991
5.692570 91.008 -88.7208
5.733821 91.053 -89.1387
5.775370 91.096 -89.5515
5.817221 91.139 -89.9579
5.859375 91.181 -90.3570
5.901834 91.222 -90.7487
5.944602 91.262 -91.1332
5.987679 91.301 -91.5106
6.031068 91.340 -91.8812
6.074771 91.378 -92.2451
6.118792 91.416 -92.6024
6.163131 91.455 -92.9528
6.207792 91.494 -93.2961
6.252776 91.534 -93.6322
6.298086 91.574 -93.9614
6.343725 91.615 -94.2842
6.389694 91.656 -94.6018
6.435996 91.699 -94.9155
6.482634 91.742 -95.2267
6.529610 91.787 -95.5365
6.576926 91.833 -95.8459
6.624585 91.880 -96.1553
6.672590 91.929 -96.4653
6.720942 91.978 -96.7765
6.769645 92.030 -97.0899
6.818700 92.082 -97.4070
6.868111 92.135 -97.7292
6.917881 92.189 -98.0575
6.968010 92.244 -98.3930
7.018504 92.300 -98.7360
7.069362 92.357 -99.0866
7.120590 92.414 -99.4448
7.172189 92.471 -99.8109
7.224161 92.529 -100.1849
7.276511 92.586 -100.5670
7.329239 92.644 -100.9575
7.382350 92.700 -101.3562
7.435845 92.757 -101.7627
7.489729 92.813 -102.1762
7.544002 92.868 -102.5958
7.598669 92.923 -103.0203
7.653732 92.977 -103.4490
7.709194 93.030 -103.8811
7.765058 93.082 -104.3161
7.821327 93.132 -104.7532
7.878004 93.182 -105.1914
7.935091 93.231 -105.6296
7.992592 93.279 -106.0663
8.050510 93.327 -106.5008
8.108847 93.373 -106.9322
8.167607 93.419 -107.3603
8.226793 93.464 -107.7846
8.286408 93.509 -108.2046
8.346454 93.554 -108.6199
8.406936 93.598 -109.0300
8.467856 93.643 -109.4349
8.529218 93.687 -109.8346
8.591024 93.732 -110.2293
8.653278 93.777 -110.6196
8.715983 93.822 -111.0060
8.779143 93.868 -111.3890
8.842760 93.914 -111.7689
8.906839 93.961 -112.1463
8.971381 94.009 -112.5218
9.036392 94.057 -112.8963
9.101873 94.105 -113.2705
9.167829 94.154 -113.6450
9.234263 94.203 -114.0203
9.301178 94.252 -114.3967
9.368578 94.302 -114.7745
9.436467 94.351 -115.1540
9.504847 94.400 -115.5352
9.573723 94.449 -115.9184
9.643099 94.497 -116.3032
9.712976 94.544 -116.6895
9.783361 94.588 -117.0767
9.854255 94.630 -117.4643
9.925663 94.669 -117.8520
9.997588 94.706 -118.2391
10.070035 94.739 -118.6253
10.143007 94.770 -119.0097
10.216507 94.798 -119.3919
10.290540 94.824 -119.7713
10.365109 94.849 -120.1474
10.440219 94.872 -120.5202
10.515873 94.893 -120.8893
10.592076 94.914 -121.2545
10.668830 94.935 -121.6160
10.746141 94.955 -121.9736
10.824012 94.974 -122.3279
10.902447 94.994 -122.6790
10.981451 95.013 -123.0275
11.061027 95.032 -123.3738
11.141180 95.051 -123.7183
11.221913 95.070 -124.0614
11.303232 95.088 -124.4039
11.385140 95.106 -124.7460
11.467641 95.124 -125.0882
11.550741 95.142 -125.4306
11.634442 95.160 -125.7736
11.718750 95.177 -126.1171
11.803669 95.194 -126.4613
11.889203 95.211 -126.8060
11.975357 95.228 -127.1511
12.062136 95.244 -127.4963
12.149543 95.260 -127.8413
12.237583 95.276 -128.1860
12.326262 95.291 -128.5300
12.415583 95.306 -128.8731
12.505552 95.320 -129.2152
12.596172 95.333 -129.5561
12.687449 95.346 -129.8960
12.779387 95.358 -130.2348
12.871992 95.371 -130.5729
12.965268 95.382 -130.9104
13.059220 95.394 -131.2477
13.153852 95.406 -131.5852
13.249170 95.418 -131.9233
13.345179 95.429 -132.2625
13.441884 95.441 -132.6030
13.539289 95.454 -132.9454
13.637401 95.466 -133.2899
13.736223 95.478 -133.6367
13.835761 95.490 -133.9860
13.936021 95.502 -134.3378
14.037007 95.513 -134.6920
14.138725 95.524 -135.0488
14.241180 95.535 -135.4078
14.344377 95.545 -135.7690
14.448323 95.555 -136.1323
14.553021 95.564 -136.4975
14.658478 95.573 -136.8645
14.764700 95.582 -137.2333
14.871691 95.591 -137.6037
14.979457 95.600 -137.9758
15.088005 95.609 -138.3497
15.197339 95.617 -138.7251
15.307465 95.626 -139.1022
15.418389 95.635 -139.4808
15.530117 95.643 -139.8609
15.642655 95.652 -140.2423
15.756008 95.660 -140.6247
15.870182 95.668 -141.0079
15.985184 95.675 -141.3915
16.101019 95.683 -141.7752
16.217694 95.690 -142.1587
16.335214 95.697 -142.5417
16.453586 95.704 -142.9238
16.572815 95.711 -143.3051
16.692909 95.719 -143.6852
16.813872 95.727 -144.0642
16.935713 95.735 -144.4421
17.058436 95.744 -144.8190
17.182048 95.753 -145.1948
17.306556 95.762 -145.5697
17.431967 95.771 -145.9436
17.558286 95.780 -146.3163
17.685521 95.789 -146.6877
17.813677 95.797 -147.0576
17.942762 95.806 -147.4254
18.072783 95.814 -147.7910
18.203746 95.822 -148.1538
18.335658 95.830 -148.5135
18.468526 95.837 -148.8699
18.602356 95.845 -149.2229
18.737156 95.852 -149.5725
18.872934 95.860 -149.9188
19.009695 95.868 -150.2623
19.147447 95.876 -150.6033
19.286197 95.884 -150.9423
19.425953 95.892 -151.2796
19.566721 95.899 -151.6157
19.708510 95.907 -151.9509
19.851326 95.914 -152.2852
19.995177 95.921 -152.6187
20.140070 95.927 -152.9513
20.286013 95.933 -153.2828
20.433014 95.938 -153.6130
20.581080 95.942 -153.9419
20.730219 95.946 -154.2694
20.880439 95.950 -154.5957
21.031747 95.953 -154.9210
21.184152 95.956 -155.2456
21.337661 95.959 -155.5700
21.492282 95.962 -155.8946
21.648024 95.965 -156.2197
21.804895 95.967 -156.5458
21.962902 95.969 -156.8730
22.122054 95.971 -157.2013
22.282360 95.972 -157.5308
22.443827 95.972 -157.8614
22.606464 95.972 -158.1930
22.770280 95.972 -158.5255
22.935283 95.971 -158.8589
23.101481 95.970 -159.1932
23.268884 95.969 -159.5284
23.437500 95.967 -159.8644
23.607338 95.965 -160.2011
23.778406 95.962 -160.5383
23.950714 95.959 -160.8757
24.124271 95.955 -161.2129
24.299086 95.952 -161.5495
24.475167 95.948 -161.8853
24.652524 95.944 -162.2201
24.831166 95.940 -162.5541
25.011103 95.936 -162.8875
25.192344 95.932 -163.2207
25.374898 95.928 -163.5538
25.558775 95.925 -163.8870
25.743984 95.921 -164.2199
25.930536 95.917 -164.5516
26.118439 95.913 -164.8811
26.307704 95.908 -165.2071
26.498341 95.903 -165.5282
26.690359 95.899 -165.8438
26.883768 95.894 -166.1538
27.078579 95.890 -166.4591
27.274801 95.887 -166.7615
27.472446 95.884 -167.0637
27.671522 95.883 -167.3684
27.872042 95.881 -167.6782
28.074014 95.880 -167.9946
28.277450 95.877 -168.3177
28.482360 95.873 -168.6462
28.688755 95.867 -168.9769
28.896645 95.858 -169.3060
29.106042 95.847 -169.6291
29.316957 95.835 -169.9423
29.529400 95.821 -170.2432
29.743382 95.807 -170.5311
29.958915 95.794 -170.8072
30.176009 95.781 -171.0745
30.394677 95.770 -171.3370
30.614929 95.760 -171.5992
30.836778 95.750 -171.8646
31.060234 95.742 -172.1357
31.285309 95.733 -172.4134
31.512015 95.724 -172.6972
31.740364 95.714 -172.9854
31.970368 95.703 -173.2760
32.202039 95.691 -173.5673
32.435388 95.679 -173.8580
32.670428 95.667 -174.1480
32.907171 95.655 -174.4374
33.145630 95.643 -174.7270
33.385817 95.630 -175.0175
33.627745 95.618 -175.3090
33.871425 95.605 -175.6015
34.116871 95.592 -175.8942
34.364096 95.579 -176.1863
34.613113 95.566 -176.4772
34.863934 95.552 -176.7664
35.116572 95.538 -177.0537
35.371041 95.524 -177.3392
35.627354 95.510 -177.6231
35.885525 95.495 -177.9051
36.145566 95.480 -178.1849
36.407492 95.465 -178.4618
36.671316 95.449 -178.7351
36.937051 95.432 -179.0043
37.204712 95.416 -179.2693
37.474313 95.400 -179.5304
37.745867 95.383 -179.7885
38.019389 95.367 179.9553
38.294893 95.351 179.6997
38.572394 95.335 179.4437
38.851905 95.319 179.1865
39.133442 95.302 178.9280
39.417019 95.285 178.6683
39.702651 95.267 178.4081
39.990353 95.249 178.1483
40.280140 95.231 177.8895
40.572026 95.212 177.6323
40.866028 95.192 177.3771
41.162160 95.173 177.1235
41.460438 95.153 176.8715
41.760877 95.133 176.6207
42.063494 95.113 176.3712
42.368303 95.093 176.1234
42.675322 95.073 175.8773
42.984565 95.053 175.6330
43.296048 95.032 175.3902
43.609789 95.012 175.1481
43.925804 94.991 174.9064
44.244108 94.970 174.6650
44.564719 94.948 174.4250
44.887654 94.926 174.1879
45.212928 94.903 173.9556
45.540560 94.880 173.7290
45.870565 94.857 173.5083
46.202962 94.834 173.2921
46.537768 94.811 173.0786
46.875000 94.789 172.8657
47.214676 94.767 172.6520
47.556813 94.745 172.4371
47.901429 94.723 172.2213
48.248542 94.700 172.0053
48.598171 94.677 171.7904
48.950334 94.653 171.5778
49.305048 94.629 171.3684
49.662333 94.604 171.1632
50.022206 94.580 170.9626
50.384688 94.555 170.7665
50.749796 94.530 170.5739
51.117550 94.506 170.3834
51.487969 94.482 170.1932
51.861072 94.459 170.0024
52.236879 94.435 169.8107
52.615409 94.411 169.6190
52.996681 94.387 169.4286
53.380717 94.363 169.2405
53.767536 94.338 169.0550
54.157158 94.314 168.8715
54.549603 94.291 168.6891
54.944892 94.267 168.5071
55.343045 94.243 168.3253
55.744084 94.220 168.1439
56.148028 94.196 167.9631
56.554900 94.173 167.7824
56.964720 94.149 167.6006
57.377510 94.126 167.4164
57.793291 94.102 167.2289
58.212085 94.078 167.0388
58.633914 94.053 166.8478
59.058799 94.027 166.6584
59.486764 94.000 166.4721
59.917829 93.972 166.2889
60.352019 93.945 166.1071
60.789354 93.918 165.9243
61.229859 93.890 165.7395
61.673556 93.861 165.5535
62.120468 93.831 165.3694
62.570618 93.800 165.1910
63.024031 93.769 165.0207
63.480729 93.738 164.8581
63.940736 93.708 164.7011
64.404077 93.678 164.5465
64.870776 93.649 164.3923
65.340856 93.619 164.2382
65.814343 93.589 164.0857
66.291261 93.559 163.9368
66.771635 93.528 163.7927
67.255489 93.497 163.6527
67.742850 93.466 163.5156
68.233743 93.435 163.3804
68.728193 93.403 163.2473
69.226226 93.371 163.1166
69.727867 93.339 162.9885
70.233144 93.307 162.8618
70.742083 93.276 162.7353
71.254709 93.244 162.6080
