* Measurement data measured by REW V5.31
* Source: EXCL: Microphone (USB Sound Device        ), MICROPHONE (Master Volume), L, volume: 0.250
* Format: 256k Log Swept Sine, 1 sweep at -4.0 dBFS with no timing reference
* Dated: Jul 14, 2024 12:21:08 AM
* REW Settings:
*  C-weighting compensation: Off
*  Target level: 75.0 dB
* Note: Moondrop Blessing 3 L
* Measurement: L Moondrop Blessing 3
* Smoothing: 1/12 octave
* Frequency Step: 96 ppo
* Start Frequency: 0.36621094 Hz
*
* Freq(Hz) SPL(dB) Phase(degrees)
0.366211 79.034 -166.3516
0.368865 79.043 -166.3647
0.371538 79.057 -166.3841
0.374230 79.073 -166.4080
0.376942 79.092 -166.4350
0.379673 79.112 -166.4639
0.382424 79.133 -166.4940
0.385196 79.154 -166.5249
0.387987 79.176 -166.5563
0.390798 79.198 -166.5880
0.393630 79.221 -166.6201
0.396483 79.243 -166.6524
0.399356 79.266 -166.6849
0.402250 79.289 -166.7177
0.405165 79.312 -166.7508
0.408101 79.335 -166.7841
0.411058 79.358 -166.8178
0.414037 79.382 -166.8517
0.417037 79.405 -166.8859
0.420059 79.429 -166.9204
0.423103 79.453 -166.9553
0.426169 79.477 -166.9905
0.429257 79.502 -167.0261
0.432368 79.526 -167.0620
0.435501 79.551 -167.0984
0.438656 79.576 -167.1351
0.441835 79.601 -167.1723
0.445037 79.626 -167.2099
0.448262 79.652 -167.2480
0.451510 79.677 -167.2865
0.454782 79.703 -167.3255
0.458077 79.729 -167.3651
0.461397 79.755 -167.4052
0.464740 79.782 -167.4459
0.468108 79.808 -167.4871
0.471500 79.835 -167.5289
0.474917 79.862 -167.5714
0.478358 79.889 -167.6145
0.481825 79.916 -167.6583
0.485316 79.944 -167.7028
0.488833 79.972 -167.7480
0.492375 80.000 -167.7939
0.495943 80.028 -167.8407
0.499537 80.056 -167.8882
0.503157 80.085 -167.9366
0.506803 80.113 -167.9858
0.510475 80.142 -168.0359
0.514175 80.172 -168.0869
0.517900 80.201 -168.1389
0.521653 80.231 -168.1919
0.525434 80.260 -168.2460
0.529241 80.291 -168.3010
0.533076 80.321 -168.3572
0.536939 80.351 -168.4145
0.540830 80.382 -168.4729
0.544749 80.413 -168.5326
0.548696 80.444 -168.5935
0.552673 80.475 -168.6557
0.556677 80.507 -168.7192
0.560711 80.539 -168.7841
0.564774 80.571 -168.8504
0.568867 80.603 -168.9182
0.572989 80.636 -168.9875
0.577141 80.669 -169.0583
0.581324 80.702 -169.1308
0.585536 80.735 -169.2049
0.589779 80.768 -169.2807
0.594053 80.802 -169.3583
0.598358 80.836 -169.4377
0.602694 80.870 -169.5190
0.607061 80.905 -169.6022
0.611460 80.939 -169.6874
0.615891 80.974 -169.7747
0.620354 81.010 -169.8641
0.624849 81.045 -169.9557
0.629377 81.081 -170.0496
0.633938 81.117 -170.1458
0.638532 81.153 -170.2443
0.643159 81.189 -170.3454
0.647819 81.226 -170.4491
0.652514 81.263 -170.5553
0.657242 81.301 -170.6643
0.662005 81.338 -170.7761
0.666802 81.376 -170.8909
0.671634 81.414 -171.0085
0.676501 81.453 -171.1293
0.681403 81.491 -171.2533
0.686341 81.530 -171.3805
0.691314 81.569 -171.5112
0.696324 81.609 -171.6453
0.701370 81.649 -171.7830
0.706452 81.688 -171.9244
0.711571 81.728 -172.0697
0.716728 81.768 -172.2188
0.721921 81.808 -172.3720
0.727153 81.847 -172.5291
0.732422 81.885 -172.6904
0.737729 81.923 -172.8556
0.743075 81.960 -173.0249
0.748460 81.996 -173.1981
0.753883 82.031 -173.3752
0.759346 82.067 -173.5560
0.764849 82.102 -173.7407
0.770391 82.137 -173.9291
0.775974 82.173 -174.1211
0.781597 82.208 -174.3168
0.787261 82.243 -174.5160
0.792966 82.278 -174.7188
0.798712 82.314 -174.9250
0.804500 82.349 -175.1347
0.810329 82.384 -175.3478
0.816201 82.420 -175.5642
0.822116 82.455 -175.7839
0.828073 82.490 -176.0069
0.834074 82.526 -176.2330
0.840118 82.561 -176.4623
0.846206 82.596 -176.6948
0.852338 82.631 -176.9303
0.858514 82.667 -177.1687
0.864735 82.702 -177.4102
0.871001 82.737 -177.6546
0.877313 82.773 -177.9019
0.883670 82.808 -178.1521
0.890074 82.843 -178.4050
0.896524 82.878 -178.6607
0.903020 82.913 -178.9192
0.909564 82.948 -179.1804
0.916155 82.983 -179.4442
0.922794 83.018 -179.7107
0.929481 83.053 -179.9798
0.936216 83.088 179.7485
0.943000 83.123 179.4742
0.949834 83.158 179.1974
0.956717 83.192 178.9180
0.963649 83.227 178.6361
0.970632 83.262 178.3517
0.977666 83.296 178.0647
0.984750 83.330 177.7752
0.991886 83.365 177.4832
0.999074 83.399 177.1886
1.006314 83.433 176.8914
1.013606 83.467 176.5917
1.020951 83.501 176.2893
1.028349 83.535 175.9843
1.035801 83.568 175.6765
1.043307 83.602 175.3660
1.050867 83.635 175.0526
1.058482 83.668 174.7362
1.066152 83.701 174.4167
1.073878 83.734 174.0937
1.081660 83.767 173.7670
1.089498 83.800 173.4359
1.097393 83.832 173.0998
1.105345 83.864 172.7580
1.113355 83.896 172.4096
1.121423 83.928 172.0541
1.129549 83.959 171.6912
1.137734 83.990 171.3205
1.145979 84.021 170.9421
1.154283 84.051 170.5560
1.162647 84.082 170.1624
1.171072 84.111 169.7614
1.179558 84.141 169.3533
1.188106 84.170 168.9382
1.196715 84.199 168.5164
1.205387 84.228 168.0881
1.214122 84.256 167.6537
1.222920 84.284 167.2133
1.231782 84.312 166.7673
1.240708 84.339 166.3160
1.249699 84.366 165.8596
1.258754 84.393 165.3986
1.267876 84.419 164.9331
1.277063 84.445 164.4636
1.286318 84.471 163.9903
1.295639 84.496 163.5137
1.305027 84.521 163.0341
1.314484 84.546 162.5519
1.324009 84.571 162.0675
1.333604 84.595 161.5812
1.343268 84.619 161.0936
1.353002 84.642 160.6049
1.362806 84.665 160.1156
1.372681 84.688 159.6262
1.382628 84.711 159.1370
1.392647 84.733 158.6484
1.402739 84.755 158.1610
1.412904 84.777 157.6749
1.423142 84.799 157.1904
1.433455 84.820 156.7075
1.443843 84.841 156.2260
1.454305 84.861 155.7454
1.464844 84.881 155.2645
1.475459 84.901 154.7823
1.486150 84.920 154.2974
1.496920 84.939 153.8087
1.507767 84.957 153.3154
1.518693 84.974 152.8171
1.529698 84.991 152.3135
1.540783 85.007 151.8048
1.551948 85.023 151.2910
1.563194 85.038 150.7722
1.574521 85.053 150.2486
1.585931 85.067 149.7206
1.597423 85.080 149.1884
1.608999 85.093 148.6522
1.620658 85.105 148.1126
1.632402 85.117 147.5697
1.644232 85.128 147.0240
1.656146 85.139 146.4759
1.668147 85.149 145.9257
1.680235 85.159 145.3740
1.692411 85.168 144.8211
1.704675 85.177 144.2675
1.717028 85.185 143.7137
1.729470 85.193 143.1603
1.742003 85.200 142.6077
1.754626 85.207 142.0564
1.767341 85.214 141.5068
1.780147 85.220 140.9592
1.793047 85.226 140.4139
1.806040 85.231 139.8707
1.819128 85.236 139.3292
1.832310 85.241 138.7884
1.845587 85.244 138.2471
1.858961 85.247 137.7042
1.872432 85.249 137.1585
1.886001 85.251 136.6094
1.899667 85.252 136.0567
1.913433 85.251 135.5001
1.927299 85.250 134.9397
1.941265 85.249 134.3759
1.955332 85.246 133.8089
1.969501 85.243 133.2393
1.983773 85.239 132.6674
1.998148 85.235 132.0940
2.012627 85.230 131.5196
2.027212 85.225 130.9449
2.041902 85.219 130.3707
2.056698 85.213 129.7978
2.071602 85.207 129.2271
2.086614 85.200 128.6596
2.101734 85.193 128.0963
2.116964 85.186 127.5381
2.132304 85.179 126.9861
2.147756 85.172 126.4411
2.163320 85.165 125.9039
2.178996 85.158 125.3749
2.194786 85.150 124.8542
2.210690 85.143 124.3415
2.226710 85.134 123.8361
2.242845 85.126 123.3374
2.259098 85.116 122.8448
2.275468 85.106 122.3577
2.291957 85.096 121.8759
2.308566 85.085 121.3992
2.325295 85.073 120.9273
2.342145 85.062 120.4604
2.359117 85.050 119.9985
2.376212 85.039 119.5416
2.393431 85.027 119.0899
2.410775 85.016 118.6436
2.428244 85.006 118.2030
2.445840 84.996 117.7685
2.463564 84.987 117.3404
2.481416 84.979 116.9194
2.499397 84.973 116.5062
2.517509 84.967 116.1014
2.535752 84.963 115.7063
2.554127 84.960 115.3218
2.572635 84.958 114.9493
2.591277 84.957 114.5898
2.610055 84.958 114.2440
2.628968 84.959 113.9120
2.648019 84.961 113.5934
2.667208 84.964 113.2875
2.686535 84.968 112.9933
2.706003 84.974 112.7096
2.725612 84.980 112.4351
2.745363 84.988 112.1683
2.765257 84.998 111.9077
2.785295 85.010 111.6521
2.805478 85.023 111.3998
2.825808 85.039 111.1495
2.846285 85.057 110.9002
2.866910 85.077 110.6510
2.887685 85.100 110.4017
2.908611 85.126 110.1527
2.929688 85.155 109.9054
2.950917 85.186 109.6613
2.972301 85.221 109.4223
2.993839 85.259 109.1893
3.015534 85.300 108.9625
3.037386 85.343 108.7412
3.059396 85.389 108.5240
3.081565 85.438 108.3092
3.103896 85.490 108.0948
3.126388 85.544 107.8785
3.149043 85.600 107.6580
3.171862 85.658 107.4311
3.194847 85.718 107.1956
3.217998 85.781 106.9497
3.241317 85.845 106.6921
3.264805 85.911 106.4221
3.288463 85.979 106.1397
3.312293 86.050 105.8462
3.336295 86.123 105.5428
3.360471 86.198 105.2307
3.384822 86.276 104.9109
3.409350 86.357 104.5834
3.434056 86.440 104.2480
3.458940 86.524 103.9041
3.484005 86.610 103.5508
3.509252 86.698 103.1870
3.534681 86.786 102.8115
3.560295 86.875 102.4231
3.586094 86.964 102.0206
3.612081 87.053 101.6031
3.638255 87.142 101.1696
3.664620 87.230 100.7198
3.691175 87.319 100.2536
3.717923 87.408 99.7716
3.744864 87.498 99.2748
3.772001 87.587 98.7644
3.799335 87.677 98.2419
3.826866 87.766 97.7087
3.854597 87.855 97.1660
3.882529 87.944 96.6152
3.910664 88.032 96.0570
3.939002 88.119 95.4921
3.967546 88.204 94.9207
3.996296 88.288 94.3424
4.025255 88.370 93.7565
4.054423 88.451 93.1619
4.083804 88.530 92.5580
4.113396 88.608 91.9449
4.143204 88.684 91.3235
4.173227 88.758 90.6953
4.203468 88.831 90.0626
4.233928 88.903 89.4276
4.264609 88.973 88.7926
4.295512 89.041 88.1595
4.326639 89.107 87.5298
4.357992 89.172 86.9041
4.389572 89.234 86.2823
4.421380 89.295 85.6635
4.453419 89.353 85.0467
4.485691 89.409 84.4315
4.518196 89.464 83.8181
4.550936 89.516 83.2078
4.583914 89.567 82.6023
4.617131 89.616 82.0038
4.650589 89.664 81.4145
4.684289 89.710 80.8363
4.718233 89.755 80.2707
4.752424 89.799 79.7185
4.786862 89.842 79.1796
4.821549 89.883 78.6534
4.856488 89.923 78.1395
4.891680 89.962 77.6374
4.927127 90.000 77.1470
4.962831 90.037 76.6689
4.998794 90.073 76.2035
5.035017 90.110 75.7516
5.071503 90.147 75.3141
5.108253 90.184 74.8917
5.145270 90.221 74.4850
5.182555 90.259 74.0940
5.220110 90.297 73.7181
5.257937 90.336 73.3564
5.296038 90.375 73.0076
5.334415 90.414 72.6700
5.373071 90.455 72.3424
5.412006 90.497 72.0234
5.451224 90.541 71.7123
5.490725 90.586 71.4088
5.530514 90.633 71.1129
5.570590 90.681 70.8243
5.610957 90.731 70.5423
5.651616 90.782 70.2654
5.692570 90.835 69.9915
5.733821 90.889 69.7186
5.775370 90.944 69.4445
5.817221 91.001 69.1675
5.859375 91.059 68.8867
5.901834 91.118 68.6014
5.944602 91.178 68.3118
5.987679 91.239 68.0175
6.031068 91.301 67.7179
6.074771 91.363 67.4124
6.118792 91.426 67.0997
6.163131 91.488 66.7791
6.207792 91.550 66.4496
6.252776 91.612 66.1108
6.298086 91.673 65.7627
6.343725 91.734 65.4059
6.389694 91.793 65.0412
6.435996 91.852 64.6695
6.482634 91.910 64.2916
6.529610 91.966 63.9084
6.576926 92.020 63.5201
6.624585 92.073 63.1269
6.672590 92.123 62.7294
6.720942 92.172 62.3282
6.769645 92.219 61.9247
6.818700 92.264 61.5206
6.868111 92.307 61.1175
6.917881 92.348 60.7168
6.968010 92.387 60.3196
7.018504 92.424 59.9262
7.069362 92.459 59.5372
7.120590 92.492 59.1533
7.172189 92.524 58.7753
7.224161 92.554 58.4043
7.276511 92.583 58.0415
7.329239 92.611 57.6876
7.382350 92.637 57.3429
7.435845 92.663 57.0074
7.489729 92.688 56.6807
7.544002 92.713 56.3625
7.598669 92.737 56.0525
7.653732 92.761 55.7502
7.709194 92.786 55.4554
7.765058 92.810 55.1677
7.821327 92.835 54.8862
7.878004 92.860 54.6099
7.935091 92.885 54.3372
7.992592 92.912 54.0669
8.050510 92.938 53.7977
8.108847 92.965 53.5286
8.167607 92.993 53.2589
8.226793 93.022 52.9877
8.286408 93.050 52.7137
8.346454 93.079 52.4359
8.406936 93.108 52.1531
8.467856 93.137 51.8648
8.529218 93.166 51.5705
8.591024 93.195 51.2701
8.653278 93.224 50.9634
8.715983 93.252 50.6507
8.779143 93.279 50.3317
8.842760 93.305 50.0067
8.906839 93.331 49.6759
8.971381 93.355 49.3401
9.036392 93.379 48.9999
9.101873 93.401 48.6562
9.167829 93.422 48.3098
9.234263 93.443 47.9611
9.301178 93.462 47.6108
9.368578 93.480 47.2596
9.436467 93.497 46.9082
9.504847 93.513 46.5573
9.573723 93.528 46.2072
9.643099 93.541 45.8583
9.712976 93.554 45.5107
9.783361 93.564 45.1643
9.854255 93.573 44.8192
9.925663 93.579 44.4751
9.997588 93.583 44.1319
10.070035 93.585 43.7891
10.143007 93.584 43.4463
10.216507 93.583 43.1028
10.290540 93.580 42.7583
10.365109 93.576 42.4122
10.440219 93.571 42.0643
10.515873 93.566 41.7140
10.592076 93.560 41.3611
10.668830 93.555 41.0053
10.746141 93.549 40.6466
10.824012 93.543 40.2852
10.902447 93.537 39.9212
10.981451 93.531 39.5549
11.061027 93.524 39.1866
11.141180 93.517 38.8168
11.221913 93.510 38.4460
11.303232 93.503 38.0747
11.385140 93.495 37.7035
11.467641 93.488 37.3328
11.550741 93.480 36.9630
11.634442 93.473 36.5945
11.718750 93.466 36.2275
11.803669 93.460 35.8623
11.889203 93.454 35.4987
11.975357 93.449 35.1369
12.062136 93.444 34.7766
12.149543 93.440 34.4176
12.237583 93.437 34.0599
12.326262 93.435 33.7031
12.415583 93.433 33.3470
12.505552 93.431 32.9915
12.596172 93.430 32.6365
12.687449 93.428 32.2822
12.779387 93.427 31.9285
12.871992 93.426 31.5758
12.965268 93.424 31.2245
13.059220 93.423 30.8748
13.153852 93.422 30.5274
13.249170 93.421 30.1828
13.345179 93.420 29.8414
13.441884 93.419 29.5037
13.539289 93.419 29.1701
13.637401 93.418 28.8408
13.736223 93.418 28.5160
13.835761 93.418 28.1956
13.936021 93.418 27.8795
14.037007 93.419 27.5674
14.138725 93.419 27.2588
14.241180 93.420 26.9535
14.344377 93.420 26.6508
14.448323 93.421 26.3502
14.553021 93.421 26.0515
14.658478 93.421 25.7543
14.764700 93.421 25.4584
14.871691 93.421 25.1639
14.979457 93.420 24.8710
15.088005 93.419 24.5797
15.197339 93.418 24.2906
15.307465 93.415 24.0041
15.418389 93.413 23.7206
15.530117 93.409 23.4404
15.642655 93.405 23.1638
15.756008 93.400 22.8911
15.870182 93.395 22.6221
15.985184 93.389 22.3564
16.101019 93.383 22.0940
16.217694 93.377 21.8340
16.335214 93.370 21.5758
16.453586 93.364 21.3187
16.572815 93.357 21.0619
16.692909 93.350 20.8049
16.813872 93.343 20.5470
16.935713 93.336 20.2878
17.058436 93.329 20.0273
17.182048 93.321 19.7653
17.306556 93.314 19.5020
17.431967 93.305 19.2374
17.558286 93.296 18.9722
17.685521 93.287 18.7062
17.813677 93.277 18.4399
17.942762 93.266 18.1735
18.072783 93.256 17.9067
18.203746 93.245 17.6396
18.335658 93.233 17.3719
18.468526 93.222 17.1033
18.602356 93.211 16.8335
18.737156 93.200 16.5622
18.872934 93.190 16.2892
19.009695 93.179 16.0144
19.147447 93.169 15.7379
19.286197 93.159 15.4598
19.425953 93.149 15.1805
19.566721 93.139 14.9003
19.708510 93.129 14.6195
19.851326 93.119 14.3387
19.995177 93.110 14.0580
20.140070 93.100 13.7776
20.286013 93.091 13.4978
20.433014 93.082 13.2185
20.581080 93.074 12.9398
20.730219 93.065 12.6619
20.880439 93.057 12.3848
21.031747 93.050 12.1086
21.184152 93.043 11.8339
21.337661 93.036 11.5607
21.492282 93.030 11.2894
21.648024 93.024 11.0206
21.804895 93.018 10.7544
21.962902 93.012 10.4910
22.122054 93.007 10.2306
22.282360 93.002 9.9731
22.443827 92.996 9.7186
22.606464 92.991 9.4669
22.770280 92.985 9.2180
22.935283 92.980 8.9720
23.101481 92.974 8.7291
23.268884 92.967 8.4896
23.437500 92.960 8.2537
23.607338 92.953 8.0219
23.778406 92.944 7.7941
23.950714 92.936 7.5705
24.124271 92.927 7.3507
24.299086 92.917 7.1343
24.475167 92.907 6.9204
24.652524 92.897 6.7083
24.831166 92.887 6.4969
25.011103 92.876 6.2858
25.192344 92.865 6.0741
25.374898 92.853 5.8616
25.558775 92.841 5.6483
25.743984 92.828 5.4343
25.930536 92.814 5.2200
26.118439 92.800 5.0057
26.307704 92.785 4.7919
26.498341 92.770 4.5786
26.690359 92.754 4.3660
26.883768 92.739 4.1537
27.078579 92.723 3.9416
27.274801 92.707 3.7290
27.472446 92.692 3.5154
27.671522 92.676 3.3002
27.872042 92.661 3.0829
28.074014 92.646 2.8632
28.277450 92.631 2.6409
28.482360 92.616 2.4164
28.688755 92.601 2.1901
28.896645 92.586 1.9629
29.106042 92.571 1.7357
29.316957 92.556 1.5093
29.529400 92.541 1.2847
29.743382 92.527 1.0623
29.958915 92.512 0.8423
30.176009 92.499 0.6247
30.394677 92.485 0.4091
30.614929 92.472 0.1953
30.836778 92.460 -0.0171
31.060234 92.447 -0.2278
31.285309 92.435 -0.4369
31.512015 92.422 -0.6439
31.740364 92.410 -0.8486
31.970368 92.397 -1.0508
32.202039 92.383 -1.2506
32.435388 92.370 -1.4484
32.670428 92.356 -1.6442
32.907171 92.342 -1.8385
33.145630 92.328 -2.0312
33.385817 92.312 -2.2223
33.627745 92.297 -2.4115
33.871425 92.281 -2.5989
34.116871 92.264 -2.7848
34.364096 92.247 -2.9695
34.613113 92.230 -3.1536
34.863934 92.212 -3.3376
35.116572 92.194 -3.5217
35.371041 92.175 -3.7054
35.627354 92.156 -3.8886
35.885525 92.137 -4.0710
36.145566 92.118 -4.2528
36.407492 92.099 -4.4351
36.671316 92.079 -4.6185
36.937051 92.060 -4.8040
37.204712 92.041 -4.9911
37.474313 92.021 -5.1786
37.745867 92.000 -5.3644
38.019389 91.980 -5.5466
38.294893 91.960 -5.7246
38.572394 91.940 -5.8991
38.851905 91.921 -6.0724
39.133442 91.902 -6.2469
39.417019 91.884 -6.4243
39.702651 91.865 -6.6041
39.990353 91.845 -6.7841
40.280140 91.825 -6.9610
40.572026 91.804 -7.1325
40.866028 91.782 -7.2982
41.162160 91.761 -7.4596
41.460438 91.740 -7.6189
41.760877 91.718 -7.7775
42.063494 91.696 -7.9343
42.368303 91.673 -8.0864
42.675322 91.649 -8.2311
42.984565 91.626 -8.3677
43.296048 91.603 -8.4993
43.609789 91.581 -8.6315
43.925804 91.560 -8.7698
44.244108 91.539 -8.9160
44.564719 91.517 -9.0674
44.887654 91.493 -9.2180
45.212928 91.468 -9.3619
45.540560 91.443 -9.4973
45.870565 91.419 -9.6271
46.202962 91.396 -9.7573
46.537768 91.374 -9.8928
46.875000 91.352 -10.0342
47.214676 91.329 -10.1776
47.556813 91.305 -10.3170
47.901429 91.282 -10.4492
48.248542 91.259 -10.5760
48.598171 91.237 -10.7036
48.950334 91.216 -10.8380
49.305048 91.195 -10.9814
49.662333 91.172 -11.1304
50.022206 91.147 -11.2775
50.384688 91.121 -11.4150
50.749796 91.094 -11.5395
51.117550 91.068 -11.6530
51.487969 91.043 -11.7612
51.861072 91.020 -11.8704
52.236879 90.996 -11.9836
52.615409 90.973 -12.0999
52.996681 90.948 -12.2140
53.380717 90.922 -12.3208
53.767536 90.897 -12.4175
54.157158 90.873 -12.5059
54.549603 90.850 -12.5914
54.944892 90.829 -12.6807
55.343045 90.808 -12.7776
55.744084 90.786 -12.8818
56.148028 90.764 -12.9893
56.554900 90.740 -13.0950
56.964720 90.716 -13.1957
57.377510 90.692 -13.2914
57.793291 90.668 -13.3854
58.212085 90.644 -13.4823
58.633914 90.621 -13.5857
59.058799 90.597 -13.6967
59.486764 90.572 -13.8129
59.917829 90.544 -13.9295
60.352019 90.516 -14.0410
60.789354 90.486 -14.1434
61.229859 90.455 -14.2358
61.673556 90.425 -14.3202
62.120468 90.395 -14.3994
62.570618 90.365 -14.4752
63.024031 90.335 -14.5473
63.480729 90.305 -14.6139
63.940736 90.274 -14.6733
64.404077 90.244 -14.7262
64.870776 90.215 -14.7750
65.340856 90.187 -14.8241
65.814343 90.159 -14.8773
66.291261 90.131 -14.9362
66.771635 90.102 -14.9989
67.255489 90.073 -15.0610
67.742850 90.042 -15.1182
68.233743 90.013 -15.1685
68.728193 89.984 -15.2141
69.226226 89.957 -15.2607
69.727867 89.931 -15.3136
70.233144 89.905 -15.3744
70.742083 89.879 -15.4404
71.254709 89.852 -15.5062
71.771050 89.825 -15.5676
72.291132 89.799 -15.6235
72.814984 89.773 -15.6770
73.342631 89.749 -15.7336
73.874102 89.724 -15.7984
74.409424 89.698 -15.8708
74.948626 89.670 -15.9430
75.491734 89.640 -16.0029
76.038779 89.609 -16.0419
76.589787 89.579 -16.0610
77.144788 89.551 -16.0702
77.703811 89.526 -16.0802
78.266885 89.501 -16.0975
78.834039 89.477 -16.1229
79.405303 89.452 -16.1556
79.980706 89.426 -16.1954
80.560280 89.399 -16.2432
