* Measurement data measured by REW V5.30.3
* Source: EXCL: Microphone (Realtek(R) Audio), MICROPHONE (Master Volume), L, volume: 1.000
* Format: 256k Log Swept Sine, 1 sweep at -18.0 dBFS with no timing reference
* Dated: Jan 7, 2024 11:34:34 PM
* REW Settings:
*  C-weighting compensation: Off
*  Target level: 75.0 dB
* Note: ND ZR L
* Measurement: L ND ZR
* Smoothing: 1/12 octave
* Frequency Step: 96 ppo
* Start Frequency: 0.36621094 Hz
*
* Freq(Hz) SPL(dB) Phase(degrees)
0.366211 71.644 160.2761
0.368865 71.633 160.2497
0.371538 71.618 160.2101
0.374230 71.599 160.1604
0.376942 71.578 160.1032
0.379673 71.555 160.0404
0.382424 71.532 159.9732
0.385196 71.507 159.9024
0.387987 71.482 159.8284
0.390798 71.457 159.7515
0.393630 71.432 159.6717
0.396483 71.406 159.5892
0.399356 71.380 159.5038
0.402250 71.354 159.4156
0.405165 71.328 159.3246
0.408101 71.301 159.2307
0.411058 71.275 159.1338
0.414037 71.248 159.0340
0.417037 71.221 158.9312
0.420059 71.194 158.8253
0.423103 71.166 158.7164
0.426169 71.138 158.6043
0.429257 71.111 158.4890
0.432367 71.083 158.3705
0.435501 71.054 158.2487
0.438656 71.026 158.1236
0.441835 70.997 157.9952
0.445037 70.968 157.8633
0.448262 70.939 157.7280
0.451510 70.910 157.5892
0.454782 70.881 157.4469
0.458077 70.851 157.3009
0.461397 70.821 157.1514
0.464740 70.791 156.9981
0.468108 70.761 156.8411
0.471500 70.730 156.6803
0.474917 70.699 156.5156
0.478358 70.668 156.3471
0.481825 70.637 156.1746
0.485316 70.605 155.9982
0.488833 70.574 155.8177
0.492375 70.542 155.6331
0.495943 70.510 155.4443
0.499537 70.477 155.2514
0.503157 70.445 155.0542
0.506803 70.412 154.8526
0.510475 70.379 154.6468
0.514174 70.345 154.4365
0.517900 70.312 154.2217
0.521653 70.278 154.0024
0.525433 70.244 153.7786
0.529241 70.210 153.5501
0.533076 70.175 153.3169
0.536939 70.140 153.0790
0.540830 70.105 152.8363
0.544749 70.070 152.5887
0.548696 70.034 152.3362
0.552673 69.999 152.0788
0.556677 69.962 151.8163
0.560711 69.926 151.5488
0.564774 69.889 151.2761
0.568867 69.853 150.9983
0.572989 69.815 150.7152
0.577141 69.778 150.4269
0.581324 69.740 150.1332
0.585536 69.702 149.8341
0.589779 69.664 149.5295
0.594053 69.626 149.2195
0.598358 69.587 148.9039
0.602694 69.548 148.5827
0.607061 69.508 148.2558
0.611460 69.469 147.9233
0.615891 69.429 147.5849
0.620354 69.389 147.2408
0.624849 69.348 146.8908
0.629377 69.307 146.5349
0.633938 69.266 146.1731
0.638532 69.225 145.8053
0.643159 69.183 145.4314
0.647819 69.141 145.0515
0.652514 69.099 144.6654
0.657242 69.056 144.2732
0.662005 69.013 143.8748
0.666802 68.970 143.4701
0.671634 68.927 143.0591
0.676501 68.883 142.6418
0.681403 68.839 142.2182
0.686341 68.794 141.7881
0.691314 68.749 141.3516
0.696324 68.704 140.9085
0.701369 68.659 140.4588
0.706452 68.613 140.0023
0.711571 68.566 139.5388
0.716727 68.519 139.0678
0.721921 68.472 138.5887
0.727153 68.423 138.1006
0.732422 68.373 137.6020
0.737729 68.322 137.0914
0.743075 68.268 136.5670
0.748460 68.213 136.0272
0.753883 68.156 135.4707
0.759346 68.096 134.8963
0.764849 68.035 134.3031
0.770391 67.971 133.6902
0.775974 67.906 133.0567
0.781597 67.838 132.4020
0.787261 67.768 131.7253
0.792965 67.697 131.0258
0.798712 67.624 130.3028
0.804499 67.549 129.5554
0.810329 67.472 128.7829
0.816201 67.394 127.9845
0.822116 67.315 127.1592
0.828073 67.234 126.3063
0.834073 67.152 125.4249
0.840118 67.069 124.5142
0.846205 66.985 123.5732
0.852337 66.900 122.6010
0.858514 66.814 121.5969
0.864735 66.728 120.5599
0.871001 66.642 119.4892
0.877313 66.555 118.3841
0.883670 66.467 117.2436
0.890074 66.380 116.0671
0.896523 66.293 114.8539
0.903020 66.207 113.6034
0.909564 66.121 112.3150
0.916155 66.036 110.9884
0.922793 65.951 109.6231
0.929480 65.868 108.2189
0.936216 65.786 106.7757
0.943000 65.706 105.2936
0.949833 65.628 103.7729
0.956716 65.551 102.2138
0.963649 65.477 100.6171
0.970632 65.406 98.9835
0.977666 65.337 97.3140
0.984750 65.272 95.6098
0.991886 65.210 93.8725
0.999074 65.152 92.1036
1.006313 65.097 90.3050
1.013605 65.048 88.4789
1.020950 65.003 86.6275
1.028349 64.963 84.7533
1.035801 64.928 82.8589
1.043306 64.900 80.9471
1.050867 64.877 79.0205
1.058482 64.862 77.0820
1.066152 64.853 75.1342
1.073878 64.852 73.1794
1.081659 64.859 71.2200
1.089498 64.874 69.2575
1.097393 64.898 67.2930
1.105345 64.931 65.3275
1.113355 64.973 63.3617
1.121422 65.024 61.3972
1.129549 65.084 59.4357
1.137734 65.153 57.4794
1.145978 65.231 55.5312
1.154283 65.318 53.5939
1.162647 65.413 51.6706
1.171072 65.517 49.7641
1.179558 65.629 47.8772
1.188106 65.749 46.0128
1.196715 65.877 44.1732
1.205387 66.012 42.3609
1.214122 66.154 40.5780
1.222920 66.303 38.8262
1.231781 66.459 37.1073
1.240708 66.621 35.4227
1.249698 66.788 33.7734
1.258754 66.961 32.1605
1.267875 67.139 30.5847
1.277063 67.321 29.0464
1.286317 67.508 27.5462
1.295638 67.698 26.0840
1.305027 67.892 24.6600
1.314484 68.088 23.2739
1.324009 68.286 21.9256
1.333603 68.486 20.6147
1.343267 68.687 19.3406
1.353001 68.889 18.1029
1.362805 69.091 16.9010
1.372681 69.292 15.7341
1.382628 69.491 14.6015
1.392647 69.689 13.5024
1.402739 69.884 12.4361
1.412904 70.076 11.4015
1.423142 70.264 10.3978
1.433455 70.449 9.4238
1.443842 70.629 8.4783
1.454305 70.806 7.5599
1.464843 70.979 6.6669
1.475458 71.150 5.7977
1.486150 71.320 4.9507
1.496919 71.490 4.1243
1.507766 71.659 3.3173
1.518692 71.829 2.5287
1.529697 72.000 1.7576
1.540782 72.171 1.0034
1.551947 72.343 0.2652
1.563193 72.515 -0.4574
1.574521 72.688 -1.1651
1.585931 72.862 -1.8585
1.597423 73.036 -2.5380
1.608998 73.210 -3.2042
1.620658 73.384 -3.8576
1.632402 73.559 -4.4987
1.644231 73.734 -5.1278
1.656146 73.908 -5.7455
1.668147 74.082 -6.3522
1.680235 74.256 -6.9483
1.692410 74.430 -7.5341
1.704674 74.603 -8.1101
1.717027 74.775 -8.6766
1.729469 74.947 -9.2340
1.742002 75.117 -9.7827
1.754625 75.287 -10.3229
1.767340 75.455 -10.8550
1.780147 75.622 -11.3794
1.793046 75.787 -11.8965
1.806040 75.951 -12.4067
1.819127 76.113 -12.9104
1.832309 76.273 -13.4081
1.845587 76.431 -13.9004
1.858961 76.587 -14.3876
1.872431 76.742 -14.8701
1.886000 76.894 -15.3481
1.899666 77.045 -15.8216
1.913432 77.194 -16.2907
1.927298 77.342 -16.7553
1.941264 77.488 -17.2155
1.955331 77.632 -17.6712
1.969500 77.775 -18.1223
1.983772 77.917 -18.5687
1.998147 78.057 -19.0105
2.012626 78.197 -19.4475
2.027211 78.335 -19.8796
2.041901 78.473 -20.3069
2.056697 78.610 -20.7292
2.071601 78.746 -21.1465
2.086613 78.881 -21.5587
2.101733 79.017 -21.9658
2.116963 79.152 -22.3678
2.132303 79.287 -22.7646
2.147755 79.421 -23.1564
2.163318 79.556 -23.5431
2.178995 79.690 -23.9250
2.194785 79.825 -24.3023
2.210689 79.959 -24.6753
2.226709 80.092 -25.0444
2.242844 80.224 -25.4098
2.259097 80.355 -25.7719
2.275467 80.485 -26.1308
2.291956 80.615 -26.4867
2.308565 80.743 -26.8397
2.325294 80.870 -27.1899
2.342144 80.997 -27.5373
2.359116 81.122 -27.8822
2.376211 81.247 -28.2244
2.393430 81.372 -28.5641
2.410774 81.495 -28.9013
2.428243 81.619 -29.2361
2.445839 81.742 -29.5685
2.463562 81.865 -29.8985
2.481415 81.988 -30.2261
2.499396 82.110 -30.5515
2.517508 82.233 -30.8744
2.535750 82.356 -31.1950
2.554126 82.478 -31.5132
2.572634 82.601 -31.8289
2.591276 82.723 -32.1421
2.610054 82.845 -32.4528
2.628967 82.966 -32.7612
2.648018 83.087 -33.0674
2.667206 83.207 -33.3717
2.686534 83.327 -33.6744
2.706002 83.446 -33.9756
2.725610 83.565 -34.2758
2.745361 83.683 -34.5752
2.765255 83.801 -34.8741
2.785294 83.919 -35.1728
2.805477 84.037 -35.4716
2.825807 84.155 -35.7706
2.846284 84.272 -36.0701
2.866909 84.389 -36.3704
2.887684 84.507 -36.6713
2.908609 84.624 -36.9729
2.929686 84.742 -37.2751
2.950916 84.859 -37.5776
2.972299 84.976 -37.8803
2.993838 85.093 -38.1830
3.015532 85.210 -38.4858
3.037384 85.326 -38.7888
3.059394 85.442 -39.0921
3.081564 85.558 -39.3961
3.103894 85.673 -39.7010
3.126386 85.789 -40.0071
3.149041 85.904 -40.3147
3.171861 86.019 -40.6242
3.194845 86.133 -40.9358
3.217996 86.248 -41.2498
3.241315 86.362 -41.5662
3.264803 86.476 -41.8854
3.288461 86.590 -42.2071
3.312291 86.703 -42.5313
3.336293 86.817 -42.8578
3.360469 86.930 -43.1864
3.384820 87.042 -43.5171
3.409348 87.155 -43.8499
3.434054 87.267 -44.1848
3.458938 87.378 -44.5221
3.484003 87.490 -44.8618
3.509250 87.600 -45.2041
3.534679 87.711 -45.5494
3.560293 87.820 -45.8979
3.586092 87.930 -46.2497
3.612079 88.038 -46.6053
3.638253 88.147 -46.9647
3.664618 88.254 -47.3281
3.691173 88.361 -47.6957
3.717921 88.468 -48.0674
3.744862 88.573 -48.4430
3.771999 88.678 -48.8223
3.799332 88.783 -49.2050
3.826864 88.886 -49.5907
3.854595 88.989 -49.9791
3.882527 89.091 -50.3700
3.910661 89.193 -50.7632
3.938999 89.293 -51.1585
3.967543 89.393 -51.5560
3.996294 89.491 -51.9558
4.025252 89.589 -52.3583
4.054421 89.685 -52.7637
4.083801 89.781 -53.1723
4.113394 89.876 -53.5840
4.143201 89.969 -53.9986
4.173225 90.061 -54.4157
4.203466 90.153 -54.8344
4.233926 90.243 -55.2542
4.264606 90.332 -55.6744
4.295509 90.420 -56.0944
4.326636 90.506 -56.5140
4.357989 90.592 -56.9329
4.389569 90.677 -57.3515
4.421378 90.760 -57.7700
4.453417 90.842 -58.1889
4.485688 90.922 -58.6083
4.518193 91.001 -59.0277
4.550934 91.080 -59.4468
4.583912 91.156 -59.8644
4.617129 91.232 -60.2799
4.650587 91.306 -60.6922
4.684287 91.380 -61.1007
4.718231 91.452 -61.5049
4.752421 91.524 -61.9045
4.786859 91.594 -62.3000
4.821547 91.663 -62.6914
4.856485 91.731 -63.0791
4.891677 91.797 -63.4629
4.927125 91.863 -63.8424
4.962829 91.928 -64.2170
4.998791 91.992 -64.5860
5.035015 92.055 -64.9487
5.071500 92.118 -65.3045
5.108251 92.180 -65.6530
5.145267 92.241 -65.9941
5.182552 92.302 -66.3280
5.220107 92.363 -66.6547
5.257934 92.423 -66.9747
5.296035 92.482 -67.2880
5.334412 92.542 -67.5947
5.373067 92.601 -67.8946
5.412003 92.661 -68.1878
5.451221 92.720 -68.4741
5.490722 92.780 -68.7533
5.530510 92.840 -69.0255
5.570587 92.901 -69.2907
5.610953 92.962 -69.5493
5.651613 93.023 -69.8021
5.692567 93.085 -70.0499
5.733818 93.148 -70.2933
5.775367 93.211 -70.5332
5.817218 93.275 -70.7699
5.859372 93.340 -71.0038
5.901831 93.406 -71.2351
5.944598 93.473 -71.4639
5.987675 93.541 -71.6909
6.031065 93.610 -71.9169
6.074768 93.680 -72.1430
6.118788 93.750 -72.3705
6.163127 93.822 -72.6002
6.207788 93.895 -72.8329
6.252772 93.968 -73.0691
6.298082 94.043 -73.3089
6.343721 94.118 -73.5526
6.389690 94.194 -73.8007
6.435992 94.271 -74.0538
6.482630 94.348 -74.3127
6.529606 94.425 -74.5782
6.576922 94.503 -74.8507
6.624581 94.582 -75.1306
6.672585 94.660 -75.4178
6.720938 94.739 -75.7123
6.769640 94.817 -76.0141
6.818696 94.896 -76.3230
6.868107 94.974 -76.6390
6.917876 95.052 -76.9622
6.968006 95.130 -77.2926
7.018499 95.207 -77.6301
7.069358 95.283 -77.9744
7.120586 95.359 -78.3250
7.172184 95.435 -78.6813
7.224157 95.509 -79.0426
7.276506 95.583 -79.4085
7.329235 95.655 -79.7785
7.382345 95.727 -80.1523
7.435841 95.798 -80.5297
7.489724 95.868 -80.9101
7.543997 95.938 -81.2928
7.598664 96.006 -81.6771
7.653728 96.074 -82.0624
7.709189 96.141 -82.4483
7.765053 96.207 -82.8345
7.821322 96.272 -83.2209
7.877998 96.336 -83.6070
7.935086 96.400 -83.9926
7.992587 96.464 -84.3774
8.050504 96.527 -84.7611
8.108841 96.590 -85.1435
8.167601 96.652 -85.5248
8.226787 96.714 -85.9049
8.286402 96.776 -86.2840
8.346449 96.837 -86.6622
8.406931 96.899 -87.0396
8.467851 96.960 -87.4164
8.529212 97.022 -87.7927
8.591018 97.083 -88.1687
8.653272 97.144 -88.5448
8.715977 97.206 -88.9211
8.779137 97.267 -89.2981
8.842754 97.328 -89.6758
8.906833 97.390 -90.0545
8.971375 97.451 -90.4341
9.036386 97.512 -90.8150
9.101867 97.573 -91.1970
9.167823 97.634 -91.5804
9.234257 97.694 -91.9652
9.301172 97.755 -92.3512
9.368572 97.815 -92.7383
9.436460 97.875 -93.1264
9.504841 97.935 -93.5153
9.573717 97.995 -93.9048
9.643092 98.054 -94.2949
9.712970 98.113 -94.6852
9.783354 98.171 -95.0756
9.854248 98.230 -95.4659
9.925656 98.288 -95.8559
9.997581 98.346 -96.2454
10.070028 98.404 -96.6346
10.143000 98.462 -97.0233
10.216500 98.519 -97.4116
10.290533 98.577 -97.7994
10.365103 98.634 -98.1870
10.440212 98.692 -98.5744
10.515866 98.749 -98.9620
10.592069 98.806 -99.3498
10.668823 98.863 -99.7382
10.746134 98.921 -100.1273
10.824005 98.978 -100.5173
10.902440 99.034 -100.9084
10.981443 99.091 -101.3007
11.061020 99.148 -101.6942
11.141172 99.204 -102.0890
11.221906 99.259 -102.4849
11.303225 99.314 -102.8818
11.385133 99.369 -103.2793
11.467634 99.423 -103.6772
11.550734 99.476 -104.0751
11.634435 99.529 -104.4724
11.718742 99.581 -104.8687
11.803661 99.632 -105.2634
11.889195 99.683 -105.6561
11.975349 99.733 -106.0463
12.062128 99.782 -106.4336
12.149535 99.831 -106.8175
12.237576 99.879 -107.1979
12.326254 99.927 -107.5745
12.415575 99.975 -107.9474
12.505544 100.022 -108.3166
12.596164 100.069 -108.6823
12.687441 100.116 -109.0447
12.779379 100.163 -109.4042
12.871984 100.210 -109.7612
12.965260 100.256 -110.1161
13.059211 100.303 -110.4693
13.153843 100.350 -110.8212
13.249161 100.396 -111.1722
13.345170 100.442 -111.5225
13.441875 100.488 -111.8722
13.539280 100.534 -112.2215
13.637391 100.580 -112.5702
13.736214 100.625 -112.9183
13.835752 100.670 -113.2657
13.936011 100.714 -113.6121
14.036998 100.758 -113.9573
14.138716 100.802 -114.3013
14.241171 100.846 -114.6441
14.344368 100.890 -114.9858
14.448313 100.933 -115.3267
14.553011 100.977 -115.6671
14.658468 101.020 -116.0079
14.764689 101.064 -116.3496
14.871680 101.108 -116.6933
14.979446 101.153 -117.0398
15.087994 101.197 -117.3902
15.197328 101.242 -117.7453
15.307454 101.286 -118.1059
15.418378 101.330 -118.4726
15.530106 101.374 -118.8459
15.642643 101.417 -119.2257
15.755996 101.460 -119.6120
15.870171 101.502 -120.0042
15.985172 101.542 -120.4019
16.101007 101.582 -120.8040
16.217682 101.621 -121.2097
16.335201 101.658 -121.6180
16.453573 101.694 -122.0281
16.572803 101.730 -122.4390
16.692898 101.764 -122.8502
16.813862 101.798 -123.2612
16.935701 101.831 -123.6716
17.058424 101.863 -124.0814
17.182035 101.895 -124.4905
17.306543 101.926 -124.8989
17.431953 101.957 -125.3065
17.558273 101.987 -125.7131
17.685509 102.017 -126.1184
17.813665 102.047 -126.5218
17.942751 102.076 -126.9227
18.072771 102.104 -127.3204
18.203733 102.133 -127.7142
18.335646 102.162 -128.1035
18.468513 102.191 -128.4880
18.602345 102.220 -128.8680
18.737144 102.250 -129.2440
18.872921 102.281 -129.6174
19.009682 102.313 -129.9898
19.147434 102.346 -130.3632
19.286184 102.380 -130.7395
19.425940 102.416 -131.1208
19.566708 102.451 -131.5085
19.708496 102.487 -131.9034
19.851313 102.522 -132.3052
19.995163 102.557 -132.7129
20.140057 102.590 -133.1244
20.285999 102.622 -133.5369
20.433001 102.652 -133.9473
20.581066 102.681 -134.3524
20.730206 102.709 -134.7496
20.880424 102.736 -135.1371
21.031733 102.763 -135.5146
21.184137 102.790 -135.8829
21.337646 102.817 -136.2441
21.492268 102.846 -136.6016
21.648010 102.876 -136.9588
21.804880 102.906 -137.3193
21.962887 102.936 -137.6856
22.122040 102.966 -138.0592
22.282345 102.994 -138.4394
22.443811 103.020 -138.8244
22.606449 103.044 -139.2107
22.770266 103.065 -139.5944
22.935268 103.084 -139.9717
23.101467 103.101 -140.3398
23.268869 103.116 -140.6977
23.437485 103.131 -141.0465
23.607323 103.146 -141.3893
23.778391 103.161 -141.7305
23.950699 103.176 -142.0748
24.124256 103.189 -142.4257
24.299070 103.201 -142.7839
24.475151 103.209 -143.1467
24.652508 103.213 -143.5073
24.831150 103.213 -143.8553
25.011087 103.207 -144.1783
25.192327 103.198 -144.4638
25.374882 103.188 -144.7020
25.558758 103.180 -144.8890
25.743967 103.178 -145.0285
25.930519 103.184 -145.1330
26.118422 103.201 -145.2235
26.307686 103.231 -145.3264
26.498322 103.272 -145.4697
26.690340 103.322 -145.6779
26.883749 103.376 -145.9677
27.078560 103.431 -146.3451
27.274782 103.482 -146.8042
27.472427 103.524 -147.3287
27.671503 103.555 -147.8947
27.872023 103.575 -148.4746
28.073996 103.584 -149.0417
28.277431 103.586 -149.5740
28.482342 103.582 -150.0580
28.688736 103.578 -150.4895
28.896626 103.576 -150.8742
29.106022 103.579 -151.2249
29.316936 103.589 -151.5583
29.529379 103.604 -151.8906
29.743361 103.623 -152.2341
29.958893 103.644 -152.5952
30.175987 103.666 -152.9741
30.394655 103.686 -153.3659
30.614908 103.705 -153.7634
30.836756 103.722 -154.1591
31.060211 103.738 -154.5480
31.285286 103.752 -154.9281
31.511992 103.767 -155.3003
31.740341 103.781 -155.6672
31.970345 103.795 -156.0315
32.202015 103.808 -156.3943
32.435364 103.819 -156.7544
32.670403 103.828 -157.1085
32.907146 103.835 -157.4521
33.145607 103.840 -157.7816
33.385796 103.843 -158.0951
33.627724 103.847 -158.3941
33.871403 103.851 -158.6831
34.116848 103.857 -158.9682
34.364071 103.863 -159.2563
34.613087 103.868 -159.5522
34.863907 103.873 -159.8577
35.116547 103.875 -160.1707
35.371017 103.875 -160.4866
35.627331 103.873 -160.7989
35.885502 103.868 -161.1025
36.145542 103.864 -161.3946
36.407467 103.859 -161.6767
36.671291 103.857 -161.9539
36.937027 103.857 -162.2345
37.204689 103.859 -162.5266
37.474289 103.863 -162.8371
37.745842 103.867 -163.1689
38.019363 103.870 -163.5211
38.294868 103.872 -163.8893
38.572369 103.872 -164.2668
38.851879 103.869 -164.6471
39.133415 103.865 -165.0241
39.416992 103.860 -165.3933
39.702625 103.854 -165.7515
39.990326 103.847 -166.0966
40.280113 103.842 -166.4273
40.571999 103.838 -166.7438
40.866001 103.835 -167.0483
41.162132 103.835 -167.3448
41.460411 103.837 -167.6389
41.760849 103.840 -167.9352
42.063465 103.844 -168.2361
42.368275 103.846 -168.5397
42.675293 103.847 -168.8411
42.984535 103.846 -169.1335
43.296021 103.844 -169.4121
43.609760 103.841 -169.6756
43.925774 103.838 -169.9266
44.244080 103.835 -170.1698
44.564690 103.831 -170.4094
44.887623 103.827 -170.6476
45.212898 103.822 -170.8853
45.540531 103.816 -171.1243
45.870537 103.809 -171.3688
46.202934 103.802 -171.6257
46.537739 103.793 -171.9003
46.874969 103.782 -172.1928
47.214645 103.766 -172.4960
47.556782 103.745 -172.7981
47.901398 103.722 -173.0887
48.248512 103.699 -173.3649
48.598141 103.678 -173.6335
48.950302 103.660 -173.9065
49.305016 103.645 -174.1946
49.662300 103.631 -174.5024
50.022175 103.620 -174.8282
50.384655 103.609 -175.1691
50.749763 103.599 -175.5250
51.117516 103.590 -175.8974
51.487934 103.580 -176.2840
51.861038 103.567 -176.6723
52.236843 103.549 -177.0401
52.615372 103.528 -177.3628
52.996643 103.507 -177.6242
53.380680 103.490 -177.8237
53.767498 103.479 -177.9748
54.157120 103.476 -178.0972
54.549564 103.479 -178.2091
54.944855 103.487 -178.3254
55.343006 103.500 -178.4591
55.744045 103.514 -178.6234
56.147991 103.527 -178.8292
56.554863 103.536 -179.0804
56.964684 103.537 -179.3709
57.377472 103.528 -179.6852
57.793251 103.508 179.9979
58.212044 103.477 179.7007
58.633873 103.440 179.4423
59.058758 103.399 179.2328
59.486721 103.361 179.0674
59.917786 103.328 178.9253
60.351974 103.304 178.7759
60.789310 103.287 178.5915
61.229816 103.274 178.3574
61.673512 103.262 178.0747
62.120422 103.249 177.7557
62.570572 103.234 177.4175
63.023983 103.216 177.0778
63.480682 103.196 176.7512
63.940689 103.176 176.4457
64.404030 103.157 176.1615
64.870728 103.138 175.8960
65.340805 103.118 175.6528
65.814293 103.097 175.4426
66.291214 103.078 175.2723
66.771591 103.061 175.1312
67.255447 103.049 174.9910
67.742805 103.038 174.8244
68.233696 103.023 174.6270
68.728142 103.000 174.4197
69.226173 102.971 174.2302
69.727814 102.940 174.0683
70.233093 102.911 173.9200
70.742035 102.884 173.7590
71.254662 102.861 173.5640
71.771004 102.838 173.3284
72.291084 102.813 173.0592
72.814934 102.788 172.7713
73.342583 102.764 172.4797
73.874054 102.741 172.1910
74.409378 102.724 171.8998
74.948578 102.710 171.5945
75.491684 102.696 171.2709
76.038727 102.678 170.9435
76.589737 102.653 170.6462
77.144737 102.621 170.4199
77.703758 102.587 170.2906
78.266830 102.556 170.2496
78.833984 102.533 170.2517
79.405251 102.516 170.2412
79.980652 102.499 170.1866
80.560226 102.478 170.0918
81.143997 102.452 169.9764
81.732002 102.424 169.8478
82.324265 102.396 169.6945
82.920822 102.369 169.5008
83.521698 102.342 169.2623
