* Measurement data measured by REW V5.31
* Source: EXCL: Microphone (USB Sound Device        ), MICROPHONE (Master Volume), L, volume: 0.390
* Format: 256k Log Swept Sine, 1 sweep at -5.0 dBFS with no timing reference
* Dated: Sep 9, 2024 11:30:03 PM
* REW Settings:
*  C-weighting compensation: Off
*  Target level: 75.0 dB
* Note: NF Audio RA15 Silver
* Measurement: L NF Audio RA15 Silver
* Smoothing: 1/12 octave
* Frequency Step: 96 ppo
* Start Frequency: 0.36621094 Hz
*
* Freq(Hz)	SPL(dB)	Phase(degrees)
0.366211	81.464	167.8261
0.368865	81.459	167.8112
0.371538	81.452	167.7890
0.374230	81.444	167.7611
0.376942	81.434	167.7290
0.379673	81.424	167.6939
0.382424	81.413	167.6563
0.385196	81.402	167.6168
0.387987	81.391	167.5756
0.390798	81.379	167.5329
0.393630	81.367	167.4886
0.396483	81.356	167.4429
0.399356	81.344	167.3957
0.402250	81.332	167.3470
0.405165	81.320	167.2968
0.408101	81.308	167.2452
0.411058	81.296	167.1921
0.414037	81.284	167.1374
0.417037	81.271	167.0812
0.420059	81.259	167.0235
0.423103	81.247	166.9642
0.426169	81.234	166.9033
0.429257	81.221	166.8409
0.432368	81.209	166.7768
0.435501	81.196	166.7112
0.438656	81.183	166.6439
0.441835	81.170	166.5749
0.445037	81.157	166.5044
0.448262	81.143	166.4321
0.451510	81.130	166.3582
0.454782	81.117	166.2826
0.458077	81.103	166.2053
0.461397	81.089	166.1263
0.464740	81.076	166.0455
0.468108	81.062	165.9630
0.471500	81.048	165.8788
0.474917	81.034	165.7928
0.478358	81.020	165.7051
0.481825	81.006	165.6156
0.485316	80.991	165.5243
0.488833	80.977	165.4312
0.492375	80.962	165.3364
0.495943	80.948	165.2397
0.499537	80.933	165.1412
0.503157	80.918	165.0409
0.506803	80.903	164.9388
0.510475	80.888	164.8349
0.514175	80.873	164.7291
0.517900	80.858	164.6215
0.521653	80.842	164.5121
0.525434	80.827	164.4009
0.529241	80.811	164.2878
0.533076	80.795	164.1729
0.536939	80.780	164.0562
0.540830	80.764	163.9376
0.544749	80.748	163.8172
0.548696	80.731	163.6950
0.552673	80.715	163.5710
0.556677	80.699	163.4452
0.560711	80.682	163.3176
0.564774	80.665	163.1881
0.568867	80.649	163.0570
0.572989	80.632	162.9240
0.577141	80.615	162.7894
0.581324	80.597	162.6530
0.585536	80.580	162.5148
0.589779	80.563	162.3750
0.594053	80.545	162.2335
0.598358	80.528	162.0904
0.602694	80.510	161.9456
0.607061	80.492	161.7993
0.611460	80.474	161.6514
0.615891	80.456	161.5019
0.620354	80.437	161.3509
0.624849	80.419	161.1985
0.629377	80.400	161.0447
0.633938	80.382	160.8894
0.638532	80.363	160.7329
0.643159	80.344	160.5750
0.647819	80.325	160.4159
0.652514	80.305	160.2556
0.657242	80.286	160.0942
0.662005	80.266	159.9317
0.666802	80.247	159.7682
0.671634	80.227	159.6038
0.676501	80.207	159.4385
0.681403	80.187	159.2724
0.686341	80.167	159.1056
0.691314	80.146	158.9381
0.696324	80.125	158.7701
0.701370	80.105	158.6016
0.706452	80.083	158.4326
0.711571	80.062	158.2631
0.716728	80.039	158.0931
0.721921	80.016	157.9225
0.727153	79.991	157.7508
0.732422	79.965	157.5777
0.737729	79.936	157.4025
0.743075	79.906	157.2247
0.748460	79.874	157.0437
0.753883	79.841	156.8591
0.759346	79.807	156.6706
0.764849	79.773	156.4780
0.770391	79.738	156.2812
0.775974	79.703	156.0801
0.781597	79.667	155.8745
0.787261	79.630	155.6646
0.792966	79.594	155.4501
0.798712	79.556	155.2311
0.804500	79.519	155.0075
0.810329	79.481	154.7793
0.816201	79.442	154.5464
0.822116	79.403	154.3088
0.828073	79.363	154.0665
0.834074	79.322	153.8194
0.840118	79.281	153.5676
0.846206	79.239	153.3109
0.852338	79.197	153.0495
0.858514	79.153	152.7831
0.864735	79.109	152.5119
0.871001	79.064	152.2358
0.877313	79.018	151.9548
0.883670	78.972	151.6689
0.890074	78.924	151.3780
0.896524	78.876	151.0823
0.903020	78.826	150.7817
0.909564	78.775	150.4762
0.916155	78.723	150.1658
0.922794	78.670	149.8505
0.929481	78.616	149.5305
0.936216	78.560	149.2056
0.943000	78.503	148.8761
0.949834	78.445	148.5418
0.956717	78.385	148.2029
0.963649	78.324	147.8595
0.970632	78.262	147.5116
0.977666	78.197	147.1593
0.984750	78.131	146.8027
0.991886	78.063	146.4420
0.999074	77.994	146.0773
1.006314	77.922	145.7086
1.013606	77.849	145.3362
1.020951	77.773	144.9602
1.028349	77.696	144.5809
1.035801	77.616	144.1983
1.043307	77.534	143.8127
1.050867	77.449	143.4244
1.058482	77.362	143.0334
1.066152	77.273	142.6400
1.073878	77.180	142.2441
1.081660	77.085	141.8457
1.089498	76.986	141.4444
1.097393	76.884	141.0396
1.105345	76.777	140.6305
1.113355	76.666	140.2160
1.121423	76.550	139.7950
1.129549	76.430	139.3666
1.137734	76.304	138.9300
1.145979	76.173	138.4846
1.154283	76.037	138.0296
1.162647	75.896	137.5645
1.171072	75.751	137.0885
1.179558	75.601	136.6012
1.188106	75.446	136.1018
1.196715	75.288	135.5896
1.205387	75.126	135.0639
1.214122	74.960	134.5239
1.222920	74.791	133.9688
1.231782	74.618	133.3977
1.240708	74.443	132.8096
1.249699	74.266	132.2035
1.258754	74.086	131.5783
1.267876	73.904	130.9328
1.277063	73.721	130.2657
1.286318	73.537	129.5758
1.295639	73.352	128.8614
1.305027	73.167	128.1210
1.314484	72.981	127.3529
1.324009	72.797	126.5553
1.333604	72.613	125.7262
1.343268	72.431	124.8634
1.353002	72.250	123.9647
1.362806	72.073	123.0275
1.372681	71.898	122.0491
1.382628	71.727	121.0266
1.392647	71.559	119.9568
1.402739	71.397	118.8362
1.412904	71.240	117.6610
1.423142	71.088	116.4268
1.433455	70.943	115.1289
1.443843	70.804	113.7614
1.454305	70.670	112.3177
1.464844	70.542	110.7897
1.475459	70.418	109.1680
1.486150	70.298	107.4420
1.496920	70.180	105.6002
1.507767	70.064	103.6305
1.518693	69.951	101.5203
1.529698	69.838	99.2567
1.540783	69.728	96.8264
1.551948	69.620	94.2161
1.563194	69.515	91.4130
1.574521	69.412	88.4053
1.585931	69.313	85.1834
1.597423	69.218	81.7407
1.608999	69.128	78.0750
1.620658	69.042	74.1903
1.632402	68.962	70.0982
1.644232	68.889	65.8184
1.656146	68.822	61.3802
1.668147	68.762	56.8215
1.680235	68.711	52.1875
1.692411	68.668	47.5279
1.704675	68.636	42.8941
1.717028	68.613	38.3350
1.729470	68.602	33.8944
1.742003	68.603	29.6081
1.754626	68.616	25.5031
1.767341	68.644	21.5969
1.780147	68.687	17.8983
1.793047	68.746	14.4086
1.806040	68.823	11.1230
1.819128	68.920	8.0320
1.832310	69.038	5.1233
1.845587	69.179	2.3831
1.858961	69.343	-0.2016
1.872432	69.533	-2.6427
1.886001	69.746	-4.9505
1.899667	69.982	-7.1338
1.913433	70.240	-9.2008
1.927299	70.519	-11.1590
1.941265	70.816	-13.0151
1.955332	71.129	-14.7759
1.969501	71.457	-16.4473
1.983773	71.797	-18.0353
1.998148	72.146	-19.5453
2.012627	72.504	-20.9824
2.027212	72.866	-22.3513
2.041902	73.231	-23.6565
2.056698	73.597	-24.9021
2.071602	73.960	-26.0920
2.086614	74.318	-27.2300
2.101734	74.669	-28.3193
2.116964	75.010	-29.3633
2.132304	75.339	-30.3654
2.147756	75.654	-31.3290
2.163320	75.954	-32.2576
2.178996	76.238	-33.1551
2.194786	76.508	-34.0259
2.210690	76.763	-34.8741
2.226710	77.006	-35.7037
2.242845	77.239	-36.5176
2.259098	77.462	-37.3177
2.275468	77.677	-38.1050
2.291957	77.885	-38.8799
2.308566	78.085	-39.6424
2.325295	78.280	-40.3924
2.342145	78.468	-41.1294
2.359117	78.651	-41.8531
2.376212	78.829	-42.5632
2.393431	79.003	-43.2591
2.410775	79.172	-43.9405
2.428244	79.339	-44.6070
2.445840	79.502	-45.2584
2.463564	79.662	-45.8944
2.481416	79.821	-46.5150
2.499397	79.978	-47.1205
2.517509	80.134	-47.7113
2.535752	80.288	-48.2886
2.554127	80.440	-48.8539
2.572635	80.591	-49.4094
2.591277	80.738	-49.9573
2.610055	80.882	-50.4994
2.628968	81.023	-51.0370
2.648019	81.160	-51.5706
2.667208	81.293	-52.1002
2.686535	81.422	-52.6256
2.706003	81.547	-53.1460
2.725612	81.670	-53.6607
2.745363	81.789	-54.1689
2.765257	81.906	-54.6697
2.785295	82.020	-55.1623
2.805478	82.132	-55.6456
2.825808	82.242	-56.1191
2.846285	82.351	-56.5818
2.866910	82.458	-57.0336
2.887685	82.564	-57.4742
2.908611	82.669	-57.9040
2.929688	82.772	-58.3240
2.950917	82.874	-58.7353
2.972301	82.973	-59.1394
2.993839	83.071	-59.5372
3.015534	83.166	-59.9294
3.037386	83.258	-60.3163
3.059396	83.348	-60.6975
3.081565	83.436	-61.0729
3.103896	83.522	-61.4419
3.126388	83.607	-61.8038
3.149043	83.689	-62.1579
3.171862	83.771	-62.5036
3.194847	83.852	-62.8401
3.217998	83.932	-63.1667
3.241317	84.012	-63.4830
3.264805	84.091	-63.7884
3.288463	84.169	-64.0830
3.312293	84.247	-64.3670
3.336295	84.323	-64.6407
3.360471	84.399	-64.9048
3.384822	84.474	-65.1601
3.409350	84.547	-65.4070
3.434056	84.619	-65.6461
3.458940	84.691	-65.8781
3.484005	84.761	-66.1034
3.509252	84.832	-66.3224
3.534681	84.902	-66.5355
3.560295	84.972	-66.7430
3.586094	85.042	-66.9449
3.612081	85.113	-67.1414
3.638255	85.184	-67.3322
3.664620	85.255	-67.5171
3.691175	85.326	-67.6958
3.717923	85.398	-67.8681
3.744864	85.470	-68.0343
3.772001	85.542	-68.1949
3.799335	85.614	-68.3507
3.826866	85.686	-68.5027
3.854597	85.758	-68.6521
3.882529	85.831	-68.8001
3.910664	85.904	-68.9476
3.939002	85.978	-69.0957
3.967546	86.052	-69.2450
3.996296	86.127	-69.3959
4.025255	86.202	-69.5484
4.054423	86.278	-69.7020
4.083804	86.355	-69.8565
4.113396	86.433	-70.0118
4.143204	86.511	-70.1682
4.173227	86.589	-70.3264
4.203468	86.668	-70.4873
4.233928	86.747	-70.6520
4.264609	86.826	-70.8216
4.295512	86.906	-70.9973
4.326639	86.986	-71.1799
4.357992	87.065	-71.3702
4.389572	87.145	-71.5685
4.421380	87.225	-71.7746
4.453419	87.304	-71.9885
4.485691	87.384	-72.2097
4.518196	87.464	-72.4381
4.550936	87.543	-72.6735
4.583914	87.623	-72.9158
4.617131	87.702	-73.1653
4.650589	87.780	-73.4220
4.684289	87.858	-73.6861
4.718233	87.935	-73.9581
4.752424	88.011	-74.2381
4.786862	88.086	-74.5263
4.821549	88.160	-74.8228
4.856488	88.234	-75.1272
4.891680	88.306	-75.4391
4.927127	88.378	-75.7577
4.962831	88.449	-76.0821
4.998794	88.518	-76.4116
5.035017	88.587	-76.7456
5.071503	88.654	-77.0835
5.108253	88.720	-77.4252
5.145270	88.784	-77.7708
5.182555	88.848	-78.1205
5.220110	88.909	-78.4742
5.257937	88.970	-78.8315
5.296038	89.029	-79.1917
5.334415	89.088	-79.5537
5.373071	89.145	-79.9166
5.412006	89.201	-80.2795
5.451224	89.256	-80.6416
5.490725	89.310	-81.0025
5.530514	89.363	-81.3623
5.570590	89.415	-81.7210
5.610957	89.466	-82.0787
5.651616	89.516	-82.4351
5.692570	89.565	-82.7901
5.733821	89.614	-83.1430
5.775370	89.663	-83.4935
5.817221	89.711	-83.8409
5.859375	89.759	-84.1851
5.901834	89.807	-84.5259
5.944602	89.854	-84.8635
5.987679	89.902	-85.1983
6.031068	89.949	-85.5307
6.074771	89.997	-85.8612
6.118792	90.044	-86.1901
6.163131	90.093	-86.5177
6.207792	90.141	-86.8443
6.252776	90.191	-87.1699
6.298086	90.240	-87.4947
6.343725	90.291	-87.8192
6.389694	90.342	-88.1439
6.435996	90.393	-88.4696
6.482634	90.446	-88.7971
6.529610	90.499	-89.1273
6.576926	90.552	-89.4606
6.624585	90.606	-89.7974
6.672590	90.661	-90.1378
6.720942	90.717	-90.4822
6.769645	90.773	-90.8307
6.818700	90.829	-91.1839
6.868111	90.886	-91.5421
6.917881	90.943	-91.9059
6.968010	91.001	-92.2754
7.018504	91.058	-92.6509
7.069362	91.116	-93.0321
7.120590	91.173	-93.4187
7.172189	91.231	-93.8104
7.224161	91.288	-94.2069
7.276511	91.345	-94.6078
7.329239	91.402	-95.0129
7.382350	91.458	-95.4220
7.435845	91.514	-95.8348
7.489729	91.570	-96.2505
7.544002	91.625	-96.6685
7.598669	91.679	-97.0878
7.653732	91.733	-97.5077
7.709194	91.786	-97.9276
7.765058	91.839	-98.3472
7.821327	91.892	-98.7661
7.878004	91.944	-99.1835
7.935091	91.995	-99.5990
7.992592	92.046	-100.0118
8.050510	92.097	-100.4214
8.108847	92.148	-100.8274
8.167607	92.199	-101.2297
8.226793	92.250	-101.6281
8.286408	92.300	-102.0227
8.346454	92.351	-102.4132
8.406936	92.402	-102.7998
8.467856	92.453	-103.1824
8.529218	92.505	-103.5611
8.591024	92.557	-103.9363
8.653278	92.609	-104.3083
8.715983	92.662	-104.6776
8.779143	92.715	-105.0444
8.842760	92.769	-105.4093
8.906839	92.823	-105.7723
8.971381	92.877	-106.1340
9.036392	92.932	-106.4945
9.101873	92.987	-106.8544
9.167829	93.042	-107.2139
9.234263	93.097	-107.5732
9.301178	93.153	-107.9323
9.368578	93.208	-108.2913
9.436467	93.263	-108.6499
9.504847	93.318	-109.0083
9.573723	93.372	-109.3662
9.643099	93.425	-109.7235
9.712976	93.477	-110.0798
9.783361	93.526	-110.4347
9.854255	93.574	-110.7879
9.925663	93.619	-111.1388
9.997588	93.660	-111.4874
10.070035	93.700	-111.8331
10.143007	93.736	-112.1756
10.216507	93.771	-112.5147
10.290540	93.803	-112.8499
10.365109	93.834	-113.1813
10.440219	93.863	-113.5087
10.515873	93.892	-113.8322
10.592076	93.919	-114.1518
10.668830	93.946	-114.4676
10.746141	93.973	-114.7797
10.824012	93.999	-115.0886
10.902447	94.025	-115.3944
10.981451	94.050	-115.6976
11.061027	94.076	-115.9984
11.141180	94.100	-116.2973
11.221913	94.125	-116.5945
11.303232	94.149	-116.8903
11.385140	94.172	-117.1852
11.467641	94.195	-117.4791
11.550741	94.218	-117.7724
11.634442	94.240	-118.0651
11.718750	94.262	-118.3572
11.803669	94.283	-118.6487
11.889203	94.304	-118.9397
11.975357	94.325	-119.2300
12.062136	94.346	-119.5195
12.149543	94.366	-119.8082
12.237583	94.386	-120.0960
12.326262	94.405	-120.3829
12.415583	94.424	-120.6688
12.505552	94.442	-120.9539
12.596172	94.459	-121.2382
12.687449	94.476	-121.5220
12.779387	94.492	-121.8055
12.871992	94.508	-122.0890
12.965268	94.524	-122.3727
13.059220	94.539	-122.6571
13.153852	94.554	-122.9425
13.249170	94.569	-123.2292
13.345179	94.583	-123.5176
13.441884	94.598	-123.8079
13.539289	94.613	-124.1003
13.637401	94.627	-124.3950
13.736223	94.641	-124.6920
13.835761	94.655	-124.9914
13.936021	94.668	-125.2930
14.037007	94.681	-125.5969
14.138725	94.693	-125.9028
14.241180	94.705	-126.2107
14.344377	94.717	-126.5203
14.448323	94.728	-126.8316
14.553021	94.738	-127.1443
14.658478	94.749	-127.4585
14.764700	94.759	-127.7742
14.871691	94.770	-128.0912
14.979457	94.780	-128.4098
15.088005	94.790	-128.7298
15.197339	94.801	-129.0513
15.307465	94.812	-129.3744
15.418389	94.822	-129.6990
15.530117	94.833	-130.0252
15.642655	94.844	-130.3527
15.756008	94.855	-130.6815
15.870182	94.866	-131.0114
15.985184	94.877	-131.3420
16.101019	94.888	-131.6731
16.217694	94.899	-132.0043
16.335214	94.910	-132.3354
16.453586	94.922	-132.6661
16.572815	94.934	-132.9961
16.692909	94.946	-133.3252
16.813872	94.959	-133.6534
16.935713	94.972	-133.9804
17.058436	94.986	-134.3064
17.182048	95.001	-134.6311
17.306556	95.016	-134.9547
17.431967	95.031	-135.2771
17.558286	95.047	-135.5981
17.685521	95.063	-135.9177
17.813677	95.078	-136.2356
17.942762	95.094	-136.5515
18.072783	95.109	-136.8652
18.203746	95.125	-137.1762
18.335658	95.140	-137.4843
18.468526	95.156	-137.7890
18.602356	95.171	-138.0902
18.737156	95.186	-138.3876
18.872934	95.202	-138.6812
19.009695	95.217	-138.9711
19.147447	95.233	-139.2572
19.286197	95.248	-139.5398
19.425953	95.264	-139.8193
19.566721	95.279	-140.0957
19.708510	95.295	-140.3696
19.851326	95.309	-140.6409
19.995177	95.324	-140.9101
20.140070	95.338	-141.1772
20.286013	95.351	-141.4422
20.433014	95.364	-141.7052
20.581080	95.376	-141.9663
20.730219	95.388	-142.2255
20.880439	95.399	-142.4827
21.031747	95.410	-142.7382
21.184152	95.420	-142.9920
21.337661	95.431	-143.2446
21.492282	95.441	-143.4961
21.648024	95.451	-143.7469
21.804895	95.460	-143.9975
21.962902	95.469	-144.2483
22.122054	95.478	-144.4995
22.282360	95.486	-144.7516
22.443827	95.494	-145.0049
22.606464	95.502	-145.2596
22.770280	95.509	-145.5157
22.935283	95.516	-145.7733
23.101481	95.523	-146.0325
23.268884	95.529	-146.2931
23.437500	95.535	-146.5550
23.607338	95.540	-146.8181
23.778406	95.545	-147.0822
23.950714	95.550	-147.3472
24.124271	95.554	-147.6129
24.299086	95.559	-147.8792
24.475167	95.563	-148.1460
24.652524	95.567	-148.4131
24.831166	95.572	-148.6806
25.011103	95.576	-148.9483
25.192344	95.581	-149.2160
25.374898	95.586	-149.4836
25.558775	95.591	-149.7508
25.743984	95.596	-150.0172
25.930536	95.601	-150.2825
26.118439	95.606	-150.5463
26.307704	95.612	-150.8083
26.498341	95.617	-151.0681
26.690359	95.623	-151.3256
26.883768	95.628	-151.5806
27.078579	95.634	-151.8332
27.274801	95.640	-152.0833
27.472446	95.645	-152.3307
27.671522	95.651	-152.5756
27.872042	95.656	-152.8177
28.074014	95.661	-153.0570
28.277450	95.666	-153.2932
28.482360	95.671	-153.5265
28.688755	95.675	-153.7569
28.896645	95.679	-153.9846
29.106042	95.683	-154.2101
29.316957	95.687	-154.4338
29.529400	95.690	-154.6561
29.743382	95.694	-154.8775
29.958915	95.697	-155.0983
30.176009	95.700	-155.3184
30.394677	95.702	-155.5381
30.614929	95.705	-155.7572
30.836778	95.707	-155.9761
31.060234	95.709	-156.1951
31.285309	95.711	-156.4145
31.512015	95.713	-156.6352
31.740364	95.715	-156.8576
31.970368	95.716	-157.0822
32.202039	95.718	-157.3091
32.435388	95.719	-157.5381
32.670428	95.720	-157.7687
32.907171	95.721	-158.0002
33.145630	95.721	-158.2317
33.385817	95.722	-158.4628
33.627745	95.722	-158.6933
33.871425	95.723	-158.9232
34.116871	95.724	-159.1528
34.364096	95.725	-159.3824
34.613113	95.726	-159.6121
34.863934	95.727	-159.8417
35.116572	95.727	-160.0707
35.371041	95.728	-160.2984
35.627354	95.728	-160.5239
35.885525	95.729	-160.7466
36.145566	95.729	-160.9664
36.407492	95.728	-161.1834
36.671316	95.728	-161.3979
36.937051	95.728	-161.6103
37.204712	95.727	-161.8210
37.474313	95.727	-162.0300
37.745867	95.726	-162.2369
38.019389	95.724	-162.4416
38.294893	95.723	-162.6437
38.572394	95.721	-162.8435
38.851905	95.719	-163.0416
39.133442	95.718	-163.2391
39.417019	95.716	-163.4367
39.702651	95.714	-163.6354
39.990353	95.712	-163.8351
40.280140	95.709	-164.0356
40.572026	95.706	-164.2360
40.866028	95.703	-164.4355
41.162160	95.700	-164.6336
41.460438	95.697	-164.8302
41.760877	95.694	-165.0259
42.063494	95.691	-165.2214
42.368303	95.688	-165.4173
42.675322	95.685	-165.6140
42.984565	95.681	-165.8114
43.296048	95.678	-166.0089
43.609789	95.674	-166.2056
43.925804	95.670	-166.4004
44.244108	95.666	-166.5926
44.564719	95.661	-166.7822
44.887654	95.657	-166.9692
45.212928	95.653	-167.1546
45.540560	95.649	-167.3393
45.870565	95.645	-167.5242
46.202962	95.641	-167.7099
46.537768	95.636	-167.8963
46.875000	95.631	-168.0826
47.214676	95.626	-168.2679
47.556813	95.621	-168.4511
47.901429	95.616	-168.6316
48.248542	95.610	-168.8093
48.598171	95.605	-168.9849
48.950334	95.600	-169.1593
49.305048	95.596	-169.3334
49.662333	95.592	-169.5078
50.022206	95.587	-169.6826
50.384688	95.583	-169.8574
50.749796	95.578	-170.0314
51.117550	95.573	-170.2037
51.487969	95.568	-170.3738
51.861072	95.563	-170.5414
52.236879	95.558	-170.7064
52.615409	95.554	-170.8693
52.996681	95.549	-171.0303
53.380717	95.545	-171.1899
53.767536	95.541	-171.3483
54.157158	95.537	-171.5060
54.549603	95.533	-171.6634
54.944892	95.529	-171.8211
55.343045	95.526	-171.9797
55.744084	95.523	-172.1396
56.148028	95.521	-172.3017
56.554900	95.518	-172.4670
56.964720	95.516	-172.6367
57.377510	95.514	-172.8115
57.793291	95.511	-172.9913
58.212085	95.508	-173.1747
58.633914	95.504	-173.3598
59.058799	95.499	-173.5448
59.486764	95.493	-173.7289
59.917829	95.487	-173.9118
60.352019	95.481	-174.0935
60.789354	95.474	-174.2741
61.229859	95.466	-174.4528
61.673556	95.458	-174.6292
62.120468	95.449	-174.8027
62.570618	95.441	-174.9736
63.024031	95.432	-175.1426
63.480729	95.423	-175.3104
63.940736	95.414	-175.4778
64.404077	95.405	-175.6452
64.870776	95.395	-175.8122
65.340856	95.386	-175.9779
65.814343	95.376	-176.1416
66.291261	95.366	-176.3030
66.771635	95.356	-176.4627
67.255489	95.347	-176.6213
67.742850	95.337	-176.7790
68.233743	95.327	-176.9356
68.728193	95.317	-177.0904
69.226226	95.306	-177.2428
69.727867	95.296	-177.3914
