* Measurement data measured by REW V5.31
* Source: EXCL: Microphone (USB Sound Device        ), MICROPHONE (Master Volume), L, volume: 0.250
* Format: 256k Log Swept Sine, 1 sweep at -5.0 dBFS with no timing reference
* Dated: Jun 26, 2024 12:11:14 AM
* REW Settings:
*  C-weighting compensation: Off
*  Target level: 75.0 dB
* Note: NF Audio RA05
* Measurement: L NF Audio RA05
* Smoothing: 1/12 octave
* Frequency Step: 96 ppo
* Start Frequency: 0.36621094 Hz
*
* Freq(Hz) SPL(dB) Phase(degrees)
0.366211 94.614 174.1211
0.368865 94.610 174.1200
0.371538 94.604 174.1182
0.374230 94.596 174.1161
0.376942 94.588 174.1137
0.379673 94.578 174.1111
0.382424 94.569 174.1084
0.385196 94.559 174.1056
0.387987 94.549 174.1027
0.390798 94.539 174.0998
0.393630 94.529 174.0969
0.396483 94.519 174.0939
0.399356 94.508 174.0909
0.402250 94.498 174.0879
0.405165 94.487 174.0848
0.408101 94.477 174.0817
0.411058 94.466 174.0786
0.414037 94.455 174.0754
0.417037 94.444 174.0722
0.420059 94.433 174.0689
0.423103 94.422 174.0656
0.426169 94.411 174.0623
0.429257 94.400 174.0589
0.432368 94.389 174.0555
0.435501 94.378 174.0521
0.438656 94.366 174.0486
0.441835 94.355 174.0450
0.445037 94.343 174.0414
0.448262 94.331 174.0378
0.451510 94.320 174.0340
0.454782 94.308 174.0303
0.458077 94.296 174.0265
0.461397 94.284 174.0226
0.464740 94.272 174.0187
0.468108 94.260 174.0147
0.471500 94.247 174.0107
0.474917 94.235 174.0066
0.478358 94.223 174.0024
0.481825 94.210 173.9982
0.485316 94.197 173.9939
0.488833 94.185 173.9895
0.492375 94.172 173.9850
0.495943 94.159 173.9805
0.499537 94.146 173.9760
0.503157 94.133 173.9713
0.506803 94.120 173.9665
0.510475 94.107 173.9617
0.514175 94.093 173.9568
0.517900 94.080 173.9518
0.521653 94.066 173.9467
0.525434 94.052 173.9415
0.529241 94.039 173.9362
0.533076 94.025 173.9308
0.536939 94.011 173.9254
0.540830 93.997 173.9198
0.544749 93.983 173.9141
0.548696 93.968 173.9083
0.552673 93.954 173.9024
0.556677 93.940 173.8963
0.560711 93.925 173.8902
0.564774 93.910 173.8839
0.568867 93.896 173.8775
0.572989 93.881 173.8710
0.577141 93.866 173.8643
0.581324 93.851 173.8575
0.585536 93.835 173.8506
0.589779 93.820 173.8435
0.594053 93.804 173.8363
0.598358 93.789 173.8289
0.602694 93.773 173.8213
0.607061 93.757 173.8136
0.611460 93.742 173.8057
0.615891 93.726 173.7977
0.620354 93.709 173.7894
0.624849 93.693 173.7810
0.629377 93.677 173.7724
0.633938 93.660 173.7637
0.638532 93.644 173.7547
0.643159 93.627 173.7455
0.647819 93.610 173.7361
0.652514 93.593 173.7265
0.657242 93.576 173.7166
0.662005 93.559 173.7066
0.666802 93.542 173.6963
0.671634 93.524 173.6858
0.676501 93.507 173.6750
0.681403 93.489 173.6641
0.686341 93.471 173.6529
0.691314 93.453 173.6416
0.696324 93.435 173.6303
0.701370 93.417 173.6192
0.706452 93.398 173.6086
0.711571 93.380 173.5991
0.716728 93.361 173.5918
0.721921 93.342 173.5881
0.727153 93.322 173.5897
0.732422 93.302 173.5984
0.737729 93.282 173.6152
0.743075 93.261 173.6399
0.748460 93.239 173.6712
0.753883 93.217 173.7077
0.759346 93.195 173.7484
0.764849 93.172 173.7924
0.770391 93.148 173.8394
0.775974 93.124 173.8889
0.781597 93.100 173.9409
0.787261 93.075 173.9954
0.792966 93.050 174.0522
0.798712 93.025 174.1115
0.804500 92.999 174.1733
0.810329 92.972 174.2376
0.816201 92.945 174.3046
0.822116 92.918 174.3741
0.828073 92.891 174.4464
0.834074 92.863 174.5214
0.840118 92.835 174.5992
0.846206 92.807 174.6800
0.852338 92.778 174.7637
0.858514 92.749 174.8504
0.864735 92.720 174.9402
0.871001 92.691 175.0332
0.877313 92.661 175.1294
0.883670 92.631 175.2289
0.890074 92.601 175.3317
0.896524 92.571 175.4380
0.903020 92.541 175.5478
0.909564 92.510 175.6611
0.916155 92.480 175.7781
0.922794 92.450 175.8988
0.929481 92.419 176.0233
0.936216 92.389 176.1516
0.943000 92.358 176.2838
0.949834 92.328 176.4200
0.956717 92.298 176.5602
0.963649 92.268 176.7046
0.970632 92.238 176.8531
0.977666 92.208 177.0058
0.984750 92.179 177.1628
0.991886 92.150 177.3241
0.999074 92.121 177.4898
1.006314 92.093 177.6599
1.013606 92.065 177.8345
1.020951 92.038 178.0136
1.028349 92.011 178.1972
1.035801 91.984 178.3854
1.043307 91.959 178.5782
1.050867 91.934 178.7756
1.058482 91.910 178.9777
1.066152 91.886 179.1845
1.073878 91.863 179.3963
1.081660 91.841 179.6132
1.089498 91.820 179.8357
1.097393 91.800 -179.9359
1.105345 91.780 -179.7008
1.113355 91.762 -179.4585
1.121423 91.743 -179.2084
1.129549 91.725 -178.9503
1.137734 91.708 -178.6838
1.145979 91.691 -178.4089
1.154283 91.675 -178.1258
1.162647 91.659 -177.8344
1.171072 91.644 -177.5351
1.179558 91.629 -177.2278
1.188106 91.615 -176.9130
1.196715 91.602 -176.5908
1.205387 91.589 -176.2615
1.214122 91.576 -175.9255
1.222920 91.564 -175.5829
1.231782 91.553 -175.2343
1.240708 91.543 -174.8800
1.249699 91.533 -174.5203
1.258754 91.524 -174.1556
1.267876 91.516 -173.7865
1.277063 91.508 -173.4133
1.286318 91.502 -173.0366
1.295639 91.496 -172.6568
1.305027 91.491 -172.2744
1.314484 91.486 -171.8901
1.324009 91.483 -171.5044
1.333604 91.481 -171.1179
1.343268 91.479 -170.7311
1.353002 91.479 -170.3448
1.362806 91.479 -169.9595
1.372681 91.481 -169.5760
1.382628 91.483 -169.1949
1.392647 91.487 -168.8168
1.402739 91.492 -168.4424
1.412904 91.498 -168.0723
1.423142 91.505 -167.7071
1.433455 91.513 -167.3471
1.443843 91.523 -166.9926
1.454305 91.535 -166.6433
1.464844 91.548 -166.2990
1.475459 91.562 -165.9589
1.486150 91.579 -165.6222
1.496920 91.598 -165.2886
1.507767 91.619 -164.9575
1.518693 91.642 -164.6291
1.529698 91.666 -164.3033
1.540783 91.693 -163.9804
1.551948 91.722 -163.6608
1.563194 91.753 -163.3447
1.574521 91.785 -163.0326
1.585931 91.820 -162.7249
1.597423 91.855 -162.4218
1.608999 91.893 -162.1239
1.620658 91.931 -161.8315
1.632402 91.971 -161.5450
1.644232 92.012 -161.2647
1.656146 92.054 -160.9910
1.668147 92.097 -160.7243
1.680235 92.141 -160.4650
1.692411 92.185 -160.2133
1.704675 92.230 -159.9696
1.717028 92.276 -159.7342
1.729470 92.321 -159.5076
1.742003 92.366 -159.2899
1.754626 92.412 -159.0815
1.767341 92.457 -158.8828
1.780147 92.501 -158.6940
1.793047 92.545 -158.5154
1.806040 92.589 -158.3474
1.819128 92.632 -158.1900
1.832310 92.675 -158.0436
1.845587 92.718 -157.9082
1.858961 92.762 -157.7839
1.872432 92.805 -157.6708
1.886001 92.849 -157.5686
1.899667 92.894 -157.4773
1.913433 92.939 -157.3967
1.927299 92.985 -157.3264
1.941265 93.032 -157.2662
1.955332 93.078 -157.2159
1.969501 93.125 -157.1751
1.983773 93.172 -157.1435
1.998148 93.220 -157.1208
2.012627 93.267 -157.1067
2.027212 93.313 -157.1007
2.041902 93.360 -157.1027
2.056698 93.406 -157.1121
2.071602 93.451 -157.1286
2.086614 93.496 -157.1520
2.101734 93.540 -157.1820
2.116964 93.582 -157.2182
2.132304 93.624 -157.2605
2.147756 93.664 -157.3089
2.163320 93.702 -157.3636
2.178996 93.740 -157.4252
2.194786 93.775 -157.4943
2.210690 93.810 -157.5721
2.226710 93.843 -157.6595
2.242845 93.874 -157.7571
2.259098 93.905 -157.8654
2.275468 93.934 -157.9840
2.291957 93.962 -158.1127
2.308566 93.989 -158.2508
2.325295 94.015 -158.3974
2.342145 94.039 -158.5518
2.359117 94.063 -158.7129
2.376212 94.085 -158.8798
2.393431 94.106 -159.0515
2.410775 94.125 -159.2269
2.428244 94.143 -159.4048
2.445840 94.160 -159.5845
2.463564 94.175 -159.7646
2.481416 94.188 -159.9445
2.499397 94.201 -160.1232
2.517509 94.211 -160.3004
2.535752 94.220 -160.4760
2.554127 94.228 -160.6506
2.572635 94.233 -160.8253
2.591277 94.236 -161.0013
2.610055 94.238 -161.1798
2.628968 94.237 -161.3616
2.648019 94.235 -161.5469
2.667208 94.230 -161.7354
2.686535 94.224 -161.9265
2.706003 94.215 -162.1195
2.725612 94.205 -162.3133
2.745363 94.193 -162.5068
2.765257 94.180 -162.6988
2.785295 94.165 -162.8879
2.805478 94.149 -163.0728
2.825808 94.131 -163.2520
2.846285 94.112 -163.4243
2.866910 94.092 -163.5884
2.887685 94.071 -163.7434
2.908611 94.048 -163.8885
2.929688 94.024 -164.0236
2.950917 93.998 -164.1489
2.972301 93.971 -164.2650
2.993839 93.942 -164.3724
3.015534 93.911 -164.4713
3.037386 93.878 -164.5619
3.059396 93.843 -164.6441
3.081565 93.807 -164.7179
3.103896 93.770 -164.7829
3.126388 93.732 -164.8387
3.149043 93.694 -164.8851
3.171862 93.655 -164.9214
3.194847 93.616 -164.9470
3.217998 93.577 -164.9615
3.241317 93.539 -164.9639
3.264805 93.501 -164.9534
3.288463 93.463 -164.9289
3.312293 93.426 -164.8895
3.336295 93.389 -164.8344
3.360471 93.352 -164.7631
3.384822 93.315 -164.6756
3.409350 93.279 -164.5727
3.434056 93.242 -164.4553
3.458940 93.206 -164.3246
3.484005 93.171 -164.1822
3.509252 93.137 -164.0296
3.534681 93.104 -163.8686
3.560295 93.073 -163.7007
3.586094 93.044 -163.5272
3.612081 93.017 -163.3491
3.638255 92.993 -163.1667
3.664620 92.972 -162.9795
3.691175 92.953 -162.7866
3.717923 92.937 -162.5873
3.744864 92.924 -162.3815
3.772001 92.913 -162.1699
3.799335 92.904 -161.9542
3.826866 92.898 -161.7365
3.854597 92.894 -161.5195
3.882529 92.892 -161.3060
3.910664 92.892 -161.0990
3.939002 92.893 -160.9011
3.967546 92.897 -160.7147
3.996296 92.903 -160.5415
4.025255 92.911 -160.3825
4.054423 92.920 -160.2377
4.083804 92.933 -160.1069
4.113396 92.947 -159.9896
4.143204 92.964 -159.8859
4.173227 92.982 -159.7959
4.203468 93.002 -159.7202
4.233928 93.023 -159.6593
4.264609 93.044 -159.6142
4.295512 93.065 -159.5857
4.326639 93.087 -159.5748
4.357992 93.107 -159.5825
4.389572 93.127 -159.6097
4.421380 93.147 -159.6570
4.453419 93.166 -159.7247
4.485691 93.184 -159.8123
4.518196 93.202 -159.9186
4.550936 93.219 -160.0421
4.583914 93.235 -160.1810
4.617131 93.250 -160.3334
4.650589 93.263 -160.4975
4.684289 93.274 -160.6719
4.718233 93.284 -160.8559
4.752424 93.291 -161.0492
4.786862 93.295 -161.2524
4.821549 93.297 -161.4659
4.856488 93.296 -161.6897
4.891680 93.294 -161.9225
4.927127 93.289 -162.1624
4.962831 93.282 -162.4070
4.998794 93.272 -162.6532
5.035017 93.261 -162.8984
5.071503 93.247 -163.1401
5.108253 93.232 -163.3770
5.145270 93.214 -163.6083
5.182555 93.194 -163.8339
5.220110 93.172 -164.0540
5.257937 93.148 -164.2684
5.296038 93.122 -164.4761
5.334415 93.095 -164.6760
5.373071 93.067 -164.8664
5.412006 93.039 -165.0456
5.451224 93.010 -165.2120
5.490725 92.981 -165.3643
5.530514 92.953 -165.5017
5.570590 92.924 -165.6241
5.610957 92.896 -165.7321
5.651616 92.868 -165.8266
5.692570 92.841 -165.9090
5.733821 92.815 -165.9805
5.775370 92.791 -166.0424
5.817221 92.769 -166.0954
5.859375 92.750 -166.1399
5.901834 92.734 -166.1759
5.944602 92.720 -166.2041
5.987679 92.709 -166.2258
6.031068 92.701 -166.2433
6.074771 92.696 -166.2596
6.118792 92.693 -166.2777
6.163131 92.693 -166.3007
6.207792 92.697 -166.3307
6.252776 92.703 -166.3690
6.298086 92.712 -166.4165
6.343725 92.725 -166.4738
6.389694 92.739 -166.5421
6.435996 92.756 -166.6227
6.482634 92.775 -166.7175
6.529610 92.795 -166.8281
6.576926 92.817 -166.9559
6.624585 92.839 -167.1016
6.672590 92.862 -167.2653
6.720942 92.886 -167.4462
6.769645 92.910 -167.6432
6.818700 92.934 -167.8552
6.868111 92.958 -168.0808
6.917881 92.980 -168.3191
6.968010 93.002 -168.5695
7.018504 93.022 -168.8311
7.069362 93.041 -169.1028
7.120590 93.058 -169.3829
7.172189 93.074 -169.6685
7.224161 93.089 -169.9570
7.276511 93.102 -170.2458
7.329239 93.113 -170.5329
7.382350 93.123 -170.8172
7.435845 93.131 -171.0974
7.489729 93.137 -171.3721
7.544002 93.143 -171.6396
7.598669 93.148 -171.8979
7.653732 93.152 -172.1453
7.709194 93.156 -172.3801
7.765058 93.159 -172.6020
7.821327 93.163 -172.8106
7.878004 93.167 -173.0063
7.935091 93.172 -173.1893
7.992592 93.178 -173.3602
8.050510 93.185 -173.5190
8.108847 93.193 -173.6664
8.167607 93.203 -173.8033
8.226793 93.216 -173.9310
8.286408 93.229 -174.0515
8.346454 93.245 -174.1669
8.406936 93.263 -174.2789
8.467856 93.283 -174.3892
8.529218 93.304 -174.4988
8.591024 93.328 -174.6091
8.653278 93.353 -174.7216
8.715983 93.379 -174.8377
8.779143 93.406 -174.9588
8.842760 93.434 -175.0857
8.906839 93.462 -175.2185
8.971381 93.491 -175.3573
9.036392 93.520 -175.5016
9.101873 93.548 -175.6512
9.167829 93.576 -175.8055
9.234263 93.603 -175.9639
9.301178 93.629 -176.1254
9.368578 93.654 -176.2885
9.436467 93.677 -176.4517
9.504847 93.699 -176.6136
9.573723 93.720 -176.7729
9.643099 93.739 -176.9285
9.712976 93.755 -177.0793
9.783361 93.769 -177.2242
9.854255 93.780 -177.3622
9.925663 93.788 -177.4925
9.997588 93.793 -177.6147
10.070035 93.796 -177.7288
10.143007 93.796 -177.8351
10.216507 93.794 -177.9338
10.290540 93.790 -178.0254
10.365109 93.786 -178.1105
10.440219 93.781 -178.1901
10.515873 93.775 -178.2654
10.592076 93.769 -178.3374
10.668830 93.763 -178.4073
10.746141 93.756 -178.4760
10.824012 93.750 -178.5443
10.902447 93.744 -178.6133
10.981451 93.737 -178.6836
11.061027 93.731 -178.7558
11.141180 93.723 -178.8301
11.221913 93.715 -178.9067
11.303232 93.706 -178.9855
11.385140 93.697 -179.0664
11.467641 93.686 -179.1492
11.550741 93.675 -179.2335
11.634442 93.663 -179.3189
11.718750 93.650 -179.4052
11.803669 93.637 -179.4919
11.889203 93.623 -179.5792
11.975357 93.609 -179.6667
12.062136 93.595 -179.7548
12.149543 93.580 -179.8435
12.237583 93.566 -179.9332
12.326262 93.551 179.9756
12.415583 93.535 179.8824
12.505552 93.520 179.7865
12.596172 93.503 179.6874
12.687449 93.487 179.5847
12.779387 93.470 179.4777
12.871992 93.452 179.3663
12.965268 93.434 179.2503
13.059220 93.416 179.1296
13.153852 93.397 179.0044
13.249170 93.378 178.8750
13.345179 93.358 178.7418
13.441884 93.338 178.6052
13.539289 93.318 178.4657
13.637401 93.298 178.3237
13.736223 93.277 178.1797
13.835761 93.257 178.0336
13.936021 93.236 177.8857
14.037007 93.216 177.7358
14.138725 93.196 177.5835
14.241180 93.176 177.4285
14.344377 93.156 177.2700
14.448323 93.137 177.1075
14.553021 93.119 176.9404
14.658478 93.101 176.7682
14.764700 93.083 176.5904
14.871691 93.066 176.4069
14.979457 93.050 176.2178
15.088005 93.034 176.0235
15.197339 93.018 175.8245
15.307465 93.002 175.6218
15.418389 92.986 175.4164
15.530117 92.970 175.2094
15.642655 92.955 175.0020
15.756008 92.939 174.7954
15.870182 92.924 174.5904
15.985184 92.909 174.3878
16.101019 92.894 174.1882
16.217694 92.880 173.9915
16.335214 92.867 173.7980
16.453586 92.855 173.6071
16.572815 92.843 173.4186
16.692909 92.833 173.2319
16.813872 92.824 173.0466
16.935713 92.816 172.8624
17.058436 92.809 172.6790
17.182048 92.803 172.4967
17.306556 92.797 172.3156
17.431967 92.791 172.1362
17.558286 92.785 171.9593
17.685521 92.779 171.7855
17.813677 92.772 171.6156
17.942762 92.766 171.4503
18.072783 92.759 171.2899
18.203746 92.751 171.1350
18.335658 92.744 170.9854
18.468526 92.737 170.8412
18.602356 92.729 170.7020
18.737156 92.721 170.5675
18.872934 92.713 170.4374
19.009695 92.705 170.3112
19.147447 92.696 170.1888
19.286197 92.687 170.0700
19.425953 92.677 169.9547
19.566721 92.667 169.8428
19.708510 92.656 169.7345
19.851326 92.644 169.6295
19.995177 92.631 169.5277
20.140070 92.617 169.4286
20.286013 92.603 169.3316
20.433014 92.588 169.2360
20.581080 92.573 169.1409
20.730219 92.557 169.0455
20.880439 92.540 168.9489
21.031747 92.523 168.8504
21.184152 92.505 168.7496
21.337661 92.487 168.6461
21.492282 92.469 168.5398
21.648024 92.449 168.4307
21.804895 92.429 168.3188
21.962902 92.409 168.2040
22.122054 92.388 168.0863
22.282360 92.367 167.9655
22.443827 92.346 167.8411
22.606464 92.324 167.7129
22.770280 92.302 167.5804
22.935283 92.280 167.4436
23.101481 92.258 167.3023
23.268884 92.236 167.1571
23.437500 92.213 167.0082
23.607338 92.191 166.8566
23.778406 92.168 166.7029
23.950714 92.145 166.5480
24.124271 92.123 166.3924
24.299086 92.100 166.2367
24.475167 92.078 166.0810
24.652524 92.057 165.9254
24.831166 92.037 165.7701
25.011103 92.017 165.6150
25.192344 91.997 165.4603
25.374898 91.978 165.3066
25.558775 91.960 165.1543
25.743984 91.941 165.0044
25.930536 91.923 164.8577
26.118439 91.906 164.7149
26.307704 91.888 164.5767
26.498341 91.870 164.4437
26.690359 91.853 164.3162
26.883768 91.836 164.1942
27.078579 91.818 164.0778
27.274801 91.801 163.9669
27.472446 91.783 163.8614
27.671522 91.765 163.7612
27.872042 91.747 163.6661
28.074014 91.728 163.5757
28.277450 91.709 163.4896
28.482360 91.689 163.4072
28.688755 91.669 163.3279
28.896645 91.648 163.2512
29.106042 91.626 163.1764
29.316957 91.604 163.1031
29.529400 91.581 163.0311
29.743382 91.558 162.9601
29.958915 91.533 162.8898
30.176009 91.509 162.8197
30.394677 91.484 162.7493
30.614929 91.458 162.6779
30.836778 91.432 162.6050
31.060234 91.406 162.5301
31.285309 91.380 162.4529
31.512015 91.353 162.3736
31.740364 91.327 162.2924
31.970368 91.300 162.2098
32.202039 91.273 162.1262
32.435388 91.246 162.0417
32.670428 91.220 161.9564
32.907171 91.194 161.8702
33.145630 91.168 161.7829
33.385817 91.143 161.6944
33.627745 91.119 161.6050
33.871425 91.095 161.5150
34.116871 91.071 161.4252
34.364096 91.048 161.3362
34.613113 91.025 161.2488
34.863934 91.002 161.1636
35.116572 90.979 161.0813
35.371041 90.956 161.0023
35.627354 90.934 160.9267
35.885525 90.911 160.8548
36.145566 90.888 160.7865
36.407492 90.866 160.7216
36.671316 90.842 160.6599
36.937051 90.819 160.6009
37.204712 90.795 160.5447
37.474313 90.771 160.4912
37.745867 90.746 160.4406
38.019389 90.721 160.3928
38.294893 90.695 160.3477
38.572394 90.670 160.3048
38.851905 90.644 160.2630
39.133442 90.618 160.2210
39.417019 90.592 160.1776
39.702651 90.565 160.1317
39.990353 90.539 160.0833
40.280140 90.511 160.0330
40.572026 90.484 159.9819
40.866028 90.455 159.9319
41.162160 90.427 159.8844
41.460438 90.398 159.8406
41.760877 90.370 159.8007
42.063494 90.342 159.7643
42.368303 90.315 159.7303
42.675322 90.288 159.6973
42.984565 90.262 159.6641
43.296048 90.236 159.6302
43.609789 90.210 159.5959
43.925804 90.185 159.5620
44.244108 90.159 159.5296
44.564719 90.132 159.4998
44.887654 90.106 159.4733
45.212928 90.080 159.4499
45.540560 90.054 159.4290
45.870565 90.028 159.4099
46.202962 90.002 159.3916
46.537768 89.975 159.3740
46.875000 89.949 159.3570
47.214676 89.922 159.3412
47.556813 89.895 159.3269
47.901429 89.869 159.3145
48.248542 89.842 159.3038
48.598171 89.815 159.2949
48.950334 89.788 159.2879
49.305048 89.761 159.2832
49.662333 89.735 159.2808
50.022206 89.708 159.2809
50.384688 89.682 159.2826
50.749796 89.656 159.2853
51.117550 89.631 159.2883
51.487969 89.605 159.2913
51.861072 89.579 159.2949
52.236879 89.553 159.2995
52.615409 89.527 159.3056
52.996681 89.501 159.3129
53.380717 89.475 159.3209
53.767536 89.449 159.3285
54.157158 89.423 159.3351
54.549603 89.397 159.3402
54.944892 89.372 159.3440
55.343045 89.346 159.3470
55.744084 89.319 159.3500
56.148028 89.293 159.3537
56.554900 89.267 159.3587
56.964720 89.241 159.3652
57.377510 89.215 159.3733
57.793291 89.189 159.3830
58.212085 89.164 159.3946
58.633914 89.139 159.4076
59.058799 89.114 159.4220
59.486764 89.090 159.4372
59.917829 89.065 159.4534
60.352019 89.040 159.4708
60.789354 89.015 159.4900
61.229859 88.990 159.5112
61.673556 88.965 159.5343
62.120468 88.939 159.5586
62.570618 88.914 159.5834
63.024031 88.888 159.6078
63.480729 88.863 159.6311
63.940736 88.837 159.6528
64.404077 88.812 159.6723
64.870776 88.786 159.6894
65.340856 88.761 159.7041
65.814343 88.735 159.7171
66.291261 88.709 159.7293
66.771635 88.684 159.7413
67.255489 88.658 159.7540
67.742850 88.632 159.7678
68.233743 88.606 159.7831
68.728193 88.580 159.8000
