* Measurement data measured by REW V5.30 beta 4
* Source: EXCL: Microphone (Realtek(R) Audio), MICROPHONE (Master Volume), L, volume: 0.250
* Format: 256k Log Swept Sine, 1 sweep at -27.0 dBFS with no timing reference
* Dated: Dec 13, 2023 11:48:32 PM
* REW Settings:
*  C-weighting compensation: Off
*  Target level: 75.0 dB
* Note: 
* Measurement: L Oriolus Isabellae
* Smoothing: 1/24 octave
* Frequency Step: 96 ppo
* Start Frequency: 0.36621094 Hz
*
* Freq(Hz) SPL(dB) Phase(degrees)
0.366211 60.688 5.7673
0.368865 60.722 5.7299
0.371538 60.772 5.6765
0.374230 60.828 5.6170
0.376942 60.887 5.5556
0.379673 60.946 5.4939
0.382424 61.007 5.4326
0.385196 61.067 5.3716
0.387987 61.129 5.3110
0.390798 61.190 5.2509
0.393630 61.252 5.1911
0.396483 61.315 5.1318
0.399356 61.378 5.0727
0.402250 61.441 5.0141
0.405165 61.505 4.9557
0.408101 61.569 4.8977
0.411058 61.634 4.8399
0.414037 61.700 4.7824
0.417037 61.765 4.7251
0.420059 61.832 4.6680
0.423103 61.898 4.6111
0.426169 61.965 4.5544
0.429257 62.033 4.4977
0.432367 62.101 4.4412
0.435501 62.170 4.3847
0.438656 62.239 4.3283
0.441835 62.309 4.2719
0.445037 62.379 4.2154
0.448262 62.450 4.1589
0.451510 62.521 4.1023
0.454782 62.593 4.0455
0.458077 62.665 3.9886
0.461397 62.738 3.9315
0.464740 62.811 3.8742
0.468108 62.885 3.8165
0.471500 62.959 3.7586
0.474917 63.034 3.7003
0.478358 63.109 3.6416
0.481825 63.185 3.5825
0.485316 63.262 3.5229
0.488833 63.339 3.4628
0.492375 63.417 3.4022
0.495943 63.495 3.3410
0.499537 63.574 3.2791
0.503157 63.653 3.2165
0.506803 63.733 3.1532
0.510475 63.813 3.0891
0.514174 63.894 3.0243
0.517900 63.976 2.9585
0.521653 64.058 2.8919
0.525433 64.141 2.8243
0.529241 64.225 2.7557
0.533076 64.309 2.6861
0.536939 64.393 2.6154
0.540830 64.479 2.5435
0.544749 64.565 2.4704
0.548696 64.651 2.3962
0.552673 64.738 2.3206
0.556677 64.826 2.2437
0.560711 64.915 2.1655
0.564774 65.004 2.0858
0.568867 65.093 2.0046
0.572989 65.184 1.9219
0.577141 65.275 1.8376
0.581324 65.366 1.7518
0.585536 65.459 1.6642
0.589779 65.552 1.5749
0.594053 65.645 1.4838
0.598358 65.740 1.3910
0.602694 65.835 1.2962
0.607061 65.931 1.1995
0.611460 66.027 1.1009
0.615891 66.124 1.0002
0.620354 66.222 0.8974
0.624849 66.320 0.7925
0.629377 66.420 0.6855
0.633938 66.520 0.5762
0.638532 66.620 0.4646
0.643159 66.722 0.3507
0.647819 66.824 0.2344
0.652514 66.927 0.1156
0.657242 67.031 -0.0056
0.662005 67.135 -0.1294
0.666802 67.240 -0.2558
0.671634 67.346 -0.3848
0.676501 67.453 -0.5165
0.681403 67.560 -0.6510
0.686341 67.668 -0.7882
0.691314 67.777 -0.9284
0.696324 67.887 -1.0714
0.701369 67.998 -1.2174
0.706452 68.109 -1.3664
0.711571 68.221 -1.5185
0.716727 68.334 -1.6736
0.721921 68.447 -1.8318
0.727153 68.560 -1.9927
0.732422 68.670 -2.1558
0.737729 68.776 -2.3198
0.743075 68.880 -2.4836
0.748460 68.983 -2.6464
0.753883 69.086 -2.8080
0.759346 69.188 -2.9685
0.764849 69.291 -3.1279
0.770391 69.394 -3.2863
0.775974 69.498 -3.4436
0.781597 69.601 -3.6001
0.787261 69.705 -3.7558
0.792965 69.809 -3.9107
0.798712 69.913 -4.0650
0.804499 70.018 -4.2187
0.810329 70.122 -4.3719
0.816201 70.227 -4.5248
0.822116 70.332 -4.6774
0.828073 70.437 -4.8298
0.834073 70.543 -4.9821
0.840118 70.649 -5.1344
0.846205 70.754 -5.2867
0.852337 70.861 -5.4393
0.858514 70.967 -5.5921
0.864735 71.073 -5.7453
0.871001 71.180 -5.8990
0.877313 71.287 -6.0533
0.883670 71.394 -6.2082
0.890074 71.502 -6.3640
0.896523 71.609 -6.5206
0.903020 71.717 -6.6782
0.909564 71.825 -6.8369
0.916155 71.933 -6.9968
0.922793 72.042 -7.1580
0.929480 72.150 -7.3206
0.936216 72.259 -7.4848
0.943000 72.368 -7.6505
0.949833 72.477 -7.8180
0.956716 72.587 -7.9874
0.963649 72.697 -8.1587
0.970632 72.807 -8.3321
0.977666 72.917 -8.5076
0.984750 73.028 -8.6855
0.991886 73.138 -8.8657
0.999074 73.249 -9.0485
1.006313 73.360 -9.2339
1.013605 73.472 -9.4221
1.020950 73.584 -9.6132
1.028349 73.696 -9.8073
1.035801 73.808 -10.0045
1.043306 73.921 -10.2049
1.050867 74.034 -10.4088
1.058482 74.147 -10.6161
1.066152 74.260 -10.8270
1.073878 74.374 -11.0417
1.081659 74.488 -11.2602
1.089498 74.602 -11.4824
1.097393 74.717 -11.7079
1.105345 74.832 -11.9360
1.113355 74.946 -12.1655
1.121422 75.061 -12.3958
1.129549 75.176 -12.6269
1.137734 75.291 -12.8584
1.145978 75.405 -13.0906
1.154283 75.520 -13.3233
1.162647 75.634 -13.5565
1.171072 75.748 -13.7904
1.179558 75.863 -14.0249
1.188106 75.977 -14.2600
1.196715 76.091 -14.4959
1.205387 76.205 -14.7325
1.214122 76.319 -14.9698
1.222920 76.433 -15.2080
1.231781 76.547 -15.4470
1.240708 76.661 -15.6869
1.249698 76.775 -15.9277
1.258754 76.889 -16.1696
1.267875 77.003 -16.4125
1.277063 77.116 -16.6566
1.286317 77.230 -16.9018
1.295638 77.344 -17.1483
1.305027 77.458 -17.3961
1.314484 77.572 -17.6452
1.324009 77.686 -17.8959
1.333603 77.800 -18.1480
1.343267 77.913 -18.4018
1.353001 78.028 -18.6572
1.362805 78.142 -18.9145
1.372681 78.256 -19.1736
1.382628 78.370 -19.4346
1.392647 78.485 -19.6977
1.402739 78.599 -19.9629
1.412904 78.714 -20.2304
1.423142 78.829 -20.5001
1.433455 78.944 -20.7724
1.443842 79.059 -21.0470
1.454305 79.175 -21.3241
1.464843 79.290 -21.6034
1.475458 79.406 -21.8842
1.486150 79.521 -22.1660
1.496919 79.637 -22.4484
1.507766 79.752 -22.7314
1.518692 79.866 -23.0149
1.529697 79.981 -23.2991
1.540782 80.095 -23.5840
1.551947 80.209 -23.8697
1.563193 80.322 -24.1563
1.574521 80.436 -24.4439
1.585931 80.549 -24.7325
1.597423 80.661 -25.0223
1.608998 80.774 -25.3134
1.620658 80.886 -25.6059
1.632402 80.999 -25.8999
1.644231 81.111 -26.1956
1.656146 81.222 -26.4929
1.668147 81.334 -26.7922
1.680235 81.445 -27.0935
1.692410 81.556 -27.3969
1.704674 81.667 -27.7026
1.717027 81.778 -28.0108
1.729469 81.889 -28.3215
1.742002 82.000 -28.6350
1.754625 82.111 -28.9514
1.767340 82.221 -29.2708
1.780147 82.332 -29.5935
1.793046 82.442 -29.9196
1.806040 82.552 -30.2493
1.819127 82.663 -30.5828
1.832309 82.773 -30.9200
1.845587 82.883 -31.2611
1.858961 82.993 -31.6059
1.872431 83.102 -31.9542
1.886000 83.211 -32.3057
1.899666 83.319 -32.6601
1.913432 83.426 -33.0173
1.927298 83.534 -33.3770
1.941264 83.640 -33.7390
1.955331 83.747 -34.1031
1.969500 83.852 -34.4691
1.983772 83.958 -34.8369
1.998147 84.063 -35.2063
2.012626 84.167 -35.5770
2.027211 84.272 -35.9491
2.041901 84.375 -36.3224
2.056697 84.479 -36.6967
2.071601 84.582 -37.0720
2.086613 84.685 -37.4482
2.101733 84.787 -37.8251
2.116963 84.889 -38.2029
2.132303 84.991 -38.5813
2.147755 85.092 -38.9604
2.163318 85.194 -39.3402
2.178995 85.295 -39.7210
2.194785 85.396 -40.1033
2.210689 85.496 -40.4878
2.226709 85.596 -40.8755
2.242844 85.695 -41.2667
2.259097 85.793 -41.6613
2.275467 85.891 -42.0590
2.291956 85.988 -42.4593
2.308565 86.084 -42.8621
2.325294 86.180 -43.2668
2.342144 86.275 -43.6730
2.359116 86.370 -44.0805
2.376211 86.463 -44.4889
2.393430 86.557 -44.8978
2.410774 86.649 -45.3069
2.428243 86.741 -45.7159
2.445839 86.833 -46.1245
2.463562 86.924 -46.5324
2.481415 87.015 -46.9392
2.499396 87.106 -47.3448
2.517508 87.196 -47.7489
2.535750 87.285 -48.1516
2.554126 87.375 -48.5531
2.572634 87.463 -48.9544
2.591276 87.551 -49.3572
2.610054 87.639 -49.7623
2.628967 87.725 -50.1699
2.648018 87.811 -50.5796
2.667206 87.895 -50.9912
2.686534 87.979 -51.4041
2.706002 88.062 -51.8179
2.725610 88.145 -52.2320
2.745361 88.227 -52.6461
2.765255 88.308 -53.0596
2.785294 88.388 -53.4721
2.805477 88.468 -53.8830
2.825807 88.548 -54.2918
2.846284 88.627 -54.6982
2.866909 88.706 -55.1016
2.887684 88.784 -55.5017
2.908609 88.862 -55.8984
2.929686 88.940 -56.2923
2.950916 89.017 -56.6846
2.972299 89.094 -57.0766
2.993838 89.169 -57.4690
3.015532 89.244 -57.8617
3.037384 89.318 -58.2545
3.059394 89.391 -58.6470
3.081564 89.463 -59.0387
3.103894 89.535 -59.4293
3.126386 89.606 -59.8183
3.149041 89.677 -60.2052
3.171861 89.747 -60.5895
3.194845 89.817 -60.9708
3.217996 89.887 -61.3485
3.241315 89.957 -61.7223
3.264803 90.026 -62.0917
3.288461 90.096 -62.4567
3.312291 90.165 -62.8179
3.336293 90.234 -63.1761
3.360469 90.302 -63.5319
3.384820 90.369 -63.8856
3.409348 90.436 -64.2372
3.434054 90.503 -64.5867
3.458938 90.569 -64.9340
3.484003 90.634 -65.2791
3.509250 90.700 -65.6217
3.534679 90.765 -65.9618
3.560293 90.831 -66.2993
3.586092 90.896 -66.6340
3.612079 90.962 -66.9657
3.638253 91.027 -67.2942
3.664618 91.093 -67.6194
3.691173 91.159 -67.9414
3.717921 91.225 -68.2600
3.744862 91.290 -68.5757
3.771999 91.356 -68.8887
3.799332 91.421 -69.1992
3.826864 91.486 -69.5076
3.854595 91.551 -69.8141
3.882527 91.617 -70.1191
3.910661 91.682 -70.4227
3.938999 91.748 -70.7254
3.967543 91.814 -71.0273
3.996294 91.880 -71.3284
4.025252 91.946 -71.6287
4.054421 92.013 -71.9278
4.083801 92.080 -72.2251
4.113394 92.147 -72.5207
4.143201 92.214 -72.8148
4.173225 92.282 -73.1078
4.203466 92.350 -73.4002
4.233926 92.417 -73.6925
4.264606 92.485 -73.9852
4.295509 92.553 -74.2789
4.326636 92.622 -74.5739
4.357989 92.690 -74.8706
4.389569 92.759 -75.1693
4.421378 92.828 -75.4695
4.453417 92.896 -75.7709
4.485688 92.966 -76.0731
4.518193 93.035 -76.3764
4.550934 93.104 -76.6807
4.583912 93.174 -76.9864
4.617129 93.243 -77.2937
4.650587 93.313 -77.6028
4.684287 93.382 -77.9139
4.718231 93.452 -78.2274
4.752421 93.521 -78.5435
4.786859 93.590 -78.8624
4.821547 93.658 -79.1840
4.856485 93.727 -79.5082
4.891677 93.796 -79.8348
4.927125 93.864 -80.1635
4.962829 93.932 -80.4941
4.998791 94.000 -80.8262
5.035015 94.068 -81.1598
5.071500 94.135 -81.4947
5.108251 94.202 -81.8309
5.145267 94.269 -82.1687
5.182552 94.335 -82.5088
5.220107 94.400 -82.8511
5.257934 94.466 -83.1955
5.296035 94.530 -83.5414
5.334412 94.595 -83.8884
5.373067 94.659 -84.2358
5.412003 94.723 -84.5831
5.451221 94.786 -84.9299
5.490722 94.849 -85.2762
5.530510 94.911 -85.6224
5.570587 94.973 -85.9691
5.610953 95.034 -86.3162
5.651613 95.095 -86.6637
5.692567 95.156 -87.0110
5.733818 95.216 -87.3577
5.775367 95.276 -87.7034
5.817218 95.336 -88.0476
5.859372 95.396 -88.3902
5.901831 95.455 -88.7313
5.944598 95.514 -89.0712
5.987675 95.573 -89.4103
6.031065 95.631 -89.7485
6.074768 95.689 -90.0858
6.118788 95.748 -90.4223
6.163127 95.806 -90.7579
6.207788 95.864 -91.0925
6.252772 95.922 -91.4259
6.298082 95.981 -91.7583
6.343721 96.039 -92.0896
6.389690 96.097 -92.4203
6.435992 96.155 -92.7507
6.482630 96.214 -93.0811
6.529606 96.272 -93.4118
6.576922 96.330 -93.7431
6.624581 96.389 -94.0748
6.672585 96.448 -94.4069
6.720938 96.506 -94.7393
6.769640 96.565 -95.0723
6.818696 96.624 -95.4063
6.868107 96.683 -95.7415
6.917876 96.742 -96.0782
6.968006 96.800 -96.4167
7.018499 96.859 -96.7571
7.069358 96.918 -97.0991
7.120586 96.976 -97.4428
7.172184 97.035 -97.7880
7.224157 97.093 -98.1347
7.276506 97.151 -98.4828
7.329235 97.209 -98.8326
7.382345 97.266 -99.1842
7.435841 97.323 -99.5377
7.489724 97.380 -99.8927
7.543997 97.437 -100.2490
7.598664 97.493 -100.6060
7.653728 97.549 -100.9634
7.709189 97.604 -101.3212
7.765053 97.659 -101.6797
7.821322 97.714 -102.0389
7.877998 97.768 -102.3986
7.935086 97.822 -102.7582
7.992587 97.875 -103.1173
8.050504 97.928 -103.4755
8.108841 97.981 -103.8329
8.167601 98.034 -104.1897
8.226787 98.086 -104.5460
8.286402 98.137 -104.9015
8.346449 98.189 -105.2561
8.406931 98.240 -105.6095
8.467851 98.291 -105.9617
8.529212 98.342 -106.3128
8.591018 98.393 -106.6630
8.653272 98.444 -107.0123
8.715977 98.494 -107.3610
8.779137 98.544 -107.7091
8.842754 98.595 -108.0565
8.906833 98.645 -108.4034
8.971375 98.695 -108.7499
9.036386 98.745 -109.0962
9.101867 98.794 -109.4424
9.167823 98.844 -109.7888
9.234257 98.893 -110.1354
9.301172 98.943 -110.4822
9.368572 98.992 -110.8291
9.436460 99.041 -111.1763
9.504841 99.089 -111.5238
9.573717 99.137 -111.8716
9.643092 99.185 -112.2197
9.712970 99.233 -112.5682
9.783354 99.280 -112.9166
9.854248 99.327 -113.2648
9.925656 99.374 -113.6129
9.997581 99.420 -113.9607
10.070028 99.466 -114.3083
10.143000 99.511 -114.6554
10.216500 99.556 -115.0018
10.290533 99.601 -115.3472
10.365103 99.645 -115.6918
10.440212 99.689 -116.0356
10.515866 99.733 -116.3784
10.592069 99.776 -116.7203
10.668823 99.819 -117.0610
10.746134 99.862 -117.4008
10.824005 99.904 -117.7396
10.902440 99.947 -118.0777
10.981443 99.988 -118.4150
11.061020 100.030 -118.7516
11.141172 100.071 -119.0877
11.221906 100.112 -119.4233
11.303225 100.153 -119.7586
11.385133 100.194 -120.0937
11.467634 100.234 -120.4287
11.550734 100.274 -120.7635
11.634435 100.313 -121.0983
11.718742 100.353 -121.4329
11.803661 100.391 -121.7676
11.889195 100.430 -122.1022
11.975349 100.468 -122.4366
12.062128 100.505 -122.7707
12.149535 100.542 -123.1045
12.237576 100.579 -123.4380
12.326254 100.615 -123.7709
12.415575 100.651 -124.1033
12.505544 100.687 -124.4349
12.596164 100.722 -124.7658
12.687441 100.756 -125.0959
12.779379 100.790 -125.4252
12.871984 100.824 -125.7537
12.965260 100.858 -126.0813
13.059211 100.891 -126.4082
13.153843 100.924 -126.7343
13.249161 100.956 -127.0598
13.345170 100.988 -127.3846
13.441875 101.020 -127.7089
13.539280 101.052 -128.0327
13.637391 101.083 -128.3562
13.736214 101.114 -128.6793
13.835752 101.145 -129.0022
13.936011 101.176 -129.3248
14.036998 101.206 -129.6473
14.138716 101.236 -129.9697
14.241171 101.265 -130.2919
14.344368 101.295 -130.6141
14.448313 101.324 -130.9362
14.553011 101.353 -131.2583
14.658468 101.381 -131.5804
14.764689 101.409 -131.9025
14.871680 101.437 -132.2247
14.979446 101.465 -132.5470
15.087994 101.492 -132.8694
15.197328 101.519 -133.1918
15.307454 101.546 -133.5142
15.418378 101.572 -133.8365
15.530106 101.598 -134.1587
15.642643 101.624 -134.4806
15.755996 101.649 -134.8021
15.870171 101.674 -135.1229
15.985172 101.699 -135.4429
16.101007 101.723 -135.7620
16.217682 101.747 -136.0799
16.335201 101.771 -136.3966
16.453573 101.794 -136.7119
16.572803 101.818 -137.0259
16.692898 101.841 -137.3385
16.813862 101.864 -137.6498
16.935701 101.886 -137.9600
17.058424 101.909 -138.2692
17.182035 101.932 -138.5776
17.306543 101.955 -138.8854
17.431953 101.977 -139.1928
17.558273 101.999 -139.4999
17.685509 102.022 -139.8069
17.813665 102.044 -140.1137
17.942751 102.065 -140.4203
18.072771 102.087 -140.7267
18.203733 102.108 -141.0327
18.335646 102.129 -141.3380
18.468513 102.149 -141.6425
18.602345 102.170 -141.9459
18.737144 102.189 -142.2479
18.872921 102.209 -142.5485
19.009682 102.228 -142.8474
19.147434 102.247 -143.1445
19.286184 102.266 -143.4398
19.425940 102.284 -143.7332
19.566708 102.302 -144.0249
19.708496 102.320 -144.3148
19.851313 102.338 -144.6031
19.995163 102.356 -144.8897
20.140057 102.373 -145.1749
20.285999 102.390 -145.4585
20.433001 102.407 -145.7408
20.581066 102.424 -146.0219
20.730206 102.441 -146.3019
20.880424 102.458 -146.5809
21.031733 102.474 -146.8592
21.184137 102.491 -147.1369
21.337646 102.507 -147.4142
21.492268 102.523 -147.6914
21.648010 102.539 -147.9686
21.804880 102.554 -148.2458
21.962887 102.570 -148.5231
22.122040 102.585 -148.8004
22.282345 102.599 -149.0777
22.443811 102.614 -149.3546
22.606449 102.628 -149.6311
22.770266 102.641 -149.9069
22.935268 102.655 -150.1819
23.101467 102.668 -150.4561
23.268869 102.681 -150.7294
23.437485 102.693 -151.0018
23.607323 102.706 -151.2737
23.778391 102.718 -151.5450
23.950699 102.730 -151.8160
24.124256 102.742 -152.0867
24.299070 102.754 -152.3573
24.475151 102.766 -152.6275
24.652508 102.777 -152.8972
24.831150 102.788 -153.1663
25.011087 102.799 -153.4344
25.192327 102.809 -153.7013
25.374882 102.819 -153.9668
25.558758 102.829 -154.2308
25.743967 102.839 -154.4934
25.930519 102.849 -154.7544
26.118422 102.859 -155.0143
26.307686 102.869 -155.2732
26.498322 102.879 -155.5314
26.690340 102.889 -155.7890
26.883749 102.898 -156.0463
27.078560 102.908 -156.3033
27.274782 102.917 -156.5599
27.472427 102.927 -156.8161
27.671503 102.935 -157.0715
27.872023 102.944 -157.3258
28.073996 102.952 -157.5787
28.277431 102.960 -157.8300
28.482342 102.968 -158.0793
28.688736 102.976 -158.3267
28.896626 102.984 -158.5722
29.106022 102.991 -158.8160
29.316936 102.999 -159.0584
29.529379 103.006 -159.3000
29.743361 103.014 -159.5412
29.958893 103.021 -159.7824
30.175987 103.029 -160.0238
30.394655 103.036 -160.2654
30.614908 103.042 -160.5070
30.836756 103.049 -160.7485
31.060211 103.055 -160.9895
31.285286 103.061 -161.2295
31.511992 103.067 -161.4685
31.740341 103.072 -161.7063
31.970345 103.078 -161.9431
32.202015 103.083 -162.1791
32.435364 103.088 -162.4145
32.670403 103.093 -162.6496
32.907146 103.098 -162.8844
33.145607 103.103 -163.1188
33.385796 103.108 -163.3528
33.627724 103.113 -163.5863
33.871403 103.117 -163.8192
34.116848 103.122 -164.0518
34.364071 103.126 -164.2843
34.613087 103.130 -164.5171
34.863907 103.135 -164.7499
35.116547 103.139 -164.9827
35.371017 103.142 -165.2147
35.627331 103.145 -165.4451
35.885502 103.148 -165.6732
36.145542 103.151 -165.8984
36.407467 103.154 -166.1211
36.671291 103.157 -166.3418
36.937027 103.160 -166.5616
37.204689 103.163 -166.7816
37.474289 103.167 -167.0024
37.745842 103.170 -167.2243
38.019363 103.173 -167.4465
38.294868 103.175 -167.6684
38.572369 103.177 -167.8891
38.851879 103.179 -168.1082
39.133415 103.181 -168.3260
39.416992 103.183 -168.5431
39.702625 103.184 -168.7602
39.990326 103.185 -168.9774
40.280113 103.186 -169.1943
40.571999 103.187 -169.4099
40.866001 103.187 -169.6233
41.162132 103.188 -169.8342
41.460411 103.188 -170.0430
41.760849 103.189 -170.2509
42.063465 103.189 -170.4596
42.368275 103.190 -170.6700
42.675293 103.191 -170.8822
42.984535 103.192 -171.0956
43.296021 103.192 -171.3092
43.609760 103.192 -171.5220
43.925774 103.191 -171.7338
44.244080 103.191 -171.9448
44.564690 103.190 -172.1554
44.887623 103.189 -172.3652
45.212898 103.188 -172.5734
45.540531 103.187 -172.7792
45.870537 103.185 -172.9821
46.202934 103.184 -173.1830
46.537739 103.183 -173.3835
46.874969 103.182 -173.5852
47.214645 103.180 -173.7885
47.556782 103.179 -173.9920
47.901398 103.176 -174.1936
48.248512 103.174 -174.3918
48.598141 103.171 -174.5872
48.950302 103.170 -174.7823
49.305016 103.168 -174.9798
49.662300 103.166 -175.1808
50.022175 103.163 -175.3833
50.384655 103.160 -175.5832
50.749763 103.156 -175.7769
51.117516 103.153 -175.9641
51.487934 103.150 -176.1483
51.861038 103.149 -176.3355
52.236843 103.149 -176.5307
52.615372 103.148 -176.7351
52.996643 103.147 -176.9456
53.380680 103.144 -177.1566
53.767498 103.139 -177.3634
54.157120 103.135 -177.5641
54.549564 103.130 -177.7598
54.944855 103.126 -177.9538
55.343006 103.122 -178.1489
55.744045 103.118 -178.3465
56.147991 103.114 -178.5458
56.554863 103.108 -178.7446
56.964684 103.103 -178.9415
57.377472 103.097 -179.1365
57.793251 103.091 -179.3313
58.212044 103.085 -179.5275
58.633873 103.078 -179.7253
59.058758 103.072 -179.9231
59.486721 103.064 179.8813
59.917786 103.057 179.6893
60.351974 103.051 179.4996
60.789310 103.044 179.3097
61.229816 103.039 179.1169
61.673512 103.033 178.9213
62.120422 103.026 178.7266
62.570572 103.019 178.5394
63.023983 103.012 178.3638
63.480682 103.007 178.1967
63.940689 103.003 178.0283
64.404030 103.001 177.8484
64.870728 102.998 177.6565
65.340805 102.992 177.4634
65.814293 102.984 177.2828
66.291214 102.976 177.1176
66.771591 102.971 176.9562
67.255447 102.968 176.7805
67.742805 102.963 176.5801
68.233696 102.956 176.3593
68.728142 102.944 176.1318
69.226173 102.928 175.9122
69.727814 102.910 175.7100
70.233093 102.890 175.5284
70.742035 102.872 175.3639
71.254662 102.856 175.2072
71.771004 102.843 175.0469
72.291084 102.831 174.8754
72.814934 102.818 174.6933
73.342583 102.804 174.5074
73.874054 102.789 174.3260
74.409378 102.773 174.1544
74.948578 102.756 173.9952
75.491684 102.739 173.8522
76.038727 102.722 173.7322
76.589737 102.706 173.6400
77.144737 102.693 173.5717
77.703758 102.686 173.5131
78.266830 102.683 173.4474
78.833984 102.683 173.3633
79.405251 102.685 173.2559
79.980652 102.688 173.1234
80.560226 102.690 172.9655
81.143997 102.691 172.7850
81.732002 102.690 172.5891
82.324265 102.686 172.3855
82.920822 102.682 172.1779
83.521698 102.677 171.9633
84.126930 102.671 171.7373
