* Measurement data measured by REW V5.30.5
* Source: Input device not selected, no input selected, L, volume: no control
* Format: 256k Log Swept Sine, 1 sweep at -16.0 dBFS with no timing reference
* Dated: Feb 9, 2024 12:15:26 AM
* REW Settings:
*  C-weighting compensation: Off
*  Target level: 75.0 dB
* Note: QKZ x HBB Hades L
* Measurement: L Feb 9
* Smoothing: 1/12 octave
* Frequency Step: 96 ppo
* Start Frequency: 0.36621094 Hz
*
* Freq(Hz) SPL(dB) Phase(degrees)
0.366211 69.574 74.6830
0.368865 69.598 74.5642
0.371538 69.634 74.3878
0.374230 69.679 74.1692
0.376942 69.729 73.9216
0.379673 69.783 73.6546
0.382424 69.838 73.3745
0.385196 69.896 73.0853
0.387987 69.954 72.7893
0.390798 70.013 72.4878
0.393630 70.072 72.1816
0.396483 70.132 71.8711
0.399356 70.193 71.5565
0.402250 70.254 71.2380
0.405165 70.315 70.9158
0.408101 70.377 70.5899
0.411058 70.439 70.2605
0.414037 70.502 69.9276
0.417037 70.565 69.5914
0.420059 70.629 69.2518
0.423103 70.693 68.9091
0.426169 70.758 68.5634
0.429257 70.823 68.2146
0.432367 70.888 67.8630
0.435501 70.954 67.5086
0.438656 71.021 67.1515
0.441835 71.088 66.7918
0.445037 71.155 66.4296
0.448262 71.223 66.0650
0.451510 71.292 65.6981
0.454782 71.360 65.3290
0.458077 71.430 64.9579
0.461397 71.500 64.5847
0.464740 71.570 64.2097
0.468108 71.641 63.8328
0.471500 71.713 63.4542
0.474917 71.785 63.0739
0.478358 71.857 62.6922
0.481825 71.930 62.3089
0.485316 72.004 61.9243
0.488833 72.078 61.5384
0.492375 72.153 61.1512
0.495943 72.228 60.7629
0.499537 72.303 60.3736
0.503157 72.380 59.9832
0.506803 72.457 59.5919
0.510475 72.534 59.1998
0.514174 72.612 58.8068
0.517900 72.690 58.4130
0.521653 72.769 58.0185
0.525433 72.849 57.6234
0.529241 72.929 57.2276
0.533076 73.010 56.8312
0.536939 73.092 56.4343
0.540830 73.174 56.0368
0.544749 73.256 55.6389
0.548696 73.339 55.2404
0.552673 73.423 54.8415
0.556677 73.507 54.4421
0.560711 73.593 54.0423
0.564774 73.678 53.6421
0.568867 73.764 53.2414
0.572989 73.851 52.8402
0.577141 73.939 52.4386
0.581324 74.027 52.0365
0.585536 74.116 51.6339
0.589779 74.205 51.2308
0.594053 74.295 50.8271
0.598358 74.386 50.4228
0.602694 74.477 50.0179
0.607061 74.569 49.6124
0.611460 74.662 49.2061
0.615891 74.755 48.7990
0.620354 74.849 48.3911
0.624849 74.944 47.9824
0.629377 75.040 47.5726
0.633938 75.136 47.1619
0.638532 75.233 46.7500
0.643159 75.330 46.3370
0.647819 75.428 45.9226
0.652514 75.527 45.5070
0.657242 75.627 45.0898
0.662005 75.727 44.6712
0.666802 75.828 44.2508
0.671634 75.930 43.8287
0.676501 76.033 43.4048
0.681403 76.136 42.9788
0.686341 76.240 42.5508
0.691314 76.345 42.1205
0.696324 76.450 41.6879
0.701369 76.556 41.2529
0.706452 76.663 40.8153
0.711571 76.770 40.3751
0.716727 76.877 39.9324
0.721921 76.983 39.4871
0.727153 77.088 39.0396
0.732422 77.192 38.5903
0.737729 77.295 38.1395
0.743075 77.396 37.6879
0.748460 77.495 37.2360
0.753883 77.594 36.7842
0.759346 77.693 36.3328
0.764849 77.792 35.8820
0.770391 77.890 35.4321
0.775974 77.989 34.9832
0.781597 78.087 34.5354
0.787261 78.186 34.0887
0.792965 78.285 33.6434
0.798712 78.384 33.1993
0.804499 78.484 32.7567
0.810329 78.583 32.3155
0.816201 78.683 31.8757
0.822116 78.782 31.4374
0.828073 78.882 31.0007
0.834073 78.982 30.5654
0.840118 79.083 30.1316
0.846205 79.183 29.6993
0.852337 79.284 29.2684
0.858514 79.385 28.8390
0.864735 79.486 28.4110
0.871001 79.587 27.9843
0.877313 79.688 27.5590
0.883670 79.790 27.1348
0.890074 79.891 26.7119
0.896523 79.993 26.2900
0.903020 80.095 25.8692
0.909564 80.198 25.4492
0.916155 80.300 25.0301
0.922793 80.403 24.6118
0.929480 80.506 24.1940
0.936216 80.609 23.7768
0.943000 80.712 23.3599
0.949833 80.815 22.9433
0.956716 80.919 22.5268
0.963649 81.023 22.1103
0.970632 81.127 21.6936
0.977666 81.232 21.2766
0.984750 81.336 20.8592
0.991886 81.441 20.4411
0.999074 81.546 20.0223
1.006313 81.652 19.6024
1.013605 81.757 19.1815
1.020950 81.863 18.7592
1.028349 81.970 18.3353
1.035801 82.076 17.9098
1.043306 82.183 17.4824
1.050867 82.290 17.0529
1.058482 82.398 16.6211
1.066152 82.505 16.1868
1.073878 82.614 15.7499
1.081659 82.722 15.3103
1.089498 82.831 14.8679
1.097393 82.939 14.4228
1.105345 83.049 13.9751
1.113355 83.158 13.5251
1.121422 83.267 13.0729
1.129549 83.376 12.6189
1.137734 83.485 12.1632
1.145978 83.594 11.7060
1.154283 83.704 11.2475
1.162647 83.813 10.7878
1.171072 83.922 10.3272
1.179558 84.031 9.8657
1.188106 84.140 9.4034
1.196715 84.249 8.9406
1.205387 84.358 8.4772
1.214122 84.467 8.0135
1.222920 84.575 7.5494
1.231781 84.684 7.0852
1.240708 84.793 6.6208
1.249698 84.902 6.1564
1.258754 85.011 5.6920
1.267875 85.120 5.2277
1.277063 85.229 4.7635
1.286317 85.338 4.2996
1.295638 85.447 3.8359
1.305027 85.556 3.3725
1.314484 85.665 2.9094
1.324009 85.774 2.4467
1.333603 85.883 1.9843
1.343267 85.992 1.5224
1.353001 86.102 1.0607
1.362805 86.211 0.5995
1.372681 86.321 0.1387
1.382628 86.430 -0.3218
1.392647 86.540 -0.7820
1.402739 86.650 -1.2418
1.412904 86.761 -1.7014
1.423142 86.871 -2.1608
1.433455 86.982 -2.6199
1.443842 87.093 -3.0788
1.454305 87.203 -3.5377
1.464843 87.314 -3.9964
1.475458 87.425 -4.4550
1.486150 87.536 -4.9134
1.496919 87.647 -5.3717
1.507766 87.758 -5.8299
1.518692 87.868 -6.2879
1.529697 87.979 -6.7458
1.540782 88.089 -7.2036
1.551947 88.199 -7.6613
1.563193 88.308 -8.1191
1.574521 88.418 -8.5769
1.585931 88.527 -9.0349
1.597423 88.637 -9.4931
1.608998 88.746 -9.9516
1.620658 88.854 -10.4105
1.632402 88.963 -10.8700
1.644231 89.072 -11.3302
1.656146 89.180 -11.7911
1.668147 89.288 -12.2529
1.680235 89.397 -12.7158
1.692410 89.505 -13.1799
1.704674 89.613 -13.6454
1.717027 89.721 -14.1124
1.729469 89.829 -14.5812
1.742002 89.936 -15.0518
1.754625 90.044 -15.5246
1.767340 90.152 -15.9997
1.780147 90.260 -16.4772
1.793046 90.367 -16.9576
1.806040 90.475 -17.4408
1.819127 90.583 -17.9273
1.832309 90.690 -18.4170
1.845587 90.798 -18.9102
1.858961 90.905 -19.4067
1.872431 91.012 -19.9066
1.886000 91.118 -20.4097
1.899666 91.224 -20.9156
1.913432 91.330 -21.4242
1.927298 91.435 -21.9351
1.941264 91.540 -22.4480
1.955331 91.645 -22.9628
1.969500 91.749 -23.4792
1.983772 91.853 -23.9968
1.998147 91.957 -24.5156
2.012626 92.060 -25.0352
2.027211 92.163 -25.5555
2.041901 92.266 -26.0764
2.056697 92.369 -26.5976
2.071601 92.471 -27.1191
2.086613 92.573 -27.6408
2.101733 92.674 -28.1626
2.116963 92.776 -28.6845
2.132303 92.877 -29.2066
2.147755 92.978 -29.7289
2.163318 93.079 -30.2517
2.178995 93.180 -30.7753
2.194785 93.280 -31.3002
2.210689 93.380 -31.8270
2.226709 93.479 -32.3562
2.242844 93.578 -32.8879
2.259097 93.677 -33.4224
2.275467 93.775 -33.9595
2.291956 93.872 -34.4990
2.308565 93.969 -35.0405
2.325294 94.065 -35.5838
2.342144 94.161 -36.1284
2.359116 94.257 -36.6741
2.376211 94.351 -37.2204
2.393430 94.446 -37.7670
2.410774 94.540 -38.3136
2.428243 94.633 -38.8598
2.445839 94.726 -39.4055
2.463562 94.819 -39.9503
2.481415 94.911 -40.4942
2.499396 95.003 -41.0371
2.517508 95.094 -41.5791
2.535750 95.185 -42.1204
2.554126 95.276 -42.6615
2.572634 95.366 -43.2032
2.591276 95.456 -43.7460
2.610054 95.544 -44.2906
2.628967 95.633 -44.8371
2.648018 95.720 -45.3856
2.667206 95.807 -45.9360
2.686534 95.893 -46.4878
2.706002 95.979 -47.0408
2.725610 96.064 -47.5943
2.745361 96.148 -48.1480
2.765255 96.232 -48.7014
2.785294 96.315 -49.2539
2.805477 96.397 -49.8052
2.825807 96.479 -50.3549
2.846284 96.561 -50.9026
2.866909 96.642 -51.4483
2.887684 96.723 -51.9918
2.908609 96.803 -52.5336
2.929686 96.882 -53.0742
2.950916 96.961 -53.6142
2.972299 97.039 -54.1543
2.993838 97.117 -54.6950
3.015532 97.193 -55.2365
3.037384 97.269 -55.7786
3.059394 97.345 -56.3210
3.081564 97.419 -56.8633
3.103894 97.493 -57.4050
3.126386 97.566 -57.9455
3.149041 97.639 -58.4843
3.171861 97.711 -59.0207
3.194845 97.783 -59.5544
3.217996 97.854 -60.0848
3.241315 97.925 -60.6117
3.264803 97.995 -61.1351
3.288461 98.065 -61.6552
3.312291 98.134 -62.1725
3.336293 98.202 -62.6876
3.360469 98.270 -63.2009
3.384820 98.338 -63.7127
3.409348 98.404 -64.2232
3.434054 98.470 -64.7321
3.458938 98.536 -65.2393
3.484003 98.600 -65.7443
3.509250 98.665 -66.2469
3.534679 98.729 -66.7467
3.560293 98.792 -67.2432
3.586092 98.856 -67.7362
3.612079 98.919 -68.2254
3.638253 98.981 -68.7108
3.664618 99.043 -69.1926
3.691173 99.105 -69.6709
3.717921 99.167 -70.1461
3.744862 99.228 -70.6185
3.771999 99.289 -71.0883
3.799332 99.349 -71.5555
3.826864 99.409 -72.0200
3.854595 99.468 -72.4819
3.882527 99.528 -72.9409
3.910661 99.587 -73.3969
3.938999 99.646 -73.8497
3.967543 99.704 -74.2992
3.996294 99.763 -74.7453
4.025252 99.822 -75.1879
4.054421 99.880 -75.6270
4.083801 99.939 -76.0630
4.113394 99.997 -76.4958
4.143201 100.055 -76.9257
4.173225 100.113 -77.3530
4.203466 100.171 -77.7777
4.233926 100.229 -78.2002
4.264606 100.287 -78.6206
4.295509 100.344 -79.0390
4.326636 100.402 -79.4556
4.357989 100.460 -79.8704
4.389569 100.518 -80.2833
4.421378 100.575 -80.6946
4.453417 100.633 -81.1041
4.485688 100.691 -81.5119
4.518193 100.749 -81.9182
4.550934 100.807 -82.3232
4.583912 100.865 -82.7270
4.617129 100.923 -83.1301
4.650587 100.981 -83.5325
4.684287 101.038 -83.9346
4.718231 101.096 -84.3365
4.752421 101.154 -84.7383
4.786859 101.212 -85.1402
4.821547 101.270 -85.5421
4.856485 101.327 -85.9440
4.891677 101.385 -86.3460
4.927125 101.442 -86.7482
4.962829 101.500 -87.1507
4.998791 101.557 -87.5535
5.035015 101.614 -87.9569
5.071500 101.671 -88.3609
5.108251 101.727 -88.7658
5.145267 101.784 -89.1717
5.182552 101.840 -89.5786
5.220107 101.895 -89.9865
5.257934 101.951 -90.3954
5.296035 102.006 -90.8051
5.334412 102.061 -91.2154
5.373067 102.115 -91.6263
5.412003 102.169 -92.0375
5.451221 102.222 -92.4493
5.490722 102.275 -92.8614
5.530510 102.327 -93.2742
5.570587 102.379 -93.6875
5.610953 102.430 -94.1013
5.651613 102.481 -94.5154
5.692567 102.531 -94.9294
5.733818 102.580 -95.3430
5.775367 102.629 -95.7558
5.817218 102.677 -96.1677
5.859372 102.725 -96.5784
5.901831 102.771 -96.9881
5.944598 102.817 -97.3968
5.987675 102.863 -97.8042
6.031065 102.908 -98.2103
6.074768 102.952 -98.6145
6.118788 102.995 -99.0165
6.163127 103.038 -99.4159
6.207788 103.080 -99.8126
6.252772 103.122 -100.2062
6.298082 103.163 -100.5970
6.343721 103.204 -100.9847
6.389690 103.244 -101.3693
6.435992 103.283 -101.7506
6.482630 103.322 -102.1283
6.529606 103.361 -102.5021
6.576922 103.399 -102.8719
6.624581 103.437 -103.2375
6.672585 103.475 -103.5990
6.720938 103.513 -103.9564
6.769640 103.550 -104.3098
6.818696 103.587 -104.6592
6.868107 103.624 -105.0047
6.917876 103.661 -105.3463
6.968006 103.698 -105.6839
7.018499 103.735 -106.0178
7.069358 103.773 -106.3479
7.120586 103.810 -106.6747
7.172184 103.848 -106.9985
7.224157 103.886 -107.3196
7.276506 103.924 -107.6384
7.329235 103.963 -107.9551
7.382345 104.002 -108.2700
7.435841 104.041 -108.5834
7.489724 104.081 -108.8956
7.543997 104.121 -109.2074
7.598664 104.162 -109.5192
7.653728 104.203 -109.8317
7.709189 104.244 -110.1453
7.765053 104.286 -110.4602
7.821322 104.329 -110.7769
7.877998 104.372 -111.0959
7.935086 104.415 -111.4176
7.992587 104.458 -111.7427
8.050504 104.502 -112.0716
8.108841 104.545 -112.4047
8.167601 104.589 -112.7421
8.226787 104.633 -113.0842
8.286402 104.677 -113.4310
8.346449 104.721 -113.7828
8.406931 104.764 -114.1398
8.467851 104.807 -114.5021
8.529212 104.850 -114.8696
8.591018 104.892 -115.2421
8.653272 104.934 -115.6194
8.715977 104.975 -116.0010
8.779137 105.014 -116.3867
8.842754 105.053 -116.7761
8.906833 105.092 -117.1689
8.971375 105.129 -117.5642
9.036386 105.164 -117.9614
9.101867 105.199 -118.3597
9.167823 105.233 -118.7581
9.234257 105.265 -119.1562
9.301172 105.296 -119.5532
9.368572 105.326 -119.9481
9.436460 105.355 -120.3400
9.504841 105.383 -120.7279
9.573717 105.410 -121.1112
9.643092 105.436 -121.4892
9.712970 105.461 -121.8613
9.783354 105.486 -122.2269
9.854248 105.510 -122.5856
9.925656 105.534 -122.9368
9.997581 105.557 -123.2806
10.070028 105.581 -123.6169
10.143000 105.605 -123.9459
10.216500 105.629 -124.2681
10.290533 105.653 -124.5837
10.365103 105.678 -124.8934
10.440212 105.704 -125.1980
10.515866 105.731 -125.4984
10.592069 105.758 -125.7958
10.668823 105.787 -126.0912
10.746134 105.816 -126.3856
10.824005 105.847 -126.6801
10.902440 105.878 -126.9758
10.981443 105.910 -127.2740
11.061020 105.943 -127.5753
11.141172 105.976 -127.8806
11.221906 106.009 -128.1903
11.303225 106.043 -128.5047
11.385133 106.076 -128.8242
11.467634 106.110 -129.1485
11.550734 106.142 -129.4772
11.634435 106.175 -129.8098
11.718742 106.206 -130.1455
11.803661 106.237 -130.4833
11.889195 106.266 -130.8222
11.975349 106.295 -131.1609
12.062128 106.322 -131.4982
12.149535 106.349 -131.8327
12.237576 106.374 -132.1635
12.326254 106.399 -132.4896
12.415575 106.423 -132.8099
12.505544 106.446 -133.1238
12.596164 106.470 -133.4310
12.687441 106.493 -133.7315
12.779379 106.516 -134.0255
12.871984 106.539 -134.3134
12.965260 106.563 -134.5960
13.059211 106.587 -134.8743
13.153843 106.611 -135.1495
13.249161 106.637 -135.4230
13.345170 106.662 -135.6959
13.441875 106.689 -135.9694
13.539280 106.715 -136.2448
13.637391 106.742 -136.5229
13.736214 106.769 -136.8042
13.835752 106.795 -137.0890
13.936011 106.821 -137.3772
14.036998 106.847 -137.6685
14.138716 106.871 -137.9620
14.241171 106.894 -138.2566
14.344368 106.916 -138.5513
14.448313 106.937 -138.8447
14.553011 106.957 -139.1354
14.658468 106.976 -139.4223
14.764689 106.994 -139.7045
14.871680 107.011 -139.9812
14.979446 107.028 -140.2523
15.087994 107.045 -140.5180
15.197328 107.062 -140.7789
15.307454 107.079 -141.0362
15.418378 107.096 -141.2913
15.530106 107.114 -141.5460
15.642643 107.133 -141.8020
15.755996 107.151 -142.0611
15.870171 107.170 -142.3248
15.985172 107.188 -142.5941
16.101007 107.207 -142.8698
16.217682 107.224 -143.1516
16.335201 107.240 -143.4389
16.453573 107.254 -143.7301
16.572803 107.267 -144.0231
16.692898 107.278 -144.3154
16.813862 107.288 -144.6042
16.935701 107.295 -144.8865
17.058424 107.302 -145.1597
17.182035 107.307 -145.4215
17.306543 107.312 -145.6705
17.431953 107.318 -145.9059
17.558273 107.324 -146.1285
17.685509 107.332 -146.3396
17.813665 107.342 -146.5420
17.942751 107.355 -146.7393
18.072771 107.370 -146.9359
18.203733 107.389 -147.1364
18.335646 107.411 -147.3456
18.468513 107.435 -147.5679
18.602345 107.462 -147.8068
18.737144 107.490 -148.0653
18.872921 107.518 -148.3449
19.009682 107.547 -148.6458
19.147434 107.576 -148.9674
19.286184 107.603 -149.3076
19.425940 107.628 -149.6637
19.566708 107.651 -150.0320
19.708496 107.672 -150.4088
19.851313 107.691 -150.7898
19.995163 107.707 -151.1712
20.140057 107.721 -151.5493
20.285999 107.733 -151.9208
20.433001 107.744 -152.2828
20.581066 107.753 -152.6333
20.730206 107.762 -152.9707
20.880424 107.771 -153.2940
21.031733 107.780 -153.6028
21.184137 107.789 -153.8976
21.337646 107.800 -154.1792
21.492268 107.813 -154.4494
21.648010 107.827 -154.7102
21.804880 107.844 -154.9645
21.962887 107.862 -155.2155
22.122040 107.883 -155.4666
22.282345 107.906 -155.7211
22.443811 107.930 -155.9821
22.606449 107.956 -156.2520
22.770266 107.982 -156.5321
22.935268 108.007 -156.8226
23.101467 108.032 -157.1223
23.268869 108.055 -157.4289
23.437485 108.076 -157.7387
23.607323 108.094 -158.0474
23.778391 108.111 -158.3503
23.950699 108.125 -158.6430
24.124256 108.137 -158.9217
24.299070 108.149 -159.1840
24.475151 108.160 -159.4292
24.652508 108.172 -159.6582
24.831150 108.185 -159.8740
25.011087 108.199 -160.0809
25.192327 108.216 -160.2842
25.374882 108.234 -160.4896
25.558758 108.254 -160.7020
25.743967 108.275 -160.9255
25.930519 108.295 -161.1619
26.118422 108.315 -161.4115
26.307686 108.333 -161.6721
26.498322 108.349 -161.9404
26.690340 108.362 -162.2118
26.883749 108.373 -162.4819
27.078560 108.383 -162.7473
27.274782 108.391 -163.0062
27.472427 108.399 -163.2590
27.671503 108.407 -163.5081
27.872023 108.415 -163.7574
28.073996 108.424 -164.0115
28.277431 108.433 -164.2740
28.482342 108.441 -164.5471
28.688736 108.448 -164.8299
28.896626 108.452 -165.1191
29.106022 108.454 -165.4088
29.316936 108.453 -165.6926
29.529379 108.450 -165.9644
29.743361 108.446 -166.2206
29.958893 108.443 -166.4607
30.175987 108.441 -166.6878
30.394655 108.441 -166.9080
30.614908 108.444 -167.1284
30.836756 108.449 -167.3555
31.060211 108.455 -167.5934
31.285286 108.461 -167.8429
31.511992 108.466 -168.1015
31.740341 108.471 -168.3651
31.970345 108.475 -168.6289
32.202015 108.478 -168.8901
32.435364 108.482 -169.1478
32.670403 108.486 -169.4036
32.907146 108.492 -169.6605
33.145607 108.498 -169.9209
33.385796 108.505 -170.1858
33.627724 108.511 -170.4543
33.871403 108.518 -170.7244
34.116848 108.525 -170.9948
34.364071 108.532 -171.2659
34.613087 108.541 -171.5407
34.863907 108.550 -171.8235
35.116547 108.560 -172.1182
35.371017 108.568 -172.4250
35.627331 108.575 -172.7395
35.885502 108.578 -173.0526
36.145542 108.578 -173.3530
36.407467 108.576 -173.6319
36.671291 108.575 -173.8862
36.937027 108.576 -174.1208
37.204689 108.581 -174.3470
37.474289 108.589 -174.5781
37.745842 108.598 -174.8240
38.019363 108.606 -175.0863
38.294868 108.611 -175.3575
38.572369 108.612 -175.6240
38.851879 108.610 -175.8713
39.133415 108.607 -176.0900
39.416992 108.605 -176.2796
39.702625 108.607 -176.4493
39.990326 108.613 -176.6138
40.280113 108.623 -176.7896
40.571999 108.636 -176.9897
40.866001 108.649 -177.2211
41.162132 108.661 -177.4845
41.460411 108.670 -177.7751
41.760849 108.674 -178.0831
42.063465 108.673 -178.3954
42.368275 108.668 -178.6979
42.675293 108.660 -178.9799
42.984535 108.652 -179.2391
43.296021 108.647 -179.4851
43.609760 108.648 -179.7385
43.925774 108.652 179.9761
44.244080 108.658 179.6417
44.564690 108.659 179.2587
44.887623 108.652 178.8481
45.212898 108.635 178.4451
45.540531 108.611 178.0840
45.870537 108.585 177.7840
46.202934 108.564 177.5399
46.537739 108.550 177.3250
46.874969 108.545 177.1053
47.214645 108.545 176.8553
47.556782 108.546 176.5694
47.901398 108.544 176.2589
48.248512 108.539 175.9413
48.598141 108.532 175.6288
48.950302 108.523 175.3222
49.305016 108.514 175.0148
49.662300 108.503 174.7026
50.022175 108.488 174.3912
50.384655 108.469 174.0963
50.749763 108.446 173.8360
51.117516 108.424 173.6192
51.487934 108.406 173.4391
51.861038 108.394 173.2744
52.236843 108.390 173.0985
52.615372 108.390 172.8913
52.996643 108.392 172.6461
53.380680 108.392 172.3699
53.767498 108.390 172.0767
54.157120 108.385 171.7798
54.549564 108.379 171.4875
54.944855 108.373 171.2021
55.343006 108.365 170.9235
55.744045 108.358 170.6521
56.147991 108.350 170.3900
56.554863 108.341 170.1394
56.964684 108.333 169.9013
57.377472 108.324 169.6740
57.793251 108.317 169.4535
58.212044 108.310 169.2351
58.633873 108.304 169.0133
59.058758 108.298 168.7822
59.486721 108.292 168.5358
59.917786 108.285 168.2691
60.351974 108.277 167.9797
60.789310 108.266 167.6693
61.229816 108.252 167.3436
61.673512 108.235 167.0097
62.120422 108.216 166.6735
62.570572 108.196 166.3381
63.023983 108.176 166.0053
63.480682 108.154 165.6794
63.940689 108.132 165.3703
64.404030 108.110 165.0914
64.870728 108.090 164.8530
65.340805 108.073 164.6554
65.814293 108.062 164.4901
66.291214 108.056 164.3467
66.771591 108.055 164.2188
67.255447 108.060 164.0984
67.742805 108.070 163.9658
68.233696 108.085 163.7885
68.728142 108.098 163.5391
69.226173 108.102 163.2178
69.727814 108.091 162.8577
70.233093 108.064 162.5065
70.742035 108.027 162.1979
71.254662 107.985 161.9379
71.771004 107.943 161.7126
72.291084 107.903 161.5036
72.814934 107.866 161.2971
73.342583 107.832 161.0830
73.874054 107.803 160.8531
74.409378 107.776 160.6026
74.948578 107.751 160.3329
75.491684 107.727 160.0516
76.038727 107.703 159.7703
76.589737 107.680 159.5005
77.144737 107.659 159.2478
77.703758 107.640 159.0085
78.266830 107.624 158.7733
78.833984 107.610 158.5327
79.405251 107.597 158.2820
79.980652 107.583 158.0182
80.560226 107.567 157.7394
81.143997 107.548 157.4468
81.732002 107.526 157.1468
82.324265 107.500 156.8477
