* Measurement data measured by REW V5.30.4
* Source: EXCL: Microphone (Realtek(R) Audio), MICROPHONE (Master Volume), L, volume: 1.000
* Format: 256k Log Swept Sine, 1 sweep at -15.0 dBFS with no timing reference
* Dated: Jan 14, 2024 12:45:35 AM
* REW Settings:
*  C-weighting compensation: Off
*  Target level: 75.0 dB
* Note: ROSE TECHNICS Ceramics Pop R
* Measurement: ROSE TECHNICS Ceramics P
* Smoothing: 1/12 octave
* Frequency Step: 96 ppo
* Start Frequency: 0.36621094 Hz
*
* Freq(Hz) SPL(dB) Phase(degrees)
0.366211 73.342 -168.4958
0.368865 73.370 -168.5785
0.371538 73.411 -168.7010
0.374230 73.462 -168.8519
0.376942 73.519 -169.0220
0.379673 73.580 -169.2041
0.382424 73.644 -169.3939
0.385196 73.710 -169.5884
0.387987 73.776 -169.7860
0.390798 73.843 -169.9858
0.393630 73.911 -170.1872
0.396483 73.980 -170.3900
0.399356 74.049 -170.5941
0.402250 74.119 -170.7992
0.405165 74.189 -171.0054
0.408101 74.259 -171.2125
0.411058 74.330 -171.4205
0.414037 74.402 -171.6294
0.417037 74.474 -171.8392
0.420059 74.547 -172.0497
0.423103 74.620 -172.2610
0.426169 74.694 -172.4731
0.429257 74.768 -172.6859
0.432367 74.843 -172.8993
0.435501 74.918 -173.1133
0.438656 74.994 -173.3280
0.441835 75.071 -173.5432
0.445037 75.148 -173.7590
0.448262 75.225 -173.9753
0.451510 75.303 -174.1921
0.454782 75.382 -174.4095
0.458077 75.461 -174.6273
0.461397 75.541 -174.8455
0.464740 75.622 -175.0642
0.468108 75.703 -175.2834
0.471500 75.784 -175.5029
0.474917 75.866 -175.7229
0.478358 75.949 -175.9433
0.481825 76.033 -176.1641
0.485316 76.117 -176.3854
0.488833 76.201 -176.6070
0.492375 76.286 -176.8291
0.495943 76.372 -177.0516
0.499537 76.459 -177.2745
0.503157 76.546 -177.4979
0.506803 76.634 -177.7217
0.510475 76.722 -177.9460
0.514174 76.811 -178.1708
0.517900 76.901 -178.3962
0.521653 76.991 -178.6221
0.525433 77.082 -178.8486
0.529241 77.173 -179.0756
0.533076 77.266 -179.3033
0.536939 77.359 -179.5317
0.540830 77.452 -179.7608
0.544749 77.547 -179.9906
0.548696 77.642 179.7788
0.552673 77.737 179.5474
0.556677 77.834 179.3151
0.560711 77.931 179.0819
0.564774 78.028 178.8477
0.568867 78.127 178.6125
0.572989 78.226 178.3762
0.577141 78.326 178.1388
0.581324 78.427 177.9001
0.585536 78.528 177.6603
0.589779 78.630 177.4190
0.594053 78.733 177.1764
0.598358 78.837 176.9323
0.602694 78.941 176.6866
0.607061 79.046 176.4394
0.611460 79.152 176.1904
0.615891 79.258 175.9397
0.620354 79.366 175.6871
0.624849 79.474 175.4325
0.629377 79.583 175.1759
0.633938 79.693 174.9172
0.638532 79.803 174.6562
0.643159 79.915 174.3929
0.647819 80.027 174.1272
0.652514 80.140 173.8590
0.657242 80.254 173.5881
0.662005 80.368 173.3145
0.666802 80.484 173.0380
0.671634 80.600 172.7585
0.676501 80.717 172.4759
0.681403 80.835 172.1901
0.686341 80.954 171.9010
0.691314 81.073 171.6084
0.696324 81.194 171.3122
0.701369 81.315 171.0123
0.706452 81.436 170.7086
0.711571 81.557 170.4011
0.716727 81.678 170.0896
0.721921 81.798 169.7744
0.727153 81.915 169.4555
0.732422 82.030 169.1333
0.737729 82.142 168.8082
0.743075 82.251 168.4807
0.748460 82.357 168.1512
0.753883 82.461 167.8202
0.759346 82.565 167.4878
0.764849 82.668 167.1544
0.770391 82.770 166.8201
0.775974 82.872 166.4851
0.781597 82.973 166.1495
0.787261 83.074 165.8134
0.792965 83.175 165.4770
0.798712 83.276 165.1403
0.804499 83.376 164.8035
0.810329 83.476 164.4666
0.816201 83.576 164.1296
0.822116 83.676 163.7926
0.828073 83.776 163.4558
0.834073 83.875 163.1191
0.840118 83.974 162.7825
0.846205 84.073 162.4462
0.852337 84.171 162.1102
0.858514 84.270 161.7744
0.864735 84.368 161.4388
0.871001 84.466 161.1035
0.877313 84.564 160.7685
0.883670 84.661 160.4338
0.890074 84.758 160.0992
0.896523 84.856 159.7650
0.903020 84.953 159.4308
0.909564 85.049 159.0968
0.916155 85.146 158.7629
0.922793 85.243 158.4291
0.929480 85.339 158.0953
0.936216 85.435 157.7613
0.943000 85.532 157.4272
0.949833 85.628 157.0929
0.956716 85.724 156.7583
0.963649 85.820 156.4232
0.970632 85.916 156.0877
0.977666 86.012 155.7515
0.984750 86.108 155.4146
0.991886 86.203 155.0768
0.999074 86.299 154.7381
1.006313 86.395 154.3983
1.013605 86.491 154.0573
1.020950 86.588 153.7148
1.028349 86.684 153.3708
1.035801 86.780 153.0250
1.043306 86.877 152.6774
1.050867 86.974 152.3276
1.058482 87.071 151.9756
1.066152 87.168 151.6211
1.073878 87.265 151.2637
1.081659 87.363 150.9033
1.089498 87.461 150.5395
1.097393 87.559 150.1718
1.105345 87.656 149.8000
1.113355 87.754 149.4239
1.121422 87.851 149.0432
1.129549 87.948 148.6581
1.137734 88.045 148.2685
1.145978 88.141 147.8747
1.154283 88.236 147.4770
1.162647 88.331 147.0756
1.171072 88.426 146.6707
1.179558 88.520 146.2628
1.188106 88.614 145.8520
1.196715 88.707 145.4387
1.205387 88.800 145.0231
1.214122 88.892 144.6055
1.222920 88.984 144.1863
1.231781 89.075 143.7656
1.240708 89.166 143.3437
1.249698 89.256 142.9210
1.258754 89.346 142.4975
1.267875 89.436 142.0737
1.277063 89.526 141.6496
1.286317 89.614 141.2256
1.295638 89.703 140.8020
1.305027 89.791 140.3788
1.314484 89.879 139.9564
1.324009 89.967 139.5348
1.333603 90.054 139.1144
1.343267 90.141 138.6954
1.353001 90.228 138.2778
1.362805 90.315 137.8619
1.372681 90.401 137.4479
1.382628 90.487 137.0359
1.392647 90.573 136.6260
1.402739 90.659 136.2184
1.412904 90.745 135.8131
1.423142 90.831 135.4101
1.433455 90.917 135.0092
1.443842 91.002 134.6102
1.454305 91.088 134.2125
1.464843 91.173 133.8155
1.475458 91.258 133.4183
1.486150 91.342 133.0201
1.496919 91.425 132.6202
1.507766 91.509 132.2184
1.518692 91.591 131.8145
1.529697 91.673 131.4083
1.540782 91.754 131.0002
1.551947 91.834 130.5902
1.563193 91.913 130.1785
1.574521 91.992 129.7654
1.585931 92.071 129.3512
1.597423 92.148 128.9361
1.608998 92.225 128.5203
1.620658 92.301 128.1041
1.632402 92.377 127.6877
1.644231 92.452 127.2715
1.656146 92.527 126.8557
1.668147 92.601 126.4404
1.680235 92.674 126.0260
1.692410 92.747 125.6127
1.704674 92.820 125.2008
1.717027 92.892 124.7905
1.729469 92.964 124.3820
1.742002 93.035 123.9755
1.754625 93.106 123.5712
1.767340 93.176 123.1693
1.780147 93.247 122.7698
1.793046 93.316 122.3725
1.806040 93.386 121.9772
1.819127 93.455 121.5834
1.832309 93.524 121.1902
1.845587 93.592 120.7968
1.858961 93.659 120.4021
1.872431 93.726 120.0056
1.886000 93.792 119.6070
1.899666 93.856 119.2062
1.913432 93.920 118.8033
1.927298 93.983 118.3987
1.941264 94.046 117.9927
1.955331 94.107 117.5859
1.969500 94.168 117.1786
1.983772 94.227 116.7714
1.998147 94.287 116.3648
2.012626 94.345 115.9594
2.027211 94.403 115.5556
2.041901 94.460 115.1542
2.056697 94.517 114.7557
2.071601 94.573 114.3607
2.086613 94.629 113.9697
2.101733 94.684 113.5833
2.116963 94.739 113.2021
2.132303 94.794 112.8265
2.147755 94.848 112.4569
2.163318 94.902 112.0934
2.178995 94.955 111.7357
2.194785 95.009 111.3836
2.210689 95.061 111.0360
2.226709 95.113 110.6923
2.242844 95.164 110.3516
2.259097 95.214 110.0135
2.275467 95.264 109.6777
2.291956 95.313 109.3443
2.308565 95.360 109.0132
2.325294 95.408 108.6847
2.342144 95.454 108.3591
2.359116 95.500 108.0368
2.376211 95.545 107.7182
2.393430 95.590 107.4036
2.410774 95.635 107.0934
2.428243 95.679 106.7882
2.445839 95.723 106.4885
2.463562 95.767 106.1946
2.481415 95.811 105.9072
2.499396 95.855 105.6266
2.517508 95.899 105.3533
2.535750 95.944 105.0875
2.554126 95.988 104.8294
2.572634 96.032 104.5790
2.591276 96.077 104.3362
2.610054 96.120 104.1005
2.628967 96.164 103.8719
2.648018 96.207 103.6498
2.667206 96.250 103.4341
2.686534 96.293 103.2244
2.706002 96.336 103.0205
2.725610 96.379 102.8223
2.745361 96.421 102.6293
2.765255 96.464 102.4415
2.785294 96.507 102.2587
2.805477 96.551 102.0806
2.825807 96.595 101.9072
2.846284 96.639 101.7383
2.866909 96.685 101.5741
2.887684 96.731 101.4146
2.908609 96.778 101.2600
2.929686 96.826 101.1108
2.950916 96.874 100.9676
2.972299 96.923 100.8305
2.993838 96.973 100.6997
3.015532 97.024 100.5751
3.037384 97.075 100.4562
3.059394 97.126 100.3424
3.081564 97.179 100.2331
3.103894 97.232 100.1273
3.126386 97.286 100.0244
3.149041 97.340 99.9235
3.171861 97.396 99.8236
3.194845 97.452 99.7242
3.217996 97.510 99.6245
3.241315 97.568 99.5242
3.264803 97.627 99.4231
3.288461 97.687 99.3215
3.312291 97.749 99.2199
3.336293 97.812 99.1187
3.360469 97.875 99.0184
3.384820 97.940 98.9190
3.409348 98.006 98.8202
3.434054 98.073 98.7213
3.458938 98.141 98.6215
3.484003 98.210 98.5199
3.509250 98.279 98.4156
3.534679 98.349 98.3076
3.560293 98.420 98.1950
3.586092 98.491 98.0769
3.612079 98.563 97.9527
3.638253 98.635 97.8222
3.664618 98.707 97.6852
3.691173 98.781 97.5421
3.717921 98.854 97.3933
3.744862 98.929 97.2390
3.771999 99.003 97.0795
3.799332 99.079 96.9149
3.826864 99.154 96.7452
3.854595 99.230 96.5703
3.882527 99.306 96.3900
3.910661 99.382 96.2042
3.938999 99.458 96.0125
3.967543 99.533 95.8148
3.996294 99.608 95.6106
4.025252 99.683 95.3999
4.054421 99.757 95.1825
4.083801 99.831 94.9583
4.113394 99.905 94.7278
4.143201 99.978 94.4911
4.173225 100.050 94.2489
4.203466 100.122 94.0017
4.233926 100.194 93.7503
4.264606 100.265 93.4952
4.295509 100.335 93.2369
4.326636 100.404 92.9756
4.357989 100.473 92.7116
4.389569 100.540 92.4447
4.421378 100.607 92.1747
4.453417 100.673 91.9012
4.485688 100.737 91.6245
4.518193 100.801 91.3449
4.550934 100.863 91.0630
4.583912 100.925 90.7797
4.617129 100.986 90.4960
4.650587 101.046 90.2127
4.684287 101.105 89.9306
4.718231 101.163 89.6502
4.752421 101.221 89.3719
4.786859 101.277 89.0954
4.821547 101.332 88.8206
4.856485 101.387 88.5474
4.891677 101.441 88.2759
4.927125 101.493 88.0064
4.962829 101.545 87.7395
4.998791 101.597 87.4756
5.035015 101.648 87.2154
5.071500 101.698 86.9594
5.108251 101.748 86.7079
5.145267 101.798 86.4612
5.182552 101.848 86.2192
5.220107 101.897 85.9816
5.257934 101.945 85.7483
5.296035 101.994 85.5190
5.334412 102.042 85.2935
5.373067 102.090 85.0717
5.412003 102.138 84.8535
5.451221 102.187 84.6389
5.490722 102.235 84.4281
5.530510 102.284 84.2208
5.570587 102.334 84.0171
5.610953 102.383 83.8167
5.651613 102.433 83.6190
5.692567 102.483 83.4234
5.733818 102.533 83.2293
5.775367 102.583 83.0360
5.817218 102.634 82.8432
5.859372 102.686 82.6504
5.901831 102.738 82.4576
5.944598 102.790 82.2647
5.987675 102.843 82.0714
6.031065 102.896 81.8773
6.074768 102.949 81.6818
6.118788 103.003 81.4845
6.163127 103.057 81.2847
6.207788 103.111 81.0821
6.252772 103.165 80.8764
6.298082 103.219 80.6675
6.343721 103.273 80.4556
6.389690 103.327 80.2406
6.435992 103.381 80.0226
6.482630 103.435 79.8015
6.529606 103.488 79.5775
6.576922 103.541 79.3503
6.624581 103.593 79.1201
6.672585 103.646 78.8869
6.720938 103.697 78.6509
6.769640 103.748 78.4125
6.818696 103.799 78.1724
6.868107 103.849 77.9308
6.917876 103.898 77.6883
6.968006 103.946 77.4451
7.018499 103.994 77.2013
7.069358 104.041 76.9573
7.120586 104.087 76.7134
7.172184 104.133 76.4702
7.224157 104.178 76.2280
7.276506 104.222 75.9875
7.329235 104.266 75.7491
7.382345 104.309 75.5129
7.435841 104.352 75.2791
7.489724 104.395 75.0477
7.543997 104.436 74.8189
7.598664 104.478 74.5928
7.653728 104.519 74.3697
7.709189 104.560 74.1496
7.765053 104.602 73.9324
7.821322 104.642 73.7180
7.877998 104.683 73.5061
7.935086 104.724 73.2965
7.992587 104.765 73.0888
8.050504 104.806 72.8828
8.108841 104.848 72.6783
8.167601 104.889 72.4748
8.226787 104.931 72.2720
8.286402 104.972 72.0696
8.346449 105.014 71.8669
8.406931 105.056 71.6636
8.467851 105.098 71.4593
8.529212 105.141 71.2538
8.591018 105.183 71.0468
8.653272 105.225 70.8381
8.715977 105.267 70.6275
8.779137 105.309 70.4146
8.842754 105.351 70.1994
8.906833 105.392 69.9819
8.971375 105.434 69.7623
9.036386 105.474 69.5405
9.101867 105.515 69.3168
9.167823 105.554 69.0914
9.234257 105.594 68.8644
9.301172 105.632 68.6361
9.368572 105.670 68.4070
9.436460 105.707 68.1773
9.504841 105.744 67.9477
9.573717 105.780 67.7184
9.643092 105.815 67.4897
9.712970 105.849 67.2621
9.783354 105.883 67.0359
9.854248 105.916 66.8116
9.925656 105.949 66.5895
9.997581 105.980 66.3700
10.070028 106.012 66.1531
10.143000 106.042 65.9392
10.216500 106.073 65.7284
10.290533 106.102 65.5209
10.365103 106.132 65.3168
10.440212 106.161 65.1161
10.515866 106.190 64.9189
10.592069 106.218 64.7250
10.668823 106.247 64.5345
10.746134 106.275 64.3472
10.824005 106.303 64.1631
10.902440 106.331 63.9821
10.981443 106.359 63.8040
11.061020 106.386 63.6288
11.141172 106.414 63.4563
11.221906 106.441 63.2863
11.303225 106.469 63.1188
11.385133 106.496 62.9537
11.467634 106.524 62.7909
11.550734 106.551 62.6302
11.634435 106.578 62.4717
11.718742 106.605 62.3152
11.803661 106.633 62.1608
11.889195 106.660 62.0082
11.975349 106.687 61.8575
12.062128 106.714 61.7085
12.149535 106.741 61.5613
12.237576 106.768 61.4157
12.326254 106.795 61.2717
12.415575 106.822 61.1291
12.505544 106.849 60.9879
12.596164 106.876 60.8479
12.687441 106.903 60.7091
12.779379 106.930 60.5712
12.871984 106.956 60.4342
12.965260 106.983 60.2979
13.059211 107.010 60.1623
13.153843 107.036 60.0271
13.249161 107.063 59.8922
13.345170 107.089 59.7577
13.441875 107.115 59.6234
13.539280 107.141 59.4894
13.637391 107.166 59.3557
13.736214 107.191 59.2224
13.835752 107.216 59.0898
13.936011 107.240 58.9582
14.036998 107.264 58.8278
14.138716 107.287 58.6991
14.241171 107.310 58.5726
14.344368 107.332 58.4489
14.448313 107.354 58.3287
14.553011 107.375 58.2124
14.658468 107.395 58.1008
14.764689 107.415 57.9944
14.871680 107.435 57.8937
14.979446 107.455 57.7990
15.087994 107.474 57.7105
15.197328 107.494 57.6284
15.307454 107.514 57.5522
15.418378 107.534 57.4815
15.530106 107.555 57.4159
15.642643 107.577 57.3542
15.755996 107.599 57.2955
15.870171 107.623 57.2386
15.985172 107.647 57.1824
16.101007 107.671 57.1255
16.217682 107.696 57.0670
16.335201 107.722 57.0059
16.453573 107.748 56.9416
16.572803 107.774 56.8739
16.692898 107.800 56.8027
16.813862 107.826 56.7286
16.935701 107.851 56.6523
17.058424 107.875 56.5749
17.182035 107.898 56.4978
17.306543 107.921 56.4223
17.431953 107.943 56.3500
17.558273 107.965 56.2822
17.685509 107.986 56.2199
17.813665 108.006 56.1641
17.942751 108.027 56.1152
18.072771 108.048 56.0731
18.203733 108.069 56.0375
18.335646 108.091 56.0077
18.468513 108.114 55.9825
18.602345 108.138 55.9609
18.737144 108.162 55.9415
18.872921 108.188 55.9232
19.009682 108.214 55.9051
19.147434 108.241 55.8864
19.286184 108.268 55.8668
19.425940 108.296 55.8461
19.566708 108.324 55.8245
19.708496 108.353 55.8023
19.851313 108.381 55.7800
19.995163 108.410 55.7579
20.140057 108.440 55.7363
20.285999 108.469 55.7153
20.433001 108.499 55.6949
20.581066 108.529 55.6747
20.730206 108.560 55.6546
20.880424 108.591 55.6341
21.031733 108.622 55.6129
21.184137 108.654 55.5908
21.337646 108.686 55.5680
21.492268 108.718 55.5447
21.648010 108.750 55.5211
21.804880 108.783 55.4979
21.962887 108.815 55.4751
22.122040 108.848 55.4531
22.282345 108.881 55.4316
22.443811 108.915 55.4102
22.606449 108.949 55.3879
22.770266 108.984 55.3637
22.935268 109.019 55.3365
23.101467 109.055 55.3051
23.268869 109.090 55.2689
23.437485 109.126 55.2277
23.607323 109.161 55.1817
23.778391 109.195 55.1319
23.950699 109.229 55.0798
24.124256 109.261 55.0270
24.299070 109.293 54.9751
24.475151 109.325 54.9256
24.652508 109.356 54.8794
24.831150 109.387 54.8367
25.011087 109.418 54.7970
25.192327 109.449 54.7594
25.374882 109.481 54.7222
25.558758 109.513 54.6840
25.743967 109.545 54.6433
25.930519 109.578 54.5991
26.118422 109.611 54.5508
26.307686 109.644 54.4987
26.498322 109.676 54.4435
26.690340 109.708 54.3863
26.883749 109.739 54.3281
27.078560 109.771 54.2702
27.274782 109.802 54.2133
27.472427 109.833 54.1577
27.671503 109.865 54.1033
27.872023 109.897 54.0492
28.073996 109.931 53.9943
28.277431 109.965 53.9366
28.482342 110.000 53.8743
28.688736 110.036 53.8049
28.896626 110.073 53.7263
29.106022 110.111 53.6365
29.316936 110.149 53.5342
29.529379 110.186 53.4191
29.743361 110.222 53.2921
29.958893 110.257 53.1553
30.175987 110.290 53.0121
30.394655 110.321 52.8667
30.614908 110.350 52.7237
30.836756 110.377 52.5874
31.060211 110.403 52.4608
31.285286 110.429 52.3456
31.511992 110.455 52.2416
31.740341 110.481 52.1469
31.970345 110.509 52.0582
32.202015 110.538 51.9719
32.435364 110.567 51.8844
32.670403 110.598 51.7931
32.907146 110.629 51.6964
33.145607 110.660 51.5941
33.385796 110.690 51.4865
33.627724 110.720 51.3750
33.871403 110.749 51.2604
34.116848 110.777 51.1438
34.364071 110.804 51.0255
34.613087 110.831 50.9058
34.863907 110.857 50.7846
35.116547 110.882 50.6621
35.371017 110.906 50.5383
35.627331 110.930 50.4134
35.885502 110.953 50.2872
36.145542 110.975 50.1597
36.407467 110.997 50.0305
36.671291 111.018 49.8992
36.937027 111.039 49.7658
37.204689 111.058 49.6304
37.474289 111.078 49.4935
37.745842 111.096 49.3560
38.019363 111.115 49.2185
38.294868 111.132 49.0819
38.572369 111.150 48.9463
38.851879 111.168 48.8117
39.133415 111.186 48.6776
39.416992 111.204 48.5435
39.702625 111.222 48.4083
39.990326 111.241 48.2717
40.280113 111.259 48.1334
40.571999 111.277 47.9941
40.866001 111.294 47.8555
41.162132 111.311 47.7198
41.460411 111.327 47.5896
41.760849 111.342 47.4667
42.063465 111.357 47.3514
42.368275 111.372 47.2422
42.675293 111.386 47.1368
42.984535 111.401 47.0331
43.296021 111.415 46.9315
43.609760 111.427 46.8344
43.925774 111.438 46.7458
44.244080 111.449 46.6685
44.564690 111.460 46.6017
44.887623 111.472 46.5395
45.212898 111.485 46.4728
45.540531 111.500 46.3927
45.870537 111.514 46.2945
46.202934 111.526 46.1794
46.537739 111.535 46.0536
46.874969 111.542 45.9242
47.214645 111.547 45.7953
47.556782 111.550 45.6672
47.901398 111.553 45.5378
48.248512 111.554 45.4072
48.598141 111.553 45.2799
48.950302 111.551 45.1640
49.305016 111.548 45.0663
49.662300 111.548 44.9867
50.022175 111.551 44.9152
50.384655 111.559 44.8359
50.749763 111.569 44.7336
51.117516 111.579 44.6017
51.487934 111.586 44.4460
51.861038 111.587 44.2828
52.236843 111.583 44.1323
52.615372 111.576 44.0110
52.996643 111.568 43.9260
53.380680 111.561 43.8725
53.767498 111.558 43.8364
54.157120 111.559 43.7995
54.549564 111.563 43.7457
54.944855 111.567 43.6661
55.343006 111.569 43.5613
55.744045 111.569 43.4397
56.147991 111.565 43.3119
56.554863 111.559 43.1863
56.964684 111.552 43.0653
57.377472 111.544 42.9468
57.793251 111.536 42.8274
58.212044 111.527 42.7073
58.633873 111.518 42.5916
59.058758 111.508 42.4877
59.486721 111.499 42.3999
59.917786 111.492 42.3255
60.351974 111.488 42.2554
60.789310 111.486 42.1797
61.229816 111.484 42.0937
61.673512 111.481 42.0004
62.120422 111.475 41.9081
62.570572 111.467 41.8243
63.023983 111.457 41.7532
63.480682 111.445 41.6958
63.940689 111.432 41.6522
64.404030 111.417 41.6216
64.870728 111.403 41.6007
65.340805 111.389 41.5829
65.814293 111.375 41.5607
66.291214 111.360 41.5300
66.771591 111.344 41.4920
67.255447 111.328 41.4509
67.742805 111.310 41.4093
68.233696 111.293 41.3669
68.728142 111.276 41.3218
69.226173 111.259 41.2738
69.727814 111.241 41.2254
70.233093 111.223 41.1803
70.742035 111.204 41.1409
71.254662 111.185 41.1068
71.771004 111.166 41.0755
72.291084 111.147 41.0442
72.814934 111.127 41.0114
73.342583 111.105 40.9776
73.874054 111.081 40.9431
74.409378 111.055 40.9085
74.948578 111.027 40.8753
75.491684 110.997 40.8485
76.038727 110.965 40.8353
76.589737 110.934 40.8394
77.144737 110.904 40.8561
77.703758 110.877 40.8730
78.266830 110.853 40.8773
78.833984 110.830 40.8630
79.405251 110.807 40.8331
79.980652 110.781 40.7956
80.560226 110.753 40.7596
81.143997 110.723 40.7339
81.732002 110.691 40.7249
82.324265 110.659 40.7344
82.920822 110.627 40.7581
83.521698 110.596 40.7887
84.126930 110.564 40.8203
84.736549 110.531 40.8509
85.350586 110.497 40.8810
85.969070 110.460 40.9121
86.592041 110.421 40.9463
87.219521 110.380 40.9859
87.851547 110.338 41.0326
88.488159 110.295 41.0859
89.129379 110.251 41.1432
89.775246 110.208 41.2014
90.425797 110.166 41.2589
91.081062 110.124 41.3166
91.741074 110.083 41.3764
