* Measurement data measured by REW V5.30.4
* Source: EXCL: Microphone (Realtek(R) Audio), MICROPHONE (Master Volume), L, volume: 1.000
* Format: 256k Log Swept Sine, 1 sweep at -15.0 dBFS with no timing reference
* Dated: Jan 14, 2024 12:03:47 AM
* REW Settings:
*  C-weighting compensation: Off
*  Target level: 75.0 dB
* Note: ROSE TECHNICS Ceramics L
* Measurement: L ROSE TECHNICS Ceramics
* Smoothing: 1/12 octave
* Frequency Step: 96 ppo
* Start Frequency: 0.36621094 Hz
*
* Freq(Hz) SPL(dB) Phase(degrees)
0.366211 65.861 168.5204
0.368865 65.900 168.4506
0.371538 65.958 168.3481
0.374230 66.029 168.2228
0.376942 66.109 168.0833
0.379673 66.195 167.9357
0.382424 66.284 167.7840
0.385196 66.376 167.6306
0.387987 66.469 167.4770
0.390798 66.563 167.3240
0.393630 66.657 167.1719
0.396483 66.753 167.0210
0.399356 66.850 166.8713
0.402250 66.947 166.7229
0.405165 67.045 166.5759
0.408101 67.143 166.4302
0.411058 67.243 166.2858
0.414037 67.343 166.1428
0.417037 67.443 166.0010
0.420059 67.545 165.8604
0.423103 67.647 165.7212
0.426169 67.750 165.5831
0.429257 67.854 165.4462
0.432367 67.958 165.3104
0.435501 68.064 165.1757
0.438656 68.170 165.0421
0.441835 68.276 164.9096
0.445037 68.384 164.7780
0.448262 68.492 164.6474
0.451510 68.601 164.5176
0.454782 68.711 164.3888
0.458077 68.822 164.2607
0.461397 68.933 164.1333
0.464740 69.046 164.0067
0.468108 69.159 163.8807
0.471500 69.273 163.7553
0.474917 69.387 163.6304
0.478358 69.503 163.5061
0.481825 69.620 163.3821
0.485316 69.737 163.2585
0.488833 69.855 163.1351
0.492375 69.974 163.0121
0.495943 70.094 162.8891
0.499537 70.215 162.7663
0.503157 70.336 162.6436
0.506803 70.459 162.5208
0.510475 70.582 162.3979
0.514174 70.706 162.2749
0.517900 70.832 162.1517
0.521653 70.958 162.0282
0.525433 71.085 161.9043
0.529241 71.213 161.7800
0.533076 71.341 161.6552
0.536939 71.471 161.5298
0.540830 71.602 161.4039
0.544749 71.734 161.2772
0.548696 71.866 161.1497
0.552673 72.000 161.0214
0.556677 72.134 160.8922
0.560711 72.270 160.7620
0.564774 72.407 160.6307
0.568867 72.544 160.4983
0.572989 72.683 160.3647
0.577141 72.822 160.2298
0.581324 72.963 160.0936
0.585536 73.104 159.9559
0.589779 73.247 159.8168
0.594053 73.390 159.6760
0.598358 73.535 159.5336
0.602694 73.681 159.3895
0.607061 73.828 159.2435
0.611460 73.975 159.0956
0.615891 74.124 158.9458
0.620354 74.274 158.7939
0.624849 74.425 158.6400
0.629377 74.578 158.4837
0.633938 74.731 158.3252
0.638532 74.885 158.1644
0.643159 75.041 158.0010
0.647819 75.198 157.8352
0.652514 75.355 157.6667
0.657242 75.514 157.4954
0.662005 75.674 157.3214
0.666802 75.836 157.1445
0.671634 75.998 156.9646
0.676501 76.162 156.7816
0.681403 76.326 156.5955
0.686341 76.492 156.4061
0.691314 76.659 156.2134
0.696324 76.827 156.0173
0.701369 76.995 155.8177
0.706452 77.164 155.6146
0.711571 77.333 155.4080
0.716727 77.500 155.1979
0.721921 77.664 154.9847
0.727153 77.825 154.7686
0.732422 77.980 154.5502
0.737729 78.129 154.3300
0.743075 78.272 154.1088
0.748460 78.411 153.8871
0.753883 78.546 153.6654
0.759346 78.678 153.4438
0.764849 78.809 153.2226
0.770391 78.938 153.0019
0.775974 79.066 152.7818
0.781597 79.193 152.5622
0.787261 79.319 152.3432
0.792965 79.444 152.1248
0.798712 79.568 151.9070
0.804499 79.691 151.6897
0.810329 79.813 151.4729
0.816201 79.934 151.2567
0.822116 80.054 151.0409
0.828073 80.173 150.8256
0.834073 80.292 150.6106
0.840118 80.409 150.3960
0.846205 80.526 150.1817
0.852337 80.642 149.9677
0.858514 80.757 149.7539
0.864735 80.871 149.5402
0.871001 80.985 149.3266
0.877313 81.097 149.1129
0.883670 81.209 148.8993
0.890074 81.321 148.6855
0.896523 81.431 148.4715
0.903020 81.541 148.2572
0.909564 81.651 148.0426
0.916155 81.760 147.8275
0.922793 81.868 147.6119
0.929480 81.976 147.3957
0.936216 82.083 147.1788
0.943000 82.190 146.9610
0.949833 82.297 146.7424
0.956716 82.403 146.5227
0.963649 82.509 146.3019
0.970632 82.615 146.0799
0.977666 82.720 145.8565
0.984750 82.826 145.6317
0.991886 82.932 145.4053
0.999074 83.037 145.1772
1.006313 83.143 144.9473
1.013605 83.249 144.7155
1.020950 83.355 144.4815
1.028349 83.462 144.2453
1.035801 83.569 144.0068
1.043306 83.676 143.7657
1.050867 83.784 143.5220
1.058482 83.893 143.2754
1.066152 84.002 143.0259
1.073878 84.112 142.7732
1.081659 84.223 142.5173
1.089498 84.334 142.2580
1.097393 84.446 141.9952
1.105345 84.557 141.7290
1.113355 84.669 141.4593
1.121422 84.780 141.1862
1.129549 84.891 140.9099
1.137734 85.001 140.6306
1.145978 85.111 140.3484
1.154283 85.220 140.0635
1.162647 85.328 139.7761
1.171072 85.435 139.4864
1.179558 85.542 139.1945
1.188106 85.648 138.9007
1.196715 85.753 138.6052
1.205387 85.858 138.3080
1.214122 85.962 138.0094
1.222920 86.065 137.7095
1.231781 86.168 137.4085
1.240708 86.270 137.1065
1.249698 86.372 136.8038
1.258754 86.473 136.5003
1.267875 86.574 136.1963
1.277063 86.674 135.8919
1.286317 86.773 135.5872
1.295638 86.872 135.2824
1.305027 86.971 134.9775
1.314484 87.070 134.6727
1.324009 87.168 134.3681
1.333603 87.265 134.0637
1.343267 87.363 133.7598
1.353001 87.460 133.4563
1.362805 87.557 133.1534
1.372681 87.654 132.8512
1.382628 87.750 132.5496
1.392647 87.847 132.2489
1.402739 87.944 131.9490
1.412904 88.041 131.6499
1.423142 88.138 131.3516
1.433455 88.234 131.0541
1.443842 88.331 130.7571
1.454305 88.428 130.4604
1.464843 88.525 130.1635
1.475458 88.621 129.8660
1.486150 88.717 129.5675
1.496919 88.813 129.2677
1.507766 88.907 128.9662
1.518692 89.001 128.6632
1.529697 89.095 128.3586
1.540782 89.187 128.0524
1.551947 89.279 127.7448
1.563193 89.370 127.4359
1.574521 89.461 127.1259
1.585931 89.550 126.8149
1.597423 89.640 126.5030
1.608998 89.728 126.1905
1.620658 89.816 125.8774
1.632402 89.903 125.5639
1.644231 89.990 125.2502
1.656146 90.076 124.9363
1.668147 90.161 124.6225
1.680235 90.247 124.3088
1.692410 90.331 123.9954
1.704674 90.416 123.6825
1.717027 90.500 123.3700
1.729469 90.583 123.0583
1.742002 90.667 122.7473
1.754625 90.750 122.4372
1.767340 90.833 122.1279
1.780147 90.915 121.8196
1.793046 90.998 121.5121
1.806040 91.080 121.2052
1.819127 91.162 120.8985
1.832309 91.244 120.5916
1.845587 91.325 120.2839
1.858961 91.406 119.9749
1.872431 91.486 119.6641
1.886000 91.565 119.3516
1.899666 91.644 119.0371
1.913432 91.722 118.7210
1.927298 91.799 118.4034
1.941264 91.875 118.0846
1.955331 91.950 117.7649
1.969500 92.025 117.4446
1.983772 92.099 117.1241
1.998147 92.173 116.8038
2.012626 92.246 116.4838
2.027211 92.318 116.1648
2.041901 92.390 115.8469
2.056697 92.461 115.5305
2.071601 92.533 115.2161
2.086613 92.603 114.9039
2.101733 92.674 114.5943
2.116963 92.744 114.2876
2.132303 92.814 113.9841
2.147755 92.884 113.6840
2.163318 92.953 113.3871
2.178995 93.023 113.0935
2.194785 93.092 112.8028
2.210689 93.160 112.5145
2.226709 93.228 112.2279
2.242844 93.296 111.9426
2.259097 93.363 111.6583
2.275467 93.429 111.3748
2.291956 93.494 111.0923
2.308565 93.559 110.8107
2.325294 93.623 110.5301
2.342144 93.687 110.2509
2.359116 93.750 109.9732
2.376211 93.813 109.6973
2.393430 93.875 109.4234
2.410774 93.937 109.1518
2.428243 93.999 108.8827
2.445839 94.061 108.6165
2.463562 94.122 108.3535
2.481415 94.183 108.0939
2.499396 94.245 107.8379
2.517508 94.306 107.5857
2.535750 94.367 107.3375
2.554126 94.429 107.0933
2.572634 94.490 106.8530
2.591276 94.551 106.6162
2.610054 94.612 106.3830
2.628967 94.672 106.1529
2.648018 94.732 105.9258
2.667206 94.792 105.7016
2.686534 94.852 105.4800
2.706002 94.911 105.2610
2.725610 94.970 105.0445
2.745361 95.029 104.8304
2.765255 95.088 104.6186
2.785294 95.146 104.4091
2.805477 95.205 104.2017
2.825807 95.264 103.9966
2.846284 95.323 103.7935
2.866909 95.383 103.5926
2.887684 95.443 103.3939
2.908609 95.503 103.1975
2.929686 95.563 103.0035
2.950916 95.623 102.8122
2.972299 95.684 102.6235
2.993838 95.745 102.4375
3.015532 95.806 102.2541
3.037384 95.867 102.0731
3.059394 95.928 101.8942
3.081564 95.989 101.7172
3.103894 96.051 101.5416
3.126386 96.112 101.3672
3.149041 96.174 101.1936
3.171861 96.236 101.0205
3.194845 96.298 100.8476
3.217996 96.361 100.6747
3.241315 96.424 100.5015
3.264803 96.487 100.3281
3.288461 96.551 100.1546
3.312291 96.615 99.9811
3.336293 96.679 99.8078
3.360469 96.744 99.6349
3.384820 96.809 99.4623
3.409348 96.874 99.2900
3.434054 96.940 99.1177
3.458938 97.005 98.9450
3.484003 97.071 98.7716
3.509250 97.137 98.5971
3.534679 97.204 98.4210
3.560293 97.270 98.2430
3.586092 97.337 98.0626
3.612079 97.403 97.8797
3.638253 97.470 97.6941
3.664618 97.537 97.5057
3.691173 97.603 97.3145
3.717921 97.670 97.1208
3.744862 97.737 96.9246
3.771999 97.805 96.7260
3.799332 97.872 96.5252
3.826864 97.939 96.3222
3.854595 98.006 96.1170
3.882527 98.073 95.9096
3.910661 98.139 95.6998
3.938999 98.206 95.4878
3.967543 98.272 95.2733
3.996294 98.338 95.0562
4.025252 98.404 94.8364
4.054421 98.469 94.6139
4.083801 98.534 94.3885
4.113394 98.599 94.1603
4.143201 98.663 93.9295
4.173225 98.727 93.6964
4.203466 98.791 93.4612
4.233926 98.854 93.2243
4.264606 98.917 92.9861
4.295509 98.979 92.7467
4.326636 99.041 92.5064
4.357989 99.102 92.2652
4.389569 99.163 92.0231
4.421378 99.223 91.7799
4.453417 99.282 91.5356
4.485688 99.341 91.2900
4.518193 99.399 91.0435
4.550934 99.457 90.7962
4.583912 99.514 90.5487
4.617129 99.571 90.3013
4.650587 99.627 90.0545
4.684287 99.683 89.8088
4.718231 99.738 89.5643
4.752421 99.793 89.3213
4.786859 99.847 89.0797
4.821547 99.901 88.8393
4.856485 99.954 88.6001
4.891677 100.007 88.3621
4.927125 100.059 88.1255
4.962829 100.111 87.8904
4.998791 100.162 87.6572
5.035015 100.213 87.4260
5.071500 100.264 87.1971
5.108251 100.315 86.9707
5.145267 100.365 86.7467
5.182552 100.415 86.5253
5.220107 100.465 86.3063
5.257934 100.515 86.0894
5.296035 100.565 85.8748
5.334412 100.614 85.6621
5.373067 100.664 85.4514
5.412003 100.713 85.2425
5.451221 100.763 85.0354
5.490722 100.812 84.8301
5.530510 100.862 84.6267
5.570587 100.911 84.4250
5.610953 100.961 84.2249
5.651613 101.011 84.0262
5.692567 101.061 83.8287
5.733818 101.110 83.6320
5.775367 101.160 83.4359
5.817218 101.211 83.2402
5.859372 101.261 83.0448
5.901831 101.311 82.8496
5.944598 101.362 82.6546
5.987675 101.412 82.4596
6.031065 101.463 82.2646
6.074768 101.514 82.0693
6.118788 101.564 81.8736
6.163127 101.615 81.6773
6.207788 101.666 81.4803
6.252772 101.717 81.2824
6.298082 101.767 81.0837
6.343721 101.818 80.8842
6.389690 101.868 80.6839
6.435992 101.919 80.4829
6.482630 101.969 80.2813
6.529606 102.020 80.0791
6.576922 102.070 79.8763
6.624581 102.120 79.6730
6.672585 102.169 79.4692
6.720938 102.219 79.2650
6.769640 102.268 79.0605
6.818696 102.317 78.8558
6.868107 102.366 78.6512
6.917876 102.415 78.4469
6.968006 102.463 78.2428
7.018499 102.512 78.0391
7.069358 102.560 77.8358
7.120586 102.608 77.6329
7.172184 102.656 77.4305
7.224157 102.703 77.2286
7.276506 102.751 77.0274
7.329235 102.799 76.8268
7.382345 102.846 76.6269
7.435841 102.894 76.4276
7.489724 102.941 76.2288
7.543997 102.989 76.0302
7.598664 103.036 75.8319
7.653728 103.084 75.6335
7.709189 103.131 75.4350
7.765053 103.179 75.2363
7.821322 103.227 75.0372
7.877998 103.274 74.8374
7.935086 103.322 74.6368
7.992587 103.370 74.4350
8.050504 103.417 74.2318
8.108841 103.465 74.0271
8.167601 103.513 73.8207
8.226787 103.560 73.6126
8.286402 103.608 73.4026
8.346449 103.655 73.1905
8.406931 103.702 72.9763
8.467851 103.748 72.7600
8.529212 103.795 72.5414
8.591018 103.840 72.3209
8.653272 103.886 72.0984
8.715977 103.931 71.8742
8.779137 103.975 71.6484
8.842754 104.019 71.4212
8.906833 104.062 71.1929
8.971375 104.104 70.9638
9.036386 104.146 70.7342
9.101867 104.187 70.5045
9.167823 104.227 70.2753
9.234257 104.266 70.0467
9.301172 104.305 69.8192
9.368572 104.343 69.5931
9.436460 104.380 69.3690
9.504841 104.416 69.1472
9.573717 104.452 68.9282
9.643092 104.487 68.7122
9.712970 104.521 68.4995
9.783354 104.555 68.2904
9.854248 104.588 68.0852
9.925656 104.620 67.8842
9.997581 104.652 67.6874
10.070028 104.684 67.4950
10.143000 104.716 67.3069
10.216500 104.747 67.1233
10.290533 104.778 66.9441
10.365103 104.808 66.7692
10.440212 104.839 66.5984
10.515866 104.870 66.4316
10.592069 104.900 66.2686
10.668823 104.931 66.1090
10.746134 104.962 65.9527
10.824005 104.993 65.7993
10.902440 105.023 65.6484
10.981443 105.055 65.4996
11.061020 105.086 65.3526
11.141172 105.117 65.2071
11.221906 105.148 65.0626
11.303225 105.180 64.9188
11.385133 105.212 64.7752
11.467634 105.243 64.6316
11.550734 105.275 64.4877
11.634435 105.307 64.3432
11.718742 105.338 64.1979
11.803661 105.370 64.0516
11.889195 105.401 63.9042
11.975349 105.432 63.7557
12.062128 105.462 63.6062
12.149535 105.492 63.4556
12.237576 105.522 63.3043
12.326254 105.551 63.1524
12.415575 105.580 63.0004
12.505544 105.608 62.8485
12.596164 105.635 62.6972
12.687441 105.661 62.5470
12.779379 105.687 62.3984
12.871984 105.712 62.2519
12.965260 105.737 62.1080
13.059211 105.761 61.9673
13.153843 105.784 61.8302
13.249161 105.807 61.6971
13.345170 105.829 61.5683
13.441875 105.851 61.4441
13.539280 105.873 61.3246
13.637391 105.894 61.2099
13.736214 105.916 61.1000
13.835752 105.938 60.9948
13.936011 105.959 60.8939
14.036998 105.981 60.7972
14.138716 106.003 60.7043
14.241171 106.025 60.6148
14.344368 106.048 60.5283
14.448313 106.071 60.4444
14.553011 106.095 60.3626
14.658468 106.119 60.2824
14.764689 106.143 60.2036
14.871680 106.167 60.1256
14.979446 106.192 60.0482
15.087994 106.218 59.9710
15.197328 106.244 59.8936
15.307454 106.269 59.8158
15.418378 106.296 59.7372
15.530106 106.322 59.6576
15.642643 106.349 59.5768
15.755996 106.376 59.4945
15.870171 106.403 59.4106
15.985172 106.429 59.3250
16.101007 106.456 59.2379
16.217682 106.482 59.1495
16.335201 106.508 59.0601
16.453573 106.534 58.9703
16.572803 106.559 58.8808
16.692898 106.583 58.7926
16.813862 106.607 58.7069
16.935701 106.630 58.6247
17.058424 106.652 58.5474
17.182035 106.674 58.4761
17.306543 106.696 58.4121
17.431953 106.717 58.3562
17.558273 106.739 58.3090
17.685509 106.760 58.2709
17.813665 106.782 58.2417
17.942751 106.805 58.2209
18.072771 106.829 58.2075
18.203733 106.855 58.2003
18.335646 106.881 58.1978
18.468513 106.909 58.1982
18.602345 106.939 58.1998
18.737144 106.969 58.2013
18.872921 107.001 58.2012
19.009682 107.033 58.1987
19.147434 107.067 58.1933
19.286184 107.100 58.1851
19.425940 107.135 58.1744
19.566708 107.169 58.1619
19.708496 107.203 58.1483
19.851313 107.238 58.1345
19.995163 107.272 58.1211
20.140057 107.308 58.1084
20.285999 107.343 58.0961
20.433001 107.379 58.0838
20.581066 107.416 58.0703
20.730206 107.454 58.0541
20.880424 107.493 58.0337
21.031733 107.532 58.0076
21.184137 107.571 57.9743
21.337646 107.611 57.9331
21.492268 107.650 57.8837
21.648010 107.688 57.8268
21.804880 107.726 57.7638
21.962887 107.762 57.6966
22.122040 107.796 57.6280
22.282345 107.829 57.5608
22.443811 107.860 57.4978
22.606449 107.891 57.4416
22.770266 107.920 57.3941
22.935268 107.950 57.3565
23.101467 107.979 57.3287
23.268869 108.009 57.3099
23.437485 108.041 57.2982
23.607323 108.073 57.2910
23.778391 108.108 57.2853
23.950699 108.144 57.2778
24.124256 108.181 57.2658
24.299070 108.219 57.2468
24.475151 108.258 57.2193
24.652508 108.297 57.1828
24.831150 108.335 57.1378
25.011087 108.373 57.0858
25.192327 108.410 57.0287
25.374882 108.446 56.9692
25.558758 108.482 56.9099
25.743967 108.516 56.8531
25.930519 108.550 56.8001
26.118422 108.584 56.7517
26.307686 108.618 56.7072
26.498322 108.654 56.6648
26.690340 108.690 56.6221
26.883749 108.727 56.5759
27.078560 108.765 56.5234
27.274782 108.804 56.4622
27.472427 108.842 56.3913
27.671503 108.880 56.3110
27.872023 108.916 56.2231
28.073996 108.951 56.1309
28.277431 108.985 56.0379
28.482342 109.018 55.9480
28.688736 109.049 55.8638
28.896626 109.081 55.7864
29.106022 109.113 55.7151
29.316936 109.146 55.6469
29.529379 109.181 55.5776
29.743361 109.217 55.5022
29.958893 109.254 55.4163
30.175987 109.292 55.3172
30.394655 109.329 55.2041
30.614908 109.364 55.0789
30.836756 109.398 54.9454
31.060211 109.430 54.8085
31.285286 109.460 54.6735
31.511992 109.489 54.5442
31.740341 109.517 54.4230
31.970345 109.545 54.3095
32.202015 109.573 54.2019
32.435364 109.603 54.0966
32.670403 109.633 53.9902
32.907146 109.665 53.8798
33.145607 109.696 53.7640
33.385796 109.727 53.6430
33.627724 109.757 53.5186
33.871403 109.787 53.3931
34.116848 109.816 53.2687
34.364071 109.845 53.1467
34.613087 109.873 53.0274
34.863907 109.902 52.9097
35.116547 109.931 52.7918
35.371017 109.960 52.6719
35.627331 109.989 52.5485
35.885502 110.017 52.4211
36.145542 110.045 52.2902
36.407467 110.072 52.1574
36.671291 110.098 52.0241
36.937027 110.122 51.8919
37.204689 110.147 51.7614
37.474289 110.170 51.6322
37.745842 110.193 51.5032
38.019363 110.216 51.3732
38.294868 110.238 51.2411
38.572369 110.260 51.1068
38.851879 110.280 50.9713
39.133415 110.299 50.8365
39.416992 110.318 50.7044
39.702625 110.336 50.5763
39.990326 110.353 50.4524
40.280113 110.371 50.3313
40.571999 110.390 50.2107
40.866001 110.408 50.0879
41.162132 110.428 49.9607
41.460411 110.447 49.8278
41.760849 110.465 49.6891
42.063465 110.483 49.5455
42.368275 110.499 49.3991
42.675293 110.514 49.2525
42.984535 110.528 49.1092
43.296021 110.541 48.9729
43.609760 110.552 48.8466
43.925774 110.564 48.7316
44.244080 110.576 48.6263
44.564690 110.590 48.5257
44.887623 110.605 48.4228
45.212898 110.620 48.3109
45.540531 110.636 48.1860
45.870537 110.650 48.0486
46.202934 110.662 47.9035
46.537739 110.671 47.7576
46.874969 110.678 47.6167
47.214645 110.683 47.4832
47.556782 110.687 47.3559
47.901398 110.691 47.2317
48.248512 110.695 47.1085
48.598141 110.698 46.9864
48.950302 110.699 46.8676
49.305016 110.701 46.7544
49.662300 110.702 46.6468
50.022175 110.705 46.5418
50.384655 110.708 46.4349
50.749763 110.711 46.3230
51.117516 110.714 46.2065
51.487934 110.716 46.0893
51.861038 110.718 45.9766
52.236843 110.719 45.8716
52.615372 110.720 45.7741
52.996643 110.722 45.6808
53.380680 110.725 45.5876
53.767498 110.728 45.4925
54.157120 110.730 45.3960
54.549564 110.731 45.3005
54.944855 110.731 45.2081
55.343006 110.731 45.1191
55.744045 110.730 45.0323
56.147991 110.728 44.9457
56.554863 110.725 44.8576
56.964684 110.722 44.7665
57.377472 110.717 44.6715
57.793251 110.711 44.5732
58.212044 110.702 44.4741
58.633873 110.693 44.3787
59.058758 110.682 44.2908
59.486721 110.671 44.2103
59.917786 110.662 44.1321
60.351974 110.655 44.0473
60.789310 110.648 43.9484
61.229816 110.641 43.8344
61.673512 110.631 43.7121
62.120422 110.619 43.5932
62.570572 110.605 43.4883
63.023983 110.592 43.4021
63.480682 110.579 43.3322
63.940689 110.567 43.2721
64.404030 110.557 43.2161
64.870728 110.547 43.1625
65.340805 110.536 43.1127
65.814293 110.525 43.0684
66.291214 110.514 43.0297
66.771591 110.502 42.9946
67.255447 110.490 42.9607
67.742805 110.477 42.9269
68.233696 110.462 42.8937
68.728142 110.446 42.8616
69.226173 110.428 42.8311
69.727814 110.410 42.8018
70.233093 110.390 42.7730
70.742035 110.370 42.7435
71.254662 110.349 42.7120
71.771004 110.327 42.6780
72.291084 110.304 42.6418
72.814934 110.280 42.6048
73.342583 110.256 42.5685
73.874054 110.231 42.5352
74.409378 110.205 42.5076
74.948578 110.179 42.4883
75.491684 110.155 42.4777
76.038727 110.131 42.4724
76.589737 110.109 42.4664
77.144737 110.088 42.4540
77.703758 110.066 42.4339
78.266830 110.043 42.4087
78.833984 110.018 42.3831
79.405251 109.991 42.3602
79.980652 109.962 42.3417
80.560226 109.932 42.3285
81.143997 109.901 42.3207
81.732002 109.868 42.3184
82.324265 109.834 42.3216
82.920822 109.800 42.3298
83.521698 109.765 42.3423
84.126930 109.730 42.3583
84.736549 109.694 42.3774
85.350586 109.658 42.4006
85.969070 109.622 42.4298
86.592041 109.585 42.4674
87.219521 109.547 42.5156
87.851547 109.509 42.5749
88.488159 109.471 42.6429
89.129379 109.433 42.7150
89.775246 109.394 42.7866
90.425797 109.352 42.8553
91.081062 109.308 42.9214
91.741074 109.260 42.9888
92.405869 109.208 43.0666
93.075478 109.154 43.1641
93.749939 109.100 43.2835
