* Measurement data measured by REW V5.30 beta 5
* Source: EXCL: Microphone (Realtek(R) Audio), MICROPHONE (Master Volume), L, volume: 1.000
* Format: 256k Log Swept Sine, 1 sweep at -12.0 dBFS with no timing reference
* Dated: Dec 29, 2023 1:04:32 AM
* REW Settings:
*  C-weighting compensation: Off
*  Target level: 75.0 dB
* Note: Shortbus God Mod R
* Measurement: R Shortbus God Mod
* Smoothing: 1/12 octave
* Frequency Step: 96 ppo
* Start Frequency: 0.36621094 Hz
*
* Freq(Hz) SPL(dB) Phase(degrees)
0.366211 57.985 76.6891
0.368865 58.034 76.0623
0.371538 58.106 75.1211
0.374230 58.194 73.9361
0.376942 58.292 72.5693
0.379673 58.398 71.0677
0.382424 58.508 69.4637
0.385196 58.620 67.7787
0.387987 58.735 66.0269
0.390798 58.850 64.2184
0.393630 58.967 62.3607
0.396483 59.085 60.4602
0.399356 59.203 58.5233
0.402250 59.323 56.5561
0.405165 59.443 54.5649
0.408101 59.565 52.5564
0.411058 59.687 50.5371
0.414037 59.810 48.5141
0.417037 59.934 46.4939
0.420059 60.059 44.4833
0.423103 60.185 42.4887
0.426169 60.311 40.5160
0.429257 60.439 38.5708
0.432367 60.567 36.6583
0.435501 60.697 34.7828
0.438656 60.827 32.9483
0.441835 60.959 31.1581
0.445037 61.091 29.4148
0.448262 61.224 27.7205
0.451510 61.358 26.0767
0.454782 61.494 24.4845
0.458077 61.630 22.9444
0.461397 61.767 21.4565
0.464740 61.905 20.0204
0.468108 62.044 18.6357
0.471500 62.185 17.3014
0.474917 62.326 16.0165
0.478358 62.468 14.7797
0.481825 62.611 13.5896
0.485316 62.756 12.4446
0.488833 62.901 11.3433
0.492375 63.048 10.2839
0.495943 63.195 9.2647
0.499537 63.344 8.2842
0.503157 63.493 7.3404
0.506803 63.644 6.4319
0.510475 63.796 5.5570
0.514174 63.949 4.7140
0.517900 64.103 3.9014
0.521653 64.258 3.1177
0.525433 64.414 2.3614
0.529241 64.572 1.6311
0.533076 64.730 0.9255
0.536939 64.890 0.2431
0.540830 65.051 -0.4171
0.544749 65.213 -1.0565
0.548696 65.376 -1.6762
0.552673 65.540 -2.2773
0.556677 65.706 -2.8608
0.560711 65.873 -3.4277
0.564774 66.041 -3.9790
0.568867 66.210 -4.5156
0.572989 66.380 -5.0384
0.577141 66.552 -5.5483
0.581324 66.725 -6.0459
0.585536 66.899 -6.5322
0.589779 67.075 -7.0077
0.594053 67.251 -7.4732
0.598358 67.429 -7.9295
0.602694 67.609 -8.3770
0.607061 67.789 -8.8164
0.611460 67.971 -9.2484
0.615891 68.155 -9.6734
0.620354 68.339 -10.0921
0.624849 68.525 -10.5049
0.629377 68.712 -10.9123
0.633938 68.901 -11.3149
0.638532 69.091 -11.7130
0.643159 69.282 -12.1073
0.647819 69.475 -12.4980
0.652514 69.669 -12.8856
0.657242 69.865 -13.2705
0.662005 70.062 -13.6532
0.666802 70.260 -14.0340
0.671634 70.460 -14.4133
0.676501 70.662 -14.7915
0.681403 70.864 -15.1689
0.686341 71.068 -15.5460
0.691314 71.274 -15.9229
0.696324 71.480 -16.3002
0.701369 71.687 -16.6781
0.706452 71.895 -17.0569
0.711571 72.101 -17.4369
0.716727 72.306 -17.8183
0.721921 72.508 -18.2010
0.727153 72.704 -18.5852
0.732422 72.893 -18.9706
0.737729 73.073 -19.3567
0.743075 73.247 -19.7433
0.748460 73.414 -20.1297
0.753883 73.577 -20.5156
0.759346 73.737 -20.9007
0.764849 73.894 -21.2844
0.770391 74.050 -21.6667
0.775974 74.203 -22.0473
0.781597 74.356 -22.4260
0.787261 74.507 -22.8027
0.792965 74.657 -23.1771
0.798712 74.806 -23.5492
0.804499 74.953 -23.9188
0.810329 75.099 -24.2859
0.816201 75.244 -24.6504
0.822116 75.388 -25.0121
0.828073 75.530 -25.3712
0.834073 75.671 -25.7274
0.840118 75.812 -26.0808
0.846205 75.950 -26.4313
0.852337 76.088 -26.7790
0.858514 76.225 -27.1238
0.864735 76.360 -27.4657
0.871001 76.494 -27.8049
0.877313 76.628 -28.1412
0.883670 76.760 -28.4748
0.890074 76.891 -28.8056
0.896523 77.021 -29.1338
0.903020 77.150 -29.4593
0.909564 77.278 -29.7823
0.916155 77.405 -30.1028
0.922793 77.531 -30.4210
0.929480 77.656 -30.7368
0.936216 77.780 -31.0504
0.943000 77.904 -31.3618
0.949833 78.027 -31.6712
0.956716 78.149 -31.9787
0.963649 78.270 -32.2844
0.970632 78.391 -32.5883
0.977666 78.511 -32.8907
0.984750 78.631 -33.1916
0.991886 78.750 -33.4912
0.999074 78.869 -33.7896
1.006313 78.988 -34.0870
1.013605 79.106 -34.3834
1.020950 79.224 -34.6791
1.028349 79.342 -34.9743
1.035801 79.460 -35.2690
1.043306 79.578 -35.5634
1.050867 79.697 -35.8579
1.058482 79.815 -36.1526
1.066152 79.934 -36.4479
1.073878 80.052 -36.7442
1.081659 80.171 -37.0420
1.089498 80.290 -37.3420
1.097393 80.408 -37.6451
1.105345 80.526 -37.9523
1.113355 80.643 -38.2643
1.121422 80.759 -38.5818
1.129549 80.873 -38.9050
1.137734 80.986 -39.2339
1.145978 81.097 -39.5684
1.154283 81.206 -39.9080
1.162647 81.314 -40.2523
1.171072 81.419 -40.6010
1.179558 81.524 -40.9534
1.188106 81.626 -41.3092
1.196715 81.727 -41.6678
1.205387 81.827 -42.0288
1.214122 81.924 -42.3915
1.222920 82.021 -42.7556
1.231781 82.116 -43.1205
1.240708 82.209 -43.4857
1.249698 82.301 -43.8508
1.258754 82.392 -44.2152
1.267875 82.481 -44.5785
1.277063 82.569 -44.9402
1.286317 82.656 -45.2998
1.295638 82.742 -45.6568
1.305027 82.827 -46.0108
1.314484 82.911 -46.3612
1.324009 82.994 -46.7076
1.333603 83.076 -47.0495
1.343267 83.158 -47.3865
1.353001 83.238 -47.7180
1.362805 83.319 -48.0436
1.372681 83.399 -48.3629
1.382628 83.478 -48.6753
1.392647 83.557 -48.9804
1.402739 83.636 -49.2779
1.412904 83.715 -49.5675
1.423142 83.794 -49.8490
1.433455 83.873 -50.1225
1.443842 83.952 -50.3883
1.454305 84.030 -50.6473
1.464843 84.109 -50.9007
1.475458 84.186 -51.1501
1.486150 84.262 -51.3972
1.496919 84.337 -51.6432
1.507766 84.411 -51.8889
1.518692 84.483 -52.1346
1.529697 84.553 -52.3805
1.540782 84.622 -52.6263
1.551947 84.689 -52.8719
1.563193 84.755 -53.1166
1.574521 84.820 -53.3603
1.585931 84.883 -53.6022
1.597423 84.944 -53.8419
1.608998 85.005 -54.0789
1.620658 85.065 -54.3125
1.632402 85.123 -54.5422
1.644231 85.180 -54.7674
1.656146 85.237 -54.9874
1.668147 85.293 -55.2015
1.680235 85.348 -55.4092
1.692410 85.403 -55.6096
1.704674 85.457 -55.8022
1.717027 85.511 -55.9861
1.729469 85.565 -56.1607
1.742002 85.619 -56.3252
1.754625 85.673 -56.4789
1.767340 85.727 -56.6210
1.780147 85.782 -56.7511
1.793046 85.837 -56.8686
1.806040 85.892 -56.9734
1.819127 85.947 -57.0654
1.832309 86.002 -57.1453
1.845587 86.056 -57.2137
1.858961 86.110 -57.2714
1.872431 86.163 -57.3191
1.886000 86.215 -57.3574
1.899666 86.266 -57.3867
1.913432 86.316 -57.4070
1.927298 86.364 -57.4185
1.941264 86.413 -57.4212
1.955331 86.460 -57.4151
1.969500 86.507 -57.4001
1.983772 86.554 -57.3762
1.998147 86.601 -57.3432
2.012626 86.648 -57.3011
2.027211 86.695 -57.2498
2.041901 86.744 -57.1893
2.056697 86.793 -57.1195
2.071601 86.843 -57.0403
2.086613 86.895 -56.9517
2.101733 86.949 -56.8536
2.116963 87.004 -56.7459
2.132303 87.062 -56.6283
2.147755 87.122 -56.5006
2.163318 87.185 -56.3623
2.178995 87.251 -56.2126
2.194785 87.319 -56.0503
2.210689 87.390 -55.8745
2.226709 87.463 -55.6843
2.242844 87.539 -55.4793
2.259097 87.616 -55.2600
2.275467 87.696 -55.0274
2.291956 87.777 -54.7829
2.308565 87.861 -54.5285
2.325294 87.947 -54.2661
2.342144 88.034 -53.9981
2.359116 88.124 -53.7265
2.376211 88.216 -53.4539
2.393430 88.310 -53.1825
2.410774 88.406 -52.9148
2.428243 88.505 -52.6531
2.445839 88.606 -52.3997
2.463562 88.709 -52.1566
2.481415 88.814 -51.9258
2.499396 88.923 -51.7085
2.517508 89.034 -51.5055
2.535750 89.147 -51.3166
2.554126 89.264 -51.1404
2.572634 89.384 -50.9748
2.591276 89.508 -50.8171
2.610054 89.635 -50.6656
2.628967 89.766 -50.5194
2.648018 89.901 -50.3790
2.667206 90.039 -50.2457
2.686534 90.180 -50.1214
2.706002 90.323 -50.0083
2.725610 90.469 -49.9089
2.745361 90.617 -49.8256
2.765255 90.766 -49.7608
2.785294 90.917 -49.7170
2.805477 91.068 -49.6963
2.825807 91.220 -49.7006
2.846284 91.372 -49.7318
2.866909 91.523 -49.7910
2.887684 91.675 -49.8789
2.908609 91.825 -49.9952
2.929686 91.976 -50.1389
2.950916 92.126 -50.3080
2.972299 92.276 -50.5004
2.993838 92.427 -50.7139
3.015532 92.579 -50.9470
3.037384 92.730 -51.1986
3.059394 92.882 -51.4679
3.081564 93.034 -51.7545
3.103894 93.185 -52.0583
3.126386 93.336 -52.3791
3.149041 93.485 -52.7172
3.171861 93.633 -53.0728
3.194845 93.780 -53.4465
3.217996 93.924 -53.8389
3.241315 94.065 -54.2508
3.264803 94.205 -54.6832
3.288461 94.341 -55.1370
3.312291 94.476 -55.6130
3.336293 94.607 -56.1112
3.360469 94.736 -56.6311
3.384820 94.863 -57.1713
3.409348 94.987 -57.7295
3.434054 95.109 -58.3034
3.458938 95.228 -58.8904
3.484003 95.345 -59.4880
3.509250 95.458 -60.0939
3.534679 95.569 -60.7061
3.560293 95.676 -61.3232
3.586092 95.780 -61.9445
3.612079 95.881 -62.5702
3.638253 95.978 -63.2015
3.664618 96.071 -63.8406
3.691173 96.161 -64.4901
3.717921 96.246 -65.1519
3.744862 96.328 -65.8263
3.771999 96.406 -66.5121
3.799332 96.479 -67.2065
3.826864 96.549 -67.9061
3.854595 96.615 -68.6066
3.882527 96.677 -69.3037
3.910661 96.735 -69.9934
3.938999 96.790 -70.6723
3.967543 96.841 -71.3381
3.996294 96.887 -71.9899
4.025252 96.929 -72.6285
4.054421 96.967 -73.2563
4.083801 97.001 -73.8756
4.113394 97.029 -74.4880
4.143201 97.054 -75.0931
4.173225 97.074 -75.6890
4.203466 97.090 -76.2723
4.233926 97.103 -76.8387
4.264606 97.113 -77.3834
4.295509 97.120 -77.9014
4.326636 97.125 -78.3882
4.357989 97.128 -78.8402
4.389569 97.128 -79.2553
4.421378 97.125 -79.6328
4.453417 97.120 -79.9734
4.485688 97.112 -80.2779
4.518193 97.101 -80.5471
4.550934 97.090 -80.7813
4.583912 97.078 -80.9799
4.617129 97.067 -81.1422
4.650587 97.058 -81.2666
4.684287 97.053 -81.3512
4.718231 97.051 -81.3935
4.752421 97.054 -81.3912
4.786859 97.062 -81.3421
4.821547 97.075 -81.2461
4.856485 97.092 -81.1052
4.891677 97.115 -80.9245
4.927125 97.143 -80.7113
4.962829 97.178 -80.4743
4.998791 97.221 -80.2225
5.035015 97.272 -79.9642
5.071500 97.333 -79.7061
5.108251 97.405 -79.4522
5.145267 97.488 -79.2043
5.182552 97.581 -78.9635
5.220107 97.686 -78.7329
5.257934 97.800 -78.5186
5.296035 97.924 -78.3300
5.334412 98.055 -78.1779
5.373067 98.193 -78.0733
5.412003 98.337 -78.0258
5.451221 98.485 -78.0421
5.490722 98.638 -78.1254
5.530510 98.796 -78.2753
5.570587 98.958 -78.4897
5.610953 99.124 -78.7664
5.651613 99.292 -79.1042
5.692567 99.461 -79.5036
5.733818 99.629 -79.9659
5.775367 99.795 -80.4932
5.817218 99.957 -81.0876
5.859372 100.115 -81.7503
5.901831 100.268 -82.4806
5.944598 100.416 -83.2753
5.987675 100.559 -84.1288
6.031065 100.695 -85.0340
6.074768 100.825 -85.9839
6.118788 100.946 -86.9732
6.163127 101.059 -87.9985
6.207788 101.163 -89.0594
6.252772 101.256 -90.1566
6.298082 101.339 -91.2903
6.343721 101.412 -92.4569
6.389690 101.474 -93.6490
6.435992 101.525 -94.8563
6.482630 101.564 -96.0681
6.529606 101.590 -97.2760
6.576922 101.605 -98.4751
6.624581 101.606 -99.6639
6.672585 101.594 -100.8420
6.720938 101.568 -102.0056
6.769640 101.530 -103.1459
6.818696 101.478 -104.2503
6.868107 101.413 -105.3039
6.917876 101.336 -106.2929
6.968006 101.244 -107.2067
7.018499 101.140 -108.0382
7.069358 101.023 -108.7808
7.120586 100.896 -109.4259
7.172184 100.760 -109.9612
7.224157 100.617 -110.3709
7.276506 100.471 -110.6378
7.329235 100.322 -110.7456
7.382345 100.173 -110.6818
7.435841 100.027 -110.4398
7.489724 99.888 -110.0189
7.543997 99.762 -109.4240
7.598664 99.656 -108.6643
7.653728 99.577 -107.7519
7.709189 99.528 -106.7027
7.765053 99.514 -105.5387
7.821322 99.536 -104.2933
7.877998 99.594 -103.0124
7.935086 99.688 -101.7485
7.992587 99.819 -100.5534
8.050504 99.984 -99.4706
8.108841 100.183 -98.5316
8.167601 100.411 -97.7592
8.226787 100.662 -97.1721
8.286402 100.930 -96.7863
8.346449 101.208 -96.6129
8.406931 101.489 -96.6562
8.467851 101.769 -96.9115
8.529212 102.045 -97.3670
8.591018 102.315 -98.0067
8.653272 102.574 -98.8145
8.715977 102.819 -99.7761
8.779137 103.049 -100.8798
8.842754 103.260 -102.1145
8.906833 103.452 -103.4666
8.971375 103.624 -104.9185
9.036386 103.775 -106.4514
9.101867 103.903 -108.0492
9.167823 104.009 -109.7000
9.234257 104.091 -111.3948
9.301172 104.150 -113.1222
9.368572 104.185 -114.8664
9.436460 104.195 -116.6089
9.504841 104.181 -118.3332
9.573717 104.142 -120.0264
9.643092 104.079 -121.6773
9.712970 103.991 -123.2714
9.783354 103.880 -124.7894
9.854248 103.745 -126.2095
9.925656 103.588 -127.5112
9.997581 103.409 -128.6766
10.070028 103.211 -129.6875
10.143000 102.997 -130.5229
10.216500 102.769 -131.1590
10.290533 102.531 -131.5726
10.365103 102.287 -131.7440
10.440212 102.045 -131.6599
10.515866 101.810 -131.3136
10.592069 101.591 -130.7051
10.668823 101.395 -129.8420
10.746134 101.230 -128.7441
10.824005 101.103 -127.4479
10.902440 101.018 -126.0056
10.981443 100.980 -124.4784
11.061020 100.992 -122.9290
11.141172 101.050 -121.4189
11.221906 101.151 -120.0056
11.303225 101.288 -118.7384
11.385133 101.454 -117.6531
11.467634 101.643 -116.7692
11.550734 101.847 -116.0932
11.634435 102.059 -115.6217
11.718742 102.274 -115.3448
11.803661 102.486 -115.2472
11.889195 102.693 -115.3098
11.975349 102.891 -115.5107
12.062128 103.079 -115.8283
12.149535 103.257 -116.2429
12.237576 103.423 -116.7369
12.326254 103.578 -117.2936
12.415575 103.722 -117.8981
12.505544 103.857 -118.5384
12.596164 103.983 -119.2055
12.687441 104.102 -119.8925
12.779379 104.214 -120.5944
12.871984 104.320 -121.3079
12.965260 104.421 -122.0315
13.059211 104.518 -122.7654
13.153843 104.611 -123.5103
13.249161 104.701 -124.2673
13.345170 104.786 -125.0375
13.441875 104.868 -125.8217
13.539280 104.945 -126.6200
13.637391 105.017 -127.4320
13.736214 105.083 -128.2558
13.835752 105.144 -129.0884
13.936011 105.198 -129.9259
14.036998 105.245 -130.7637
14.138716 105.285 -131.5961
14.241171 105.318 -132.4169
14.344368 105.344 -133.2196
14.448313 105.363 -133.9984
14.553011 105.377 -134.7476
14.658468 105.385 -135.4618
14.764689 105.389 -136.1372
14.871680 105.389 -136.7712
14.979446 105.387 -137.3626
15.087994 105.384 -137.9114
15.197328 105.380 -138.4193
15.307454 105.377 -138.8891
15.418378 105.375 -139.3246
15.530106 105.375 -139.7302
15.642643 105.375 -140.1104
15.755996 105.378 -140.4699
15.870171 105.381 -140.8125
15.985172 105.385 -141.1410
16.101007 105.389 -141.4574
16.217682 105.393 -141.7624
16.335201 105.395 -142.0555
16.453573 105.397 -142.3355
16.572803 105.397 -142.6000
16.692898 105.395 -142.8468
16.813862 105.391 -143.0731
16.935701 105.387 -143.2769
17.058424 105.381 -143.4565
17.182035 105.375 -143.6115
17.306543 105.369 -143.7425
17.431953 105.364 -143.8510
17.558273 105.360 -143.9400
17.685509 105.357 -144.0135
17.813665 105.356 -144.0757
17.942751 105.357 -144.1317
18.072771 105.360 -144.1865
18.203733 105.364 -144.2444
18.335646 105.368 -144.3097
18.468513 105.373 -144.3851
18.602345 105.377 -144.4727
18.737144 105.380 -144.5733
18.872921 105.382 -144.6867
19.009682 105.381 -144.8115
19.147434 105.378 -144.9455
19.286184 105.371 -145.0862
19.425940 105.362 -145.2305
19.566708 105.351 -145.3756
19.708496 105.337 -145.5188
19.851313 105.321 -145.6585
19.995163 105.305 -145.7938
20.140057 105.288 -145.9256
20.285999 105.272 -146.0557
20.433001 105.257 -146.1881
20.581066 105.245 -146.3276
20.730206 105.234 -146.4806
20.880424 105.227 -146.6536
21.031733 105.222 -146.8534
21.184137 105.219 -147.0859
21.337646 105.217 -147.3556
21.492268 105.216 -147.6646
21.648010 105.213 -148.0127
21.804880 105.208 -148.3968
21.962887 105.201 -148.8111
22.122040 105.189 -149.2476
22.282345 105.174 -149.6965
22.443811 105.155 -150.1474
22.606449 105.133 -150.5903
22.770266 105.110 -151.0162
22.935268 105.087 -151.4188
23.101467 105.066 -151.7945
23.268869 105.048 -152.1435
23.437485 105.036 -152.4693
23.607323 105.031 -152.7784
23.778391 105.033 -153.0790
23.950699 105.042 -153.3804
24.124256 105.059 -153.6908
24.299070 105.081 -154.0169
24.475151 105.108 -154.3622
24.652508 105.137 -154.7271
24.831150 105.169 -155.1090
25.011087 105.200 -155.5025
25.192327 105.230 -155.9009
25.374882 105.259 -156.2969
25.558758 105.287 -156.6839
25.743967 105.314 -157.0569
25.930519 105.339 -157.4127
26.118422 105.364 -157.7504
26.307686 105.388 -158.0704
26.498322 105.411 -158.3741
26.690340 105.433 -158.6626
26.883749 105.452 -158.9357
27.078560 105.469 -159.1915
27.274782 105.482 -159.4261
27.472427 105.491 -159.6346
27.671503 105.498 -159.8116
27.872023 105.501 -159.9532
28.073996 105.504 -160.0583
28.277431 105.507 -160.1299
28.482342 105.512 -160.1753
28.688736 105.520 -160.2057
28.896626 105.531 -160.2343
29.106022 105.545 -160.2744
29.316936 105.561 -160.3368
29.529379 105.576 -160.4282
29.743361 105.591 -160.5503
29.958893 105.602 -160.7006
30.175987 105.611 -160.8737
30.394655 105.616 -161.0641
30.614908 105.619 -161.2679
30.836756 105.622 -161.4848
31.060211 105.624 -161.7178
31.285286 105.626 -161.9724
31.511992 105.628 -162.2538
31.740341 105.630 -162.5646
31.970345 105.629 -162.9023
32.202015 105.625 -163.2591
32.435364 105.617 -163.6225
32.670403 105.607 -163.9785
32.907146 105.594 -164.3145
33.145607 105.583 -164.6235
33.385796 105.575 -164.9058
33.627724 105.573 -165.1692
33.871403 105.577 -165.4270
34.116848 105.587 -165.6936
34.364071 105.601 -165.9803
34.613087 105.616 -166.2910
34.863907 105.630 -166.6208
35.116547 105.640 -166.9566
35.371017 105.644 -167.2800
35.627331 105.644 -167.5721
35.885502 105.640 -167.8175
36.145542 105.636 -168.0091
36.407467 105.634 -168.1498
36.671291 105.636 -168.2525
36.937027 105.645 -168.3374
37.204689 105.658 -168.4274
37.474289 105.675 -168.5422
37.745842 105.691 -168.6939
38.019363 105.704 -168.8844
38.294868 105.711 -169.1048
38.572369 105.710 -169.3388
38.851879 105.700 -169.5675
39.133415 105.685 -169.7747
39.416992 105.667 -169.9525
39.702625 105.649 -170.1030
39.990326 105.634 -170.2389
40.280113 105.624 -170.3788
40.571999 105.620 -170.5424
40.866001 105.619 -170.7444
41.162132 105.620 -170.9911
41.460411 105.620 -171.2799
41.760849 105.618 -171.6009
42.063465 105.613 -171.9401
42.368275 105.605 -172.2820
42.675293 105.596 -172.6117
42.984535 105.586 -172.9162
43.296021 105.577 -173.1854
43.609760 105.570 -173.4132
43.925774 105.569 -173.5991
44.244080 105.574 -173.7491
44.564690 105.586 -173.8744
44.887623 105.605 -173.9879
45.212898 105.629 -174.0998
45.540531 105.656 -174.2139
45.870537 105.682 -174.3275
46.202934 105.707 -174.4343
46.537739 105.731 -174.5291
46.874969 105.753 -174.6111
47.214645 105.772 -174.6832
47.556782 105.788 -174.7484
47.901398 105.800 -174.8051
48.248512 105.808 -174.8458
48.598141 105.812 -174.8628
48.950302 105.815 -174.8573
49.305016 105.823 -174.8473
49.662300 105.835 -174.8674
50.022175 105.851 -174.9580
50.384655 105.866 -175.1473
50.749763 105.872 -175.4364
51.117516 105.864 -175.7956
51.487934 105.841 -176.1758
51.861038 105.805 -176.5291
52.236843 105.766 -176.8299
52.615372 105.730 -177.0857
52.996643 105.703 -177.3309
53.380680 105.685 -177.6065
53.767498 105.673 -177.9368
54.157120 105.660 -178.3167
54.549564 105.642 -178.7159
54.944855 105.620 -179.0945
55.343006 105.596 -179.4216
55.744045 105.576 -179.6863
56.147991 105.564 -179.8969
56.554863 105.561 179.9279
56.964684 105.566 179.7689
57.377472 105.579 179.6100
57.793251 105.597 179.4390
58.212044 105.617 179.2462
58.633873 105.636 179.0286
59.058758 105.651 178.7930
59.486721 105.660 178.5572
59.917786 105.661 178.3424
60.351974 105.658 178.1635
60.789310 105.654 178.0213
61.229816 105.651 177.9030
61.673512 105.649 177.7902
62.120422 105.649 177.6675
62.570572 105.648 177.5276
63.023983 105.644 177.3724
63.480682 105.637 177.2104
63.940689 105.626 177.0539
64.404030 105.612 176.9141
64.870728 105.597 176.7965
65.340805 105.583 176.6995
65.814293 105.570 176.6180
66.291214 105.559 176.5463
66.771591 105.550 176.4772
67.255447 105.543 176.3970
67.742805 105.537 176.2878
68.233696 105.529 176.1408
68.728142 105.514 175.9704
69.226173 105.490 175.8108
69.727814 105.463 175.6907
70.233093 105.439 175.6066
70.742035 105.423 175.5199
71.254662 105.414 175.3853
71.771004 105.406 175.1836
72.291084 105.396 174.9279
72.814934 105.384 174.6432
73.342583 105.371 174.3424
73.874054 105.360 174.0239
74.409378 105.349 173.6862
74.948578 105.337 173.3417
75.491684 105.325 173.0128
76.038727 105.314 172.7171
76.589737 105.308 172.4531
77.144737 105.306 172.2028
77.703758 105.308 171.9481
78.266830 105.308 171.6877
78.833984 105.303 171.4380
79.405251 105.293 171.2175
