* Measurement data measured by REW V5.30 beta 5
* Source: EXCL: Microphone (Realtek(R) Audio), MICROPHONE (Master Volume), L, volume: 1.000
* Format: 256k Log Swept Sine, 1 sweep at -12.0 dBFS with no timing reference
* Dated: Dec 29, 2023 1:03:06 AM
* REW Settings:
*  C-weighting compensation: Off
*  Target level: 75.0 dB
* Note: Shortbus God Mod L
* Measurement: L Shortbus God Mod
* Smoothing: 1/12 octave
* Frequency Step: 96 ppo
* Start Frequency: 0.36621094 Hz
*
* Freq(Hz) SPL(dB) Phase(degrees)
0.366211 97.600 -20.7451
0.368865 97.595 -20.7651
0.371538 97.587 -20.7951
0.374230 97.578 -20.8328
0.376942 97.567 -20.8762
0.379673 97.556 -20.9240
0.382424 97.544 -20.9752
0.385196 97.532 -21.0292
0.387987 97.519 -21.0857
0.390798 97.507 -21.1445
0.393630 97.494 -21.2056
0.396483 97.481 -21.2689
0.399356 97.468 -21.3344
0.402250 97.455 -21.4021
0.405165 97.442 -21.4720
0.408101 97.429 -21.5442
0.411058 97.415 -21.6186
0.414037 97.402 -21.6953
0.417037 97.389 -21.7743
0.420059 97.375 -21.8556
0.423103 97.361 -21.9393
0.426169 97.347 -22.0253
0.429257 97.333 -22.1136
0.432367 97.319 -22.2044
0.435501 97.305 -22.2975
0.438656 97.291 -22.3931
0.441835 97.277 -22.4911
0.445037 97.262 -22.5916
0.448262 97.248 -22.6945
0.451510 97.233 -22.7999
0.454782 97.218 -22.9078
0.458077 97.204 -23.0182
0.461397 97.189 -23.1311
0.464740 97.174 -23.2465
0.468108 97.158 -23.3645
0.471500 97.143 -23.4851
0.474917 97.128 -23.6082
0.478358 97.112 -23.7338
0.481825 97.097 -23.8620
0.485316 97.081 -23.9928
0.488833 97.065 -24.1262
0.492375 97.049 -24.2622
0.495943 97.033 -24.4007
0.499537 97.017 -24.5418
0.503157 97.000 -24.6855
0.506803 96.984 -24.8318
0.510475 96.967 -24.9806
0.514174 96.951 -25.1320
0.517900 96.934 -25.2860
0.521653 96.917 -25.4425
0.525433 96.900 -25.6015
0.529241 96.883 -25.7630
0.533076 96.866 -25.9270
0.536939 96.848 -26.0934
0.540830 96.831 -26.2624
0.544749 96.813 -26.4337
0.548696 96.795 -26.6074
0.552673 96.777 -26.7835
0.556677 96.759 -26.9619
0.560711 96.741 -27.1426
0.564774 96.723 -27.3255
0.568867 96.704 -27.5106
0.572989 96.686 -27.6979
0.577141 96.667 -27.8872
0.581324 96.648 -28.0786
0.585536 96.629 -28.2719
0.589779 96.610 -28.4672
0.594053 96.591 -28.6643
0.598358 96.572 -28.8632
0.602694 96.552 -29.0637
0.607061 96.532 -29.2658
0.611460 96.512 -29.4694
0.615891 96.493 -29.6745
0.620354 96.472 -29.8808
0.624849 96.452 -30.0883
0.629377 96.432 -30.2969
0.633938 96.411 -30.5065
0.638532 96.391 -30.7168
0.643159 96.370 -30.9279
0.647819 96.349 -31.1395
0.652514 96.328 -31.3515
0.657242 96.306 -31.5637
0.662005 96.285 -31.7760
0.666802 96.263 -31.9882
0.671634 96.241 -32.2000
0.676501 96.219 -32.4114
0.681403 96.197 -32.6221
0.686341 96.175 -32.8319
0.691314 96.153 -33.0405
0.696324 96.130 -33.2478
0.701369 96.107 -33.4536
0.706452 96.084 -33.6577
0.711571 96.060 -33.8599
0.716727 96.036 -34.0604
0.721921 96.011 -34.2591
0.727153 95.984 -34.4565
0.732422 95.956 -34.6531
0.737729 95.926 -34.8498
0.743075 95.894 -35.0475
0.748460 95.861 -35.2467
0.753883 95.827 -35.4482
0.759346 95.792 -35.6523
0.764849 95.755 -35.8592
0.770391 95.718 -36.0691
0.775974 95.681 -36.2821
0.781597 95.642 -36.4981
0.787261 95.603 -36.7173
0.792965 95.563 -36.9397
0.798712 95.523 -37.1651
0.804499 95.482 -37.3937
0.810329 95.441 -37.6253
0.816201 95.398 -37.8600
0.822116 95.355 -38.0977
0.828073 95.312 -38.3384
0.834073 95.267 -38.5820
0.840118 95.222 -38.8285
0.846205 95.177 -39.0779
0.852337 95.130 -39.3299
0.858514 95.083 -39.5846
0.864735 95.035 -39.8419
0.871001 94.987 -40.1017
0.877313 94.937 -40.3638
0.883670 94.887 -40.6282
0.890074 94.836 -40.8946
0.896523 94.785 -41.1630
0.903020 94.733 -41.4332
0.909564 94.679 -41.7049
0.916155 94.626 -41.9780
0.922793 94.571 -42.2523
0.929480 94.516 -42.5276
0.936216 94.459 -42.8035
0.943000 94.402 -43.0799
0.949833 94.345 -43.3563
0.956716 94.286 -43.6325
0.963649 94.227 -43.9082
0.970632 94.166 -44.1829
0.977666 94.105 -44.4562
0.984750 94.043 -44.7278
0.991886 93.981 -44.9971
0.999074 93.917 -45.2636
1.006313 93.853 -45.5268
1.013605 93.787 -45.7861
1.020950 93.721 -46.0409
1.028349 93.654 -46.2906
1.035801 93.586 -46.5344
1.043306 93.518 -46.7716
1.050867 93.448 -47.0015
1.058482 93.377 -47.2231
1.066152 93.306 -47.4357
1.073878 93.233 -47.6384
1.081659 93.159 -47.8305
1.089498 93.084 -48.0110
1.097393 93.007 -48.1794
1.105345 92.929 -48.3352
1.113355 92.848 -48.4779
1.121422 92.765 -48.6072
1.129549 92.679 -48.7230
1.137734 92.591 -48.8248
1.145978 92.501 -48.9126
1.154283 92.408 -48.9860
1.162647 92.312 -49.0449
1.171072 92.214 -49.0890
1.179558 92.114 -49.1179
1.188106 92.012 -49.1315
1.196715 91.908 -49.1295
1.205387 91.802 -49.1115
1.214122 91.694 -49.0773
1.222920 91.585 -49.0266
1.231781 91.475 -48.9591
1.240708 91.363 -48.8744
1.249698 91.250 -48.7724
1.258754 91.136 -48.6527
1.267875 91.022 -48.5151
1.277063 90.907 -48.3592
1.286317 90.793 -48.1850
1.295638 90.678 -47.9921
1.305027 90.563 -47.7805
1.314484 90.449 -47.5499
1.324009 90.335 -47.3005
1.333603 90.223 -47.0320
1.343267 90.112 -46.7448
1.353001 90.003 -46.4388
1.362805 89.895 -46.1144
1.372681 89.790 -45.7719
1.382628 89.687 -45.4117
1.392647 89.587 -45.0345
1.402739 89.490 -44.6408
1.412904 89.397 -44.2313
1.423142 89.307 -43.8062
1.433455 89.222 -43.3658
1.443842 89.140 -42.9095
1.454305 89.063 -42.4358
1.464843 88.990 -41.9420
1.475458 88.920 -41.4245
1.486150 88.854 -40.8797
1.496919 88.791 -40.3040
1.507766 88.730 -39.6954
1.518692 88.672 -39.0523
1.529697 88.617 -38.3744
1.540782 88.565 -37.6617
1.551947 88.515 -36.9152
1.563193 88.468 -36.1359
1.574521 88.423 -35.3255
1.585931 88.382 -34.4858
1.597423 88.344 -33.6191
1.608998 88.309 -32.7279
1.620658 88.277 -31.8150
1.632402 88.248 -30.8836
1.644231 88.224 -29.9370
1.656146 88.202 -28.9790
1.668147 88.185 -28.0132
1.680235 88.172 -27.0439
1.692410 88.163 -26.0751
1.704674 88.158 -25.1112
1.717027 88.157 -24.1566
1.729469 88.161 -23.2155
1.742002 88.170 -22.2922
1.754625 88.184 -21.3909
1.767340 88.203 -20.5153
1.780147 88.227 -19.6687
1.793046 88.257 -18.8536
1.806040 88.294 -18.0716
1.819127 88.337 -17.3230
1.832309 88.388 -16.6069
1.845587 88.447 -15.9213
1.858961 88.516 -15.2645
1.872431 88.593 -14.6354
1.886000 88.679 -14.0336
1.899666 88.775 -13.4599
1.913432 88.879 -12.9150
1.927298 88.991 -12.4003
1.941264 89.111 -11.9171
1.955331 89.238 -11.4665
1.969500 89.372 -11.0496
1.983772 89.510 -10.6671
1.998147 89.654 -10.3200
2.012626 89.802 -10.0087
2.027211 89.953 -9.7336
2.041901 90.107 -9.4951
2.056697 90.262 -9.2935
2.071601 90.417 -9.1289
2.086613 90.573 -9.0015
2.101733 90.727 -8.9114
2.116963 90.879 -8.8588
2.132303 91.028 -8.8438
2.147755 91.174 -8.8666
2.163318 91.315 -8.9274
2.178995 91.452 -9.0263
2.194785 91.586 -9.1633
2.210689 91.716 -9.3380
2.226709 91.844 -9.5498
2.242844 91.970 -9.7975
2.259097 92.094 -10.0794
2.275467 92.218 -10.3937
2.291956 92.340 -10.7383
2.308565 92.462 -11.1112
2.325294 92.583 -11.5100
2.342144 92.704 -11.9330
2.359116 92.823 -12.3779
2.376211 92.941 -12.8430
2.393430 93.058 -13.3265
2.410774 93.173 -13.8268
2.428243 93.288 -14.3426
2.445839 93.400 -14.8725
2.463562 93.511 -15.4155
2.481415 93.620 -15.9711
2.499396 93.727 -16.5391
2.517508 93.832 -17.1198
2.535750 93.935 -17.7145
2.554126 94.036 -18.3251
2.572634 94.133 -18.9543
2.591276 94.229 -19.6046
2.610054 94.322 -20.2777
2.628967 94.412 -20.9742
2.648018 94.499 -21.6935
2.667206 94.585 -22.4340
2.686534 94.668 -23.1936
2.706002 94.748 -23.9697
2.725610 94.827 -24.7597
2.745361 94.903 -25.5607
2.765255 94.977 -26.3700
2.785294 95.050 -27.1848
2.805477 95.120 -28.0026
2.825807 95.189 -28.8211
2.846284 95.257 -29.6384
2.866909 95.323 -30.4534
2.887684 95.387 -31.2657
2.908609 95.450 -32.0763
2.929686 95.511 -32.8873
2.950916 95.570 -33.7018
2.972299 95.628 -34.5229
2.993838 95.683 -35.3529
3.015532 95.736 -36.1926
3.037384 95.786 -37.0420
3.059394 95.835 -37.8999
3.081564 95.882 -38.7647
3.103894 95.926 -39.6341
3.126386 95.970 -40.5058
3.149041 96.011 -41.3772
3.171861 96.051 -42.2457
3.194845 96.090 -43.1088
3.217996 96.128 -43.9645
3.241315 96.165 -44.8113
3.264803 96.201 -45.6486
3.288461 96.235 -46.4769
3.312291 96.269 -47.2980
3.336293 96.301 -48.1141
3.360469 96.332 -48.9271
3.384820 96.361 -49.7383
3.409348 96.388 -50.5479
3.434054 96.414 -51.3555
3.458938 96.439 -52.1598
3.484003 96.463 -52.9593
3.509250 96.487 -53.7519
3.534679 96.510 -54.5355
3.560293 96.533 -55.3077
3.586092 96.556 -56.0662
3.612079 96.579 -56.8091
3.638253 96.603 -57.5350
3.664618 96.627 -58.2430
3.691173 96.651 -58.9334
3.717921 96.674 -59.6068
3.744862 96.698 -60.2645
3.771999 96.722 -60.9075
3.799332 96.746 -61.5369
3.826864 96.770 -62.1537
3.854595 96.795 -62.7587
3.882527 96.822 -63.3522
3.910661 96.849 -63.9347
3.938999 96.878 -64.5060
3.967543 96.909 -65.0658
3.996294 96.942 -65.6134
4.025252 96.977 -66.1478
4.054421 97.014 -66.6680
4.083801 97.053 -67.1732
4.113394 97.095 -67.6637
4.143201 97.139 -68.1404
4.173225 97.184 -68.6049
4.203466 97.232 -69.0592
4.233926 97.282 -69.5059
4.264606 97.334 -69.9470
4.295509 97.389 -70.3847
4.326636 97.446 -70.8204
4.357989 97.506 -71.2552
4.389569 97.569 -71.6888
4.421378 97.634 -72.1207
4.453417 97.703 -72.5499
4.485688 97.774 -72.9763
4.518193 97.848 -73.4004
4.550934 97.924 -73.8235
4.583912 98.003 -74.2475
4.617129 98.083 -74.6746
4.650587 98.165 -75.1070
4.684287 98.249 -75.5469
4.718231 98.334 -75.9958
4.752421 98.420 -76.4544
4.786859 98.507 -76.9228
4.821547 98.596 -77.4005
4.856485 98.685 -77.8866
4.891677 98.776 -78.3805
4.927125 98.868 -78.8816
4.962829 98.960 -79.3898
4.998791 99.052 -79.9050
5.035015 99.144 -80.4276
5.071500 99.235 -80.9580
5.108251 99.325 -81.4968
5.145267 99.415 -82.0444
5.182552 99.503 -82.6007
5.220107 99.591 -83.1653
5.257934 99.677 -83.7369
5.296035 99.763 -84.3137
5.334412 99.847 -84.8940
5.373067 99.930 -85.4760
5.412003 100.010 -86.0582
5.451221 100.090 -86.6397
5.490722 100.167 -87.2205
5.530510 100.242 -87.8005
5.570587 100.315 -88.3800
5.610953 100.386 -88.9585
5.651613 100.455 -89.5346
5.692567 100.522 -90.1065
5.733818 100.587 -90.6722
5.775367 100.651 -91.2298
5.817218 100.713 -91.7776
5.859372 100.773 -92.3150
5.901831 100.831 -92.8417
5.944598 100.887 -93.3580
5.987675 100.942 -93.8637
6.031065 100.996 -94.3585
6.074768 101.048 -94.8416
6.118788 101.099 -95.3120
6.163127 101.150 -95.7688
6.207788 101.200 -96.2112
6.252772 101.249 -96.6387
6.298082 101.298 -97.0517
6.343721 101.346 -97.4505
6.389690 101.395 -97.8360
6.435992 101.443 -98.2092
6.482630 101.492 -98.5709
6.529606 101.541 -98.9218
6.576922 101.590 -99.2623
6.624581 101.641 -99.5928
6.672585 101.692 -99.9138
6.720938 101.744 -100.2261
6.769640 101.796 -100.5312
6.818696 101.849 -100.8308
6.868107 101.903 -101.1266
6.917876 101.958 -101.4200
6.968006 102.014 -101.7121
7.018499 102.070 -102.0035
7.069358 102.127 -102.2948
7.120586 102.185 -102.5868
7.172184 102.243 -102.8803
7.224157 102.301 -103.1766
7.276506 102.359 -103.4766
7.329235 102.417 -103.7811
7.382345 102.474 -104.0905
7.435841 102.532 -104.4047
7.489724 102.588 -104.7235
7.543997 102.644 -105.0468
7.598664 102.700 -105.3742
7.653728 102.754 -105.7056
7.709189 102.807 -106.0407
7.765053 102.858 -106.3793
7.821322 102.909 -106.7210
7.877998 102.958 -107.0649
7.935086 103.005 -107.4101
7.992587 103.051 -107.7557
8.050504 103.096 -108.1008
8.108841 103.140 -108.4451
8.167601 103.181 -108.7881
8.226787 103.222 -109.1293
8.286402 103.261 -109.4683
8.346449 103.300 -109.8045
8.406931 103.337 -110.1373
8.467851 103.373 -110.4665
8.529212 103.409 -110.7922
8.591018 103.443 -111.1145
8.653272 103.478 -111.4338
8.715977 103.511 -111.7504
8.779137 103.545 -112.0647
8.842754 103.578 -112.3771
8.906833 103.611 -112.6880
8.971375 103.644 -112.9981
9.036386 103.677 -113.3084
9.101867 103.710 -113.6196
9.167823 103.742 -113.9325
9.234257 103.775 -114.2477
9.301172 103.807 -114.5656
9.368572 103.840 -114.8868
9.436460 103.871 -115.2117
9.504841 103.903 -115.5408
9.573717 103.934 -115.8744
9.643092 103.965 -116.2125
9.712970 103.995 -116.5549
9.783354 104.024 -116.9015
9.854248 104.053 -117.2518
9.925656 104.081 -117.6057
9.997581 104.108 -117.9626
10.070028 104.134 -118.3220
10.143000 104.160 -118.6833
10.216500 104.184 -119.0458
10.290533 104.208 -119.4088
10.365103 104.231 -119.7720
10.440212 104.254 -120.1348
10.515866 104.276 -120.4968
10.592069 104.298 -120.8577
10.668823 104.320 -121.2172
10.746134 104.341 -121.5751
10.824005 104.362 -121.9316
10.902440 104.384 -122.2868
10.981443 104.406 -122.6410
11.061020 104.428 -122.9943
11.141172 104.450 -123.3472
11.221906 104.473 -123.7001
11.303225 104.497 -124.0534
11.385133 104.520 -124.4075
11.467634 104.545 -124.7628
11.550734 104.569 -125.1197
11.634435 104.595 -125.4782
11.718742 104.620 -125.8386
11.803661 104.646 -126.2010
11.889195 104.672 -126.5652
11.975349 104.698 -126.9310
12.062128 104.725 -127.2982
12.149535 104.752 -127.6665
12.237576 104.778 -128.0355
12.326254 104.805 -128.4048
12.415575 104.832 -128.7738
12.505544 104.859 -129.1422
12.596164 104.886 -129.5095
12.687441 104.913 -129.8755
12.779379 104.940 -130.2397
12.871984 104.967 -130.6020
12.965260 104.995 -130.9621
13.059211 105.022 -131.3200
13.153843 105.050 -131.6755
13.249161 105.078 -132.0286
13.345170 105.107 -132.3793
13.441875 105.135 -132.7275
13.539280 105.163 -133.0734
13.637391 105.192 -133.4167
13.736214 105.221 -133.7576
13.835752 105.249 -134.0959
13.936011 105.278 -134.4315
14.036998 105.306 -134.7643
14.138716 105.335 -135.0942
14.241171 105.363 -135.4212
14.344368 105.391 -135.7452
14.448313 105.419 -136.0660
14.553011 105.447 -136.3838
14.658468 105.474 -136.6986
14.764689 105.501 -137.0105
14.871680 105.528 -137.3195
14.979446 105.555 -137.6261
15.087994 105.581 -137.9301
15.197328 105.607 -138.2319
15.307454 105.632 -138.5316
15.418378 105.657 -138.8292
15.530106 105.681 -139.1248
15.642643 105.704 -139.4183
15.755996 105.726 -139.7097
15.870171 105.748 -139.9988
15.985172 105.769 -140.2853
16.101007 105.789 -140.5692
16.217682 105.808 -140.8502
16.335201 105.827 -141.1283
16.453573 105.844 -141.4032
16.572803 105.861 -141.6751
16.692898 105.877 -141.9440
16.813862 105.893 -142.2101
16.935701 105.908 -142.4736
17.058424 105.923 -142.7349
17.182035 105.937 -142.9943
17.306543 105.951 -143.2523
17.431953 105.964 -143.5092
17.558273 105.977 -143.7655
17.685509 105.990 -144.0215
17.813665 106.003 -144.2779
17.942751 106.016 -144.5350
18.072771 106.028 -144.7936
18.203733 106.041 -145.0541
18.335646 106.054 -145.3172
18.468513 106.066 -145.5837
18.602345 106.079 -145.8542
18.737144 106.091 -146.1293
18.872921 106.104 -146.4094
19.009682 106.116 -146.6945
19.147434 106.128 -146.9847
19.286184 106.140 -147.2792
19.425940 106.150 -147.5773
19.566708 106.161 -147.8777
19.708496 106.170 -148.1792
19.851313 106.180 -148.4801
19.995163 106.188 -148.7794
20.140057 106.197 -149.0761
20.285999 106.206 -149.3699
20.433001 106.216 -149.6610
20.581066 106.226 -149.9505
20.730206 106.237 -150.2396
20.880424 106.249 -150.5302
21.031733 106.261 -150.8240
21.184137 106.274 -151.1222
21.337646 106.287 -151.4255
21.492268 106.299 -151.7332
21.648010 106.311 -152.0434
21.804880 106.321 -152.3530
21.962887 106.329 -152.6575
22.122040 106.335 -152.9521
22.282345 106.340 -153.2319
22.443811 106.344 -153.4925
22.606449 106.347 -153.7312
22.770266 106.352 -153.9472
22.935268 106.359 -154.1419
23.101467 106.368 -154.3195
23.268869 106.381 -154.4858
23.437485 106.397 -154.6485
23.607323 106.417 -154.8151
23.778391 106.440 -154.9928
23.950699 106.465 -155.1869
24.124256 106.490 -155.4001
24.299070 106.515 -155.6326
24.475151 106.538 -155.8817
24.652508 106.559 -156.1430
24.831150 106.576 -156.4107
25.011087 106.590 -156.6790
25.192327 106.602 -156.9431
25.374882 106.612 -157.1997
25.558758 106.621 -157.4476
25.743967 106.629 -157.6878
25.930519 106.637 -157.9227
26.118422 106.645 -158.1556
26.307686 106.653 -158.3898
26.498322 106.661 -158.6277
26.690340 106.668 -158.8705
26.883749 106.674 -159.1176
27.078560 106.679 -159.3675
27.274782 106.683 -159.6180
27.472427 106.685 -159.8668
27.671503 106.687 -160.1123
27.872023 106.688 -160.3542
28.073996 106.690 -160.5930
28.277431 106.692 -160.8304
28.482342 106.695 -161.0682
28.688736 106.698 -161.3078
28.896626 106.701 -161.5500
29.106022 106.704 -161.7943
29.316936 106.707 -162.0392
29.529379 106.710 -162.2828
29.743361 106.713 -162.5233
29.958893 106.717 -162.7596
30.175987 106.721 -162.9918
30.394655 106.727 -163.2213
30.614908 106.734 -163.4504
30.836756 106.742 -163.6817
31.060211 106.752 -163.9176
31.285286 106.762 -164.1592
31.511992 106.772 -164.4063
31.740341 106.781 -164.6575
31.970345 106.790 -164.9102
32.202015 106.797 -165.1612
32.435364 106.804 -165.4078
32.670403 106.810 -165.6480
32.907146 106.816 -165.8808
33.145607 106.822 -166.1068
33.385796 106.828 -166.3274
33.627724 106.835 -166.5450
33.871403 106.842 -166.7626
34.116848 106.850 -166.9831
34.364071 106.857 -167.2089
34.613087 106.863 -167.4413
34.863907 106.869 -167.6802
35.116547 106.872 -167.9238
35.371017 106.873 -168.1685
35.627331 106.872 -168.4098
35.885502 106.869 -168.6431
36.145542 106.865 -168.8648
36.407467 106.860 -169.0737
36.671291 106.856 -169.2717
36.937027 106.853 -169.4632
37.204689 106.851 -169.6539
37.474289 106.851 -169.8497
37.745842 106.852 -170.0542
38.019363 106.854 -170.2681
38.294868 106.854 -170.4889
38.572369 106.854 -170.7127
38.851879 106.853 -170.9355
39.133415 106.853 -171.1551
39.416992 106.853 -171.3718
39.702625 106.854 -171.5883
39.990326 106.857 -171.8078
40.280113 106.860 -172.0322
40.571999 106.863 -172.2608
40.866001 106.865 -172.4910
41.162132 106.868 -172.7193
41.460411 106.870 -172.9435
41.760849 106.873 -173.1649
42.063465 106.876 -173.3876
42.368275 106.881 -173.6170
42.675293 106.884 -173.8568
42.984535 106.885 -174.1065
43.296021 106.883 -174.3601
43.609760 106.878 -174.6080
43.925774 106.868 -174.8396
44.244080 106.856 -175.0472
44.564690 106.844 -175.2287
44.887623 106.832 -175.3874
45.212898 106.823 -175.5312
45.540531 106.816 -175.6693
45.870537 106.812 -175.8109
46.202934 106.810 -175.9624
46.537739 106.809 -176.1277
46.874969 106.808 -176.3074
47.214645 106.806 -176.4984
47.556782 106.803 -176.6947
47.901398 106.800 -176.8898
48.248512 106.798 -177.0791
48.598141 106.797 -177.2636
48.950302 106.798 -177.4502
49.305016 106.802 -177.6484
49.662300 106.807 -177.8652
50.022175 106.811 -178.1003
50.384655 106.813 -178.3447
50.749763 106.810 -178.5858
51.117516 106.805 -178.8129
51.487934 106.799 -179.0230
51.861038 106.791 -179.2196
52.236843 106.783 -179.4073
52.615372 106.772 -179.5854
52.996643 106.758 -179.7457
53.380680 106.742 -179.8778
53.767498 106.727 -179.9766
54.157120 106.715 179.9507
54.549564 106.709 179.8866
54.944855 106.709 179.8094
55.343006 106.713 179.7026
55.744045 106.720 179.5587
56.147991 106.727 179.3793
56.554863 106.734 179.1711
56.964684 106.741 178.9431
57.377472 106.747 178.7045
57.793251 106.753 178.4636
58.212044 106.760 178.2255
58.633873 106.768 177.9897
59.058758 106.777 177.7512
59.486721 106.787 177.5044
59.917786 106.794 177.2479
60.351974 106.798 176.9865
60.789310 106.796 176.7291
61.229816 106.787 176.4846
61.673512 106.774 176.2585
62.120422 106.755 176.0524
62.570572 106.732 175.8641
63.023983 106.707 175.6884
63.480682 106.681 175.5157
63.940689 106.656 175.3344
64.404030 106.632 175.1328
64.870728 106.610 174.9036
65.340805 106.590 174.6468
65.814293 106.572 174.3706
66.291214 106.559 174.0898
66.771591 106.553 173.8212
67.255447 106.557 173.5753
67.742805 106.575 173.3484
68.233696 106.609 173.1192
68.728142 106.658 172.8556
69.226173 106.716 172.5294
69.727814 106.772 172.1320
70.233093 106.818 171.6809
70.742035 106.846 171.2175
71.254662 106.850 170.7974
71.771004 106.832 170.4778
72.291084 106.796 170.3011
72.814934 106.752 170.2784
73.342583 106.707 170.3810
73.874054 106.667 170.5509
74.409378 106.634 170.7245
74.948578 106.606 170.8546
75.491684 106.580 170.9140
76.038727 106.555 170.8875
76.589737 106.528 170.7673
77.144737 106.497 170.5576
