* Measurement data measured by REW V5.30.9
* Source: EXCL: Microphone (USB Sound Device        ), no input selected, L, volume: no control
* Format: 256k Log Swept Sine, 1 sweep at -9.0 dBFS with no timing reference
* Dated: Mar 24, 2024 3:26:23 PM
* REW Settings:
*  C-weighting compensation: Off
*  Target level: 75.0 dB
* Note: L Shozy P20 Shortbus
* Measurement: L Shozy Shortbus P20
* Smoothing: 1/12 octave
* Frequency Step: 96 ppo
* Start Frequency: 0.36621094 Hz
*
* Freq(Hz) SPL(dB) Phase(degrees)
0.366211 85.061 158.8379
0.368865 85.054 158.8153
0.371538 85.045 158.7815
0.374230 85.033 158.7390
0.376942 85.020 158.6901
0.379673 85.006 158.6362
0.382424 84.991 158.5786
0.385196 84.976 158.5178
0.387987 84.960 158.4543
0.390798 84.944 158.3881
0.393630 84.928 158.3194
0.396483 84.912 158.2483
0.399356 84.896 158.1747
0.402250 84.880 158.0987
0.405165 84.864 158.0201
0.408101 84.847 157.9391
0.411058 84.830 157.8556
0.414037 84.814 157.7694
0.417037 84.797 157.6808
0.420059 84.780 157.5895
0.423103 84.763 157.4955
0.426169 84.745 157.3990
0.429257 84.728 157.2997
0.432367 84.711 157.1978
0.435501 84.693 157.0931
0.438656 84.675 156.9856
0.441835 84.657 156.8754
0.445037 84.639 156.7624
0.448262 84.621 156.6466
0.451510 84.603 156.5279
0.454782 84.585 156.4064
0.458077 84.566 156.2820
0.461397 84.547 156.1546
0.464740 84.529 156.0244
0.468108 84.510 155.8912
0.471500 84.491 155.7550
0.474917 84.471 155.6159
0.478358 84.452 155.4738
0.481825 84.433 155.3286
0.485316 84.413 155.1804
0.488833 84.393 155.0292
0.492375 84.373 154.8749
0.495943 84.353 154.7175
0.499537 84.333 154.5571
0.503157 84.313 154.3936
0.506803 84.292 154.2269
0.510475 84.272 154.0572
0.514174 84.251 153.8844
0.517900 84.230 153.7084
0.521653 84.209 153.5294
0.525433 84.187 153.3472
0.529241 84.166 153.1619
0.533076 84.144 152.9736
0.536939 84.123 152.7821
0.540830 84.101 152.5875
0.544749 84.079 152.3898
0.548696 84.057 152.1891
0.552673 84.034 151.9854
0.556677 84.012 151.7786
0.560711 83.989 151.5688
0.564774 83.966 151.3560
0.568867 83.943 151.1403
0.572989 83.920 150.9216
0.577141 83.897 150.7001
0.581324 83.873 150.4757
0.585536 83.850 150.2485
0.589779 83.826 150.0186
0.594053 83.802 149.7859
0.598358 83.777 149.5506
0.602694 83.753 149.3127
0.607061 83.729 149.0723
0.611460 83.704 148.8294
0.615891 83.679 148.5842
0.620354 83.654 148.3366
0.624849 83.629 148.0869
0.629377 83.603 147.8349
0.633938 83.577 147.5811
0.638532 83.552 147.3252
0.643159 83.526 147.0676
0.647819 83.499 146.8083
0.652514 83.473 146.5475
0.657242 83.446 146.2852
0.662005 83.420 146.0217
0.666802 83.393 145.7570
0.671634 83.366 145.4913
0.676501 83.338 145.2249
0.681403 83.311 144.9578
0.686341 83.283 144.6903
0.691314 83.255 144.4225
0.696324 83.226 144.1546
0.701369 83.198 143.8869
0.706452 83.169 143.6193
0.711571 83.139 143.3520
0.716727 83.109 143.0849
0.721921 83.077 142.8179
0.727153 83.043 142.5502
0.732422 83.007 142.2813
0.737729 82.969 142.0101
0.743075 82.928 141.7354
0.748460 82.886 141.4565
0.753883 82.842 141.1724
0.759346 82.796 140.8828
0.764849 82.750 140.5871
0.770391 82.703 140.2852
0.775974 82.655 139.9768
0.781597 82.606 139.6619
0.787261 82.557 139.3402
0.792965 82.507 139.0117
0.798712 82.457 138.6763
0.804499 82.405 138.3338
0.810329 82.353 137.9842
0.816201 82.301 137.6274
0.822116 82.247 137.2633
0.828073 82.193 136.8918
0.834073 82.137 136.5128
0.840118 82.081 136.1263
0.846205 82.024 135.7322
0.852337 81.966 135.3304
0.858514 81.907 134.9208
0.864735 81.848 134.5035
0.871001 81.787 134.0783
0.877313 81.725 133.6452
0.883670 81.661 133.2043
0.890074 81.597 132.7553
0.896523 81.531 132.2985
0.903020 81.465 131.8337
0.909564 81.397 131.3609
0.916155 81.327 130.8803
0.922793 81.256 130.3918
0.929480 81.184 129.8955
0.936216 81.111 129.3915
0.943000 81.035 128.8799
0.949833 80.959 128.3608
0.956716 80.880 127.8343
0.963649 80.800 127.3007
0.970632 80.718 126.7600
0.977666 80.635 126.2126
0.984750 80.549 125.6586
0.991886 80.462 125.0984
0.999074 80.372 124.5323
1.006313 80.281 123.9606
1.013605 80.188 123.3837
1.020950 80.092 122.8022
1.028349 79.994 122.2163
1.035801 79.894 121.6267
1.043306 79.791 121.0339
1.050867 79.686 120.4386
1.058482 79.578 119.8412
1.066152 79.467 119.2423
1.073878 79.354 118.6423
1.081659 79.237 118.0416
1.089498 79.116 117.4400
1.097393 78.992 116.8370
1.105345 78.862 116.2317
1.113355 78.728 115.6229
1.121422 78.587 115.0091
1.129549 78.441 114.3892
1.137734 78.288 113.7619
1.145978 78.129 113.1259
1.154283 77.964 112.4804
1.162647 77.793 111.8241
1.171072 77.616 111.1559
1.179558 77.434 110.4748
1.188106 77.246 109.7794
1.196715 77.054 109.0685
1.205387 76.857 108.3408
1.214122 76.656 107.5946
1.222920 76.452 106.8285
1.231781 76.243 106.0408
1.240708 76.032 105.2296
1.249698 75.819 104.3929
1.258754 75.603 103.5286
1.267875 75.385 102.6346
1.277063 75.167 101.7084
1.286317 74.947 100.7473
1.295638 74.728 99.7486
1.305027 74.509 98.7093
1.314484 74.291 97.6263
1.324009 74.075 96.4963
1.333603 73.861 95.3155
1.343267 73.650 94.0803
1.353001 73.443 92.7869
1.362805 73.241 91.4310
1.372681 73.043 90.0086
1.382628 72.852 88.5154
1.392647 72.668 86.9471
1.402739 72.491 85.2995
1.412904 72.323 83.5685
1.423142 72.164 81.7503
1.433455 72.015 79.8409
1.443842 71.876 77.8366
1.454305 71.749 75.7333
1.464843 71.632 73.5259
1.475458 71.525 71.2084
1.486150 71.429 68.7738
1.496919 71.341 66.2145
1.507766 71.263 63.5231
1.518692 71.192 60.6930
1.529697 71.130 57.7190
1.540782 71.076 54.5979
1.551947 71.029 51.3289
1.563193 70.990 47.9147
1.574521 70.959 44.3615
1.585931 70.935 40.6802
1.597423 70.919 36.8861
1.608998 70.910 32.9991
1.620658 70.909 29.0435
1.632402 70.914 25.0469
1.644231 70.927 21.0395
1.656146 70.946 17.0522
1.668147 70.973 13.1154
1.680235 71.005 9.2576
1.692410 71.045 5.5037
1.704674 71.090 1.8748
1.717027 71.142 -1.6127
1.729469 71.200 -4.9472
1.742002 71.264 -8.1214
1.754625 71.333 -11.1321
1.767340 71.408 -13.9798
1.780147 71.489 -16.6683
1.793046 71.576 -19.2040
1.806040 71.670 -21.5961
1.819127 71.772 -23.8563
1.832309 71.882 -25.9980
1.845587 72.004 -28.0355
1.858961 72.137 -29.9822
1.872431 72.283 -31.8493
1.886000 72.442 -33.6453
1.899666 72.614 -35.3764
1.913432 72.799 -37.0471
1.927298 72.994 -38.6606
1.941264 73.201 -40.2193
1.955331 73.416 -41.7250
1.969500 73.640 -43.1791
1.983772 73.870 -44.5825
1.998147 74.106 -45.9362
2.012626 74.346 -47.2407
2.027211 74.589 -48.4964
2.041901 74.833 -49.7037
2.056697 75.077 -50.8628
2.071601 75.318 -51.9739
2.086613 75.556 -53.0370
2.101733 75.790 -54.0523
2.116963 76.016 -55.0201
2.132303 76.235 -55.9409
2.147755 76.444 -56.8160
2.163318 76.643 -57.6473
2.178995 76.831 -58.4378
2.194785 77.009 -59.1917
2.210689 77.176 -59.9144
2.226709 77.335 -60.6114
2.242844 77.485 -61.2871
2.259097 77.628 -61.9449
2.275467 77.764 -62.5870
2.291956 77.894 -63.2143
2.308565 78.018 -63.8275
2.325294 78.138 -64.4262
2.342144 78.252 -65.0101
2.359116 78.362 -65.5786
2.376211 78.469 -66.1307
2.393430 78.572 -66.6655
2.410774 78.671 -67.1819
2.428243 78.769 -67.6786
2.445839 78.864 -68.1545
2.463562 78.958 -68.6083
2.481415 79.051 -69.0386
2.499396 79.143 -69.4445
2.517508 79.234 -69.8251
2.535750 79.325 -70.1799
2.554126 79.415 -70.5093
2.572634 79.504 -70.8139
2.591276 79.592 -71.0953
2.610054 79.677 -71.3550
2.628967 79.759 -71.5947
2.648018 79.839 -71.8156
2.667206 79.916 -72.0190
2.686534 79.991 -72.2060
2.706002 80.064 -72.3773
2.725610 80.135 -72.5338
2.745361 80.205 -72.6761
2.765255 80.273 -72.8048
2.785294 80.342 -72.9206
2.805477 80.410 -73.0239
2.825807 80.478 -73.1151
2.846284 80.547 -73.1945
2.866909 80.617 -73.2620
2.887684 80.689 -73.3176
2.908609 80.762 -73.3607
2.929686 80.836 -73.3905
2.950916 80.912 -73.4061
2.972299 80.988 -73.4069
2.993838 81.065 -73.3929
3.015532 81.143 -73.3646
3.037384 81.221 -73.3233
3.059394 81.300 -73.2706
3.081564 81.379 -73.2084
3.103894 81.459 -73.1387
3.126386 81.540 -73.0637
3.149041 81.622 -72.9854
3.171861 81.705 -72.9061
3.194845 81.789 -72.8274
3.217996 81.875 -72.7510
3.241315 81.962 -72.6780
3.264803 82.051 -72.6086
3.288461 82.142 -72.5424
3.312291 82.235 -72.4785
3.336293 82.330 -72.4154
3.360469 82.427 -72.3525
3.384820 82.525 -72.2899
3.409348 82.626 -72.2285
3.434054 82.727 -72.1697
3.458938 82.830 -72.1155
3.484003 82.934 -72.0680
3.509250 83.039 -72.0294
3.534679 83.144 -72.0020
3.560293 83.249 -71.9878
3.586092 83.354 -71.9885
3.612079 83.460 -72.0055
3.638253 83.565 -72.0395
3.664618 83.670 -72.0906
3.691173 83.775 -72.1581
3.717921 83.881 -72.2411
3.744862 83.986 -72.3386
3.771999 84.091 -72.4496
3.799332 84.197 -72.5735
3.826864 84.302 -72.7096
3.854595 84.406 -72.8576
3.882527 84.510 -73.0171
3.910661 84.613 -73.1882
3.938999 84.714 -73.3707
3.967543 84.813 -73.5647
3.996294 84.911 -73.7707
4.025252 85.007 -73.9890
4.054421 85.102 -74.2199
4.083801 85.194 -74.4635
4.113394 85.284 -74.7195
4.143201 85.373 -74.9869
4.173225 85.460 -75.2646
4.203466 85.545 -75.5509
4.233926 85.628 -75.8445
4.264606 85.710 -76.1437
4.295509 85.789 -76.4475
4.326636 85.866 -76.7547
4.357989 85.941 -77.0652
4.389569 86.014 -77.3789
4.421378 86.084 -77.6966
4.453417 86.152 -78.0186
4.485688 86.217 -78.3451
4.518193 86.280 -78.6755
4.550934 86.341 -79.0086
4.583912 86.399 -79.3430
4.617129 86.456 -79.6767
4.650587 86.511 -80.0081
4.684287 86.564 -80.3356
4.718231 86.616 -80.6579
4.752421 86.666 -80.9747
4.786859 86.714 -81.2859
4.821547 86.760 -81.5919
4.856485 86.805 -81.8931
4.891677 86.848 -82.1898
4.927125 86.890 -82.4817
4.962829 86.931 -82.7684
4.998791 86.971 -83.0495
5.035015 87.010 -83.3241
5.071500 87.049 -83.5915
5.108251 87.087 -83.8512
5.145267 87.125 -84.1030
5.182552 87.164 -84.3467
5.220107 87.202 -84.5829
5.257934 87.240 -84.8122
5.296035 87.277 -85.0358
5.334412 87.316 -85.2546
5.373067 87.354 -85.4698
5.412003 87.394 -85.6821
5.451221 87.434 -85.8921
5.490722 87.475 -86.1001
5.530510 87.517 -86.3062
5.570587 87.561 -86.5105
5.610953 87.605 -86.7137
5.651613 87.651 -86.9170
5.692567 87.697 -87.1218
5.733818 87.744 -87.3298
5.775367 87.793 -87.5425
5.817218 87.842 -87.7613
5.859372 87.893 -87.9869
5.901831 87.944 -88.2197
5.944598 87.997 -88.4597
5.987675 88.050 -88.7073
6.031065 88.104 -88.9630
6.074768 88.159 -89.2274
6.118788 88.214 -89.5013
6.163127 88.269 -89.7857
6.207788 88.325 -90.0811
6.252772 88.380 -90.3879
6.298082 88.435 -90.7061
6.343721 88.490 -91.0353
6.389690 88.545 -91.3749
6.435992 88.600 -91.7241
6.482630 88.654 -92.0823
6.529606 88.707 -92.4490
6.576922 88.759 -92.8238
6.624581 88.811 -93.2066
6.672585 88.861 -93.5970
6.720938 88.911 -93.9943
6.769640 88.959 -94.3975
6.818696 89.007 -94.8053
6.868107 89.054 -95.2162
6.917876 89.099 -95.6292
6.968006 89.144 -96.0436
7.018499 89.187 -96.4588
7.069358 89.230 -96.8744
7.120586 89.272 -97.2898
7.172184 89.313 -97.7040
7.224157 89.353 -98.1161
7.276506 89.393 -98.5251
7.329235 89.433 -98.9303
7.382345 89.472 -99.3313
7.435841 89.512 -99.7280
7.489724 89.551 -100.1205
7.543997 89.591 -100.5088
7.598664 89.630 -100.8930
7.653728 89.671 -101.2729
7.709189 89.712 -101.6487
7.765053 89.753 -102.0205
7.821322 89.796 -102.3886
7.877998 89.839 -102.7538
7.935086 89.883 -103.1168
7.992587 89.928 -103.4782
8.050504 89.975 -103.8388
8.108841 90.022 -104.1989
8.167601 90.070 -104.5590
8.226787 90.119 -104.9197
8.286402 90.169 -105.2815
8.346449 90.220 -105.6450
8.406931 90.271 -106.0109
8.467851 90.324 -106.3795
8.529212 90.376 -106.7508
8.591018 90.430 -107.1250
8.653272 90.483 -107.5018
8.715977 90.537 -107.8813
8.779137 90.590 -108.2634
8.842754 90.644 -108.6478
8.906833 90.698 -109.0342
8.971375 90.751 -109.4220
9.036386 90.804 -109.8107
9.101867 90.857 -110.1995
9.167823 90.909 -110.5879
9.234257 90.961 -110.9753
9.301172 91.012 -111.3611
9.368572 91.063 -111.7448
9.436460 91.114 -112.1257
9.504841 91.164 -112.5030
9.573717 91.213 -112.8765
9.643092 91.263 -113.2457
9.712970 91.311 -113.6104
9.783354 91.360 -113.9704
9.854248 91.408 -114.3255
9.925656 91.457 -114.6755
9.997581 91.505 -115.0206
10.070028 91.553 -115.3609
10.143000 91.600 -115.6966
10.216500 91.648 -116.0279
10.290533 91.696 -116.3552
10.365103 91.743 -116.6786
10.440212 91.791 -116.9986
10.515866 91.838 -117.3154
10.592069 91.886 -117.6294
10.668823 91.933 -117.9409
10.746134 91.980 -118.2502
10.824005 92.026 -118.5573
10.902440 92.073 -118.8626
10.981443 92.119 -119.1661
11.061020 92.164 -119.4679
11.141172 92.209 -119.7682
11.221906 92.253 -120.0669
11.303225 92.297 -120.3640
11.385133 92.340 -120.6595
11.467634 92.383 -120.9535
11.550734 92.425 -121.2459
11.634435 92.466 -121.5368
11.718742 92.507 -121.8262
11.803661 92.547 -122.1141
11.889195 92.586 -122.4008
11.975349 92.625 -122.6862
12.062128 92.663 -122.9706
12.149535 92.701 -123.2541
12.237576 92.737 -123.5369
12.326254 92.773 -123.8191
12.415575 92.809 -124.1010
12.505544 92.843 -124.3827
12.596164 92.877 -124.6643
12.687441 92.910 -124.9459
12.779379 92.943 -125.2277
12.871984 92.975 -125.5098
12.965260 93.006 -125.7921
13.059211 93.036 -126.0748
13.153843 93.066 -126.3579
13.249161 93.095 -126.6415
13.345170 93.124 -126.9256
13.441875 93.152 -127.2105
13.539280 93.179 -127.4961
13.637391 93.206 -127.7829
13.736214 93.233 -128.0708
13.835752 93.259 -128.3603
13.936011 93.285 -128.6516
14.036998 93.310 -128.9450
14.138716 93.335 -129.2407
14.241171 93.360 -129.5389
14.344368 93.385 -129.8399
14.448313 93.409 -130.1438
14.553011 93.433 -130.4506
14.658468 93.456 -130.7603
14.764689 93.480 -131.0728
14.871680 93.503 -131.3879
14.979446 93.525 -131.7054
15.087994 93.548 -132.0250
15.197328 93.570 -132.3463
15.307454 93.592 -132.6691
15.418378 93.614 -132.9931
15.530106 93.635 -133.3180
15.642643 93.657 -133.6438
15.755996 93.679 -133.9702
15.870171 93.701 -134.2974
15.985172 93.723 -134.6252
16.101007 93.745 -134.9537
16.217682 93.767 -135.2830
16.335201 93.790 -135.6131
16.453573 93.813 -135.9438
16.572803 93.836 -136.2752
16.692898 93.859 -136.6070
16.813862 93.882 -136.9388
16.935701 93.906 -137.2703
17.058424 93.929 -137.6011
17.182035 93.952 -137.9306
17.306543 93.976 -138.2585
17.431953 93.999 -138.5843
17.558273 94.023 -138.9077
17.685509 94.047 -139.2285
17.813665 94.071 -139.5466
17.942751 94.095 -139.8621
18.072771 94.119 -140.1749
18.203733 94.143 -140.4853
18.335646 94.167 -140.7934
18.468513 94.191 -141.0991
18.602345 94.215 -141.4025
18.737144 94.239 -141.7034
18.872921 94.263 -142.0014
19.009682 94.286 -142.2961
19.147434 94.308 -142.5872
19.286184 94.331 -142.8743
19.425940 94.353 -143.1572
19.566708 94.374 -143.4358
19.708496 94.396 -143.7104
19.851313 94.417 -143.9815
19.995163 94.438 -144.2499
20.140057 94.459 -144.5167
20.285999 94.480 -144.7828
20.433001 94.500 -145.0492
20.581066 94.520 -145.3165
20.730206 94.540 -145.5852
20.880424 94.558 -145.8550
21.031733 94.576 -146.1255
21.184137 94.592 -146.3958
21.337646 94.607 -146.6646
21.492268 94.621 -146.9310
21.648010 94.634 -147.1941
21.804880 94.646 -147.4535
21.962887 94.659 -147.7097
22.122040 94.671 -147.9636
22.282345 94.683 -148.2168
22.443811 94.696 -148.4713
22.606449 94.709 -148.7293
22.770266 94.722 -148.9924
22.935268 94.734 -149.2617
23.101467 94.747 -149.5372
23.268869 94.758 -149.8181
23.437485 94.768 -150.1025
23.607323 94.777 -150.3879
23.778391 94.786 -150.6717
23.950699 94.793 -150.9517
24.124256 94.801 -151.2266
24.299070 94.809 -151.4966
24.475151 94.817 -151.7631
24.652508 94.827 -152.0286
24.831150 94.839 -152.2964
25.011087 94.851 -152.5695
25.192327 94.864 -152.8503
25.374882 94.877 -153.1393
25.558758 94.889 -153.4353
25.743967 94.901 -153.7352
25.930519 94.910 -154.0345
26.118422 94.919 -154.3281
26.307686 94.926 -154.6120
26.498322 94.933 -154.8833
26.690340 94.941 -155.1420
26.883749 94.950 -155.3905
27.078560 94.961 -155.6336
27.274782 94.974 -155.8771
27.472427 94.989 -156.1266
27.671503 95.004 -156.3861
27.872023 95.019 -156.6566
28.073996 95.032 -156.9357
28.277431 95.042 -157.2181
28.482342 95.050 -157.4967
28.688736 95.055 -157.7640
28.896626 95.059 -158.0147
29.106022 95.062 -158.2466
29.316936 95.067 -158.4617
29.529379 95.074 -158.6664
29.743361 95.083 -158.8696
29.958893 95.095 -159.0811
30.175987 95.109 -159.3086
30.394655 95.122 -159.5563
30.614908 95.134 -159.8231
30.836756 95.142 -160.1030
31.060211 95.147 -160.3867
31.285286 95.148 -160.6637
31.511992 95.147 -160.9251
31.740341 95.145 -161.1663
31.970345 95.144 -161.3882
32.202015 95.145 -161.5972
32.435364 95.150 -161.8036
32.670403 95.158 -162.0188
32.907146 95.169 -162.2522
33.145607 95.179 -162.5082
33.385796 95.189 -162.7856
33.627724 95.195 -163.0774
33.871403 95.198 -163.3734
34.116848 95.198 -163.6630
34.364071 95.196 -163.9381
34.613087 95.193 -164.1950
34.863907 95.190 -164.4349
35.116547 95.190 -164.6629
35.371017 95.190 -164.8855
35.627331 95.193 -165.1081
35.885502 95.196 -165.3337
36.145542 95.200 -165.5625
36.407467 95.203 -165.7936
36.671291 95.207 -166.0263
36.937027 95.211 -166.2616
37.204689 95.215 -166.5025
37.474289 95.219 -166.7522
37.745842 95.222 -167.0123
38.019363 95.223 -167.2812
38.294868 95.222 -167.5533
38.572369 95.217 -167.8207
38.851879 95.209 -168.0752
39.133415 95.200 -168.3103
39.416992 95.190 -168.5230
39.702625 95.181 -168.7133
39.990326 95.175 -168.8839
40.280113 95.172 -169.0398
40.571999 95.173 -169.1886
40.866001 95.179 -169.3413
41.162132 95.190 -169.5115
41.460411 95.204 -169.7131
41.760849 95.220 -169.9558
42.063465 95.235 -170.2415
42.368275 95.246 -170.5636
42.675293 95.250 -170.9099
42.984535 95.249 -171.2686
43.296021 95.241 -171.6321
43.609760 95.225 -171.9945
43.925774 95.201 -172.3430
44.244080 95.164 -172.6471
44.564690 95.116 -172.8542
44.887623 95.062 -172.9026
45.212898 95.015 -172.7510
45.540531 94.995 -172.4174
45.870537 95.019 -172.0031
46.202934 95.093 -171.6789
46.537739 95.206 -171.6267
46.874969 95.332 -171.9648
47.214645 95.437 -172.7014
47.556782 95.493 -173.7336
47.901398 95.485 -174.8834
48.248512 95.410 -175.9457
48.598141 95.282 -176.7349
48.950302 95.126 -177.1237
49.305016 94.972 -177.0718
49.662300 94.852 -176.6376
50.022175 94.785 -175.9675
50.384655 94.782 -175.2569
50.749763 94.833 -174.6933
51.117516 94.920 -174.4033
51.487934 95.016 -174.4244
51.861038 95.102 -174.7109
52.236843 95.163 -175.1651
52.615372 95.199 -175.6794
52.996643 95.214 -176.1727
53.380680 95.219 -176.6099
53.767498 95.220 -176.9980
54.157120 95.222 -177.3655
54.549564 95.223 -177.7376
54.944855 95.221 -178.1234
55.343006 95.213 -178.5161
55.744045 95.200 -178.9028
56.147991 95.180 -179.2723
56.554863 95.156 -179.6183
56.964684 95.129 -179.9374
57.377472 95.099 179.7730
57.793251 95.068 179.5150
58.212044 95.036 179.2892
58.633873 95.004 179.0942
59.058758 94.975 178.9263
59.486721 94.948 178.7796
59.917786 94.925 178.6470
60.351974 94.904 178.5217
60.789310 94.886 178.3982
61.229816 94.870 178.2737
61.673512 94.855 178.1481
62.120422 94.842 178.0225
62.570572 94.830 177.8994
63.023983 94.819 177.7803
63.480682 94.810 177.6654
63.940689 94.803 177.5526
64.404030 94.798 177.4370
64.870728 94.796 177.3136
65.340805 94.796 177.1773
65.814293 94.797 177.0240
66.291214 94.799 176.8494
66.771591 94.801 176.6498
67.255447 94.800 176.4238
67.742805 94.797 176.1749
68.233696 94.788 175.9140
68.728142 94.774 175.6560
69.226173 94.756 175.4160
69.727814 94.736 175.2030
70.233093 94.716 175.0171
70.742035 94.699 174.8501
71.254662 94.685 174.6902
71.771004 94.674 174.5268
72.291084 94.665 174.3548
72.814934 94.657 174.1740
73.342583 94.648 173.9863
73.874054 94.640 173.7936
74.409378 94.630 173.5980
74.948578 94.617 173.4034
75.491684 94.603 173.2154
76.038727 94.586 173.0387
76.589737 94.569 172.8738
77.144737 94.550 172.7169
77.703758 94.532 172.5621
78.266830 94.513 172.4037
78.833984 94.494 172.2388
79.405251 94.476 172.0670
79.980652 94.458 171.8888
80.560226 94.441 171.7053
81.143997 94.425 171.5179
81.732002 94.411 171.3286
82.324265 94.398 171.1396
82.920822 94.386 170.9542
83.521698 94.375 170.7773
84.126930 94.363 170.6165
84.736549 94.352 170.4766
85.350586 94.342 170.3533
85.969070 94.333 170.2344
86.592041 94.324 170.1072
