* Measurement data measured by REW V5.30.5
* Source: EXCL: Microphone (Realtek(R) Audio), MICROPHONE (Master Volume), L, volume: 1.000
* Format: 256k Log Swept Sine, 1 sweep at -9.0 dBFS with no timing reference
* Dated: Jan 27, 2024 1:08:07 AM
* REW Settings:
*  C-weighting compensation: Off
*  Target level: 75.0 dB
* Note: Shozy P20 R
* Measurement: R Shozy P20
* Smoothing: 1/12 octave
* Frequency Step: 96 ppo
* Start Frequency: 0.36621094 Hz
*
* Freq(Hz) SPL(dB) Phase(degrees)
0.366211 76.750 -29.0489
0.368865 76.746 -29.0672
0.371538 76.740 -29.0946
0.374230 76.732 -29.1294
0.376942 76.724 -29.1698
0.379673 76.715 -29.2146
0.382424 76.705 -29.2630
0.385196 76.695 -29.3145
0.387987 76.685 -29.3689
0.390798 76.675 -29.4259
0.393630 76.665 -29.4856
0.396483 76.655 -29.5479
0.399356 76.644 -29.6128
0.402250 76.634 -29.6802
0.405165 76.623 -29.7503
0.408101 76.613 -29.8229
0.411058 76.602 -29.8982
0.414037 76.591 -29.9761
0.417037 76.580 -30.0566
0.420059 76.569 -30.1397
0.423103 76.558 -30.2255
0.426169 76.547 -30.3140
0.429257 76.536 -30.4051
0.432367 76.525 -30.4989
0.435501 76.513 -30.5954
0.438656 76.502 -30.6945
0.441835 76.490 -30.7963
0.445037 76.479 -30.9008
0.448262 76.467 -31.0080
0.451510 76.455 -31.1178
0.454782 76.444 -31.2303
0.458077 76.432 -31.3455
0.461397 76.420 -31.4633
0.464740 76.408 -31.5837
0.468108 76.395 -31.7067
0.471500 76.383 -31.8324
0.474917 76.371 -31.9606
0.478358 76.358 -32.0914
0.481825 76.346 -32.2247
0.485316 76.333 -32.3605
0.488833 76.320 -32.4988
0.492375 76.308 -32.6396
0.495943 76.295 -32.7828
0.499537 76.282 -32.9283
0.503157 76.269 -33.0761
0.506803 76.255 -33.2263
0.510475 76.242 -33.3786
0.514174 76.229 -33.5331
0.517900 76.215 -33.6898
0.521653 76.202 -33.8484
0.525433 76.188 -34.0091
0.529241 76.174 -34.1716
0.533076 76.160 -34.3360
0.536939 76.146 -34.5021
0.540830 76.132 -34.6698
0.544749 76.118 -34.8391
0.548696 76.104 -35.0098
0.552673 76.089 -35.1819
0.556677 76.075 -35.3552
0.560711 76.060 -35.5296
0.564774 76.046 -35.7049
0.568867 76.031 -35.8811
0.572989 76.016 -36.0579
0.577141 76.001 -36.2353
0.581324 75.986 -36.4131
0.585536 75.970 -36.5911
0.589779 75.955 -36.7691
0.594053 75.940 -36.9469
0.598358 75.924 -37.1244
0.602694 75.908 -37.3013
0.607061 75.893 -37.4775
0.611460 75.877 -37.6526
0.615891 75.861 -37.8265
0.620354 75.844 -37.9989
0.624849 75.828 -38.1695
0.629377 75.812 -38.3381
0.633938 75.795 -38.5044
0.638532 75.779 -38.6680
0.643159 75.762 -38.8288
0.647819 75.745 -38.9862
0.652514 75.728 -39.1401
0.657242 75.711 -39.2901
0.662005 75.694 -39.4357
0.666802 75.676 -39.5766
0.671634 75.659 -39.7124
0.676501 75.641 -39.8427
0.681403 75.623 -39.9670
0.686341 75.606 -40.0850
0.691314 75.588 -40.1961
0.696324 75.569 -40.2999
0.701369 75.551 -40.3959
0.706452 75.533 -40.4838
0.711571 75.514 -40.5632
0.716727 75.495 -40.6340
0.721921 75.475 -40.6961
0.727153 75.455 -40.7498
0.732422 75.434 -40.7959
0.737729 75.411 -40.8352
0.743075 75.388 -40.8687
0.748460 75.363 -40.8973
0.753883 75.337 -40.9214
0.759346 75.309 -40.9415
0.764849 75.280 -40.9577
0.770391 75.250 -40.9700
0.775974 75.218 -40.9782
0.781597 75.186 -40.9823
0.787261 75.152 -40.9820
0.792965 75.117 -40.9772
0.798712 75.081 -40.9675
0.804499 75.044 -40.9527
0.810329 75.006 -40.9326
0.816201 74.967 -40.9069
0.822116 74.927 -40.8753
0.828073 74.886 -40.8375
0.834073 74.845 -40.7932
0.840118 74.803 -40.7420
0.846205 74.760 -40.6835
0.852337 74.717 -40.6175
0.858514 74.674 -40.5435
0.864735 74.630 -40.4612
0.871001 74.586 -40.3702
0.877313 74.541 -40.2699
0.883670 74.497 -40.1601
0.890074 74.453 -40.0403
0.896523 74.409 -39.9099
0.903020 74.365 -39.7685
0.909564 74.321 -39.6158
0.916155 74.278 -39.4510
0.922793 74.236 -39.2739
0.929480 74.194 -39.0838
0.936216 74.153 -38.8802
0.943000 74.113 -38.6627
0.949833 74.075 -38.4307
0.956716 74.037 -38.1836
0.963649 74.002 -37.9211
0.970632 73.967 -37.6426
0.977666 73.935 -37.3477
0.984750 73.904 -37.0358
0.991886 73.876 -36.7065
0.999074 73.850 -36.3594
1.006313 73.827 -35.9942
1.013605 73.806 -35.6104
1.020950 73.788 -35.2079
1.028349 73.774 -34.7863
1.035801 73.763 -34.3455
1.043306 73.755 -33.8854
1.050867 73.751 -33.4058
1.058482 73.752 -32.9066
1.066152 73.757 -32.3878
1.073878 73.766 -31.8491
1.081659 73.780 -31.2901
1.089498 73.799 -30.7102
1.097393 73.824 -30.1082
1.105345 73.853 -29.4830
1.113355 73.887 -28.8335
1.121422 73.926 -28.1589
1.129549 73.970 -27.4594
1.137734 74.019 -26.7353
1.145978 74.073 -25.9880
1.154283 74.131 -25.2190
1.162647 74.195 -24.4300
1.171072 74.263 -23.6231
1.179558 74.335 -22.8007
1.188106 74.412 -21.9650
1.196715 74.493 -21.1185
1.205387 74.579 -20.2637
1.214122 74.668 -19.4034
1.222920 74.762 -18.5402
1.231781 74.860 -17.6768
1.240708 74.962 -16.8158
1.249698 75.068 -15.9600
1.258754 75.177 -15.1120
1.267875 75.289 -14.2744
1.277063 75.406 -13.4497
1.286317 75.525 -12.6405
1.295638 75.647 -11.8491
1.305027 75.772 -11.0776
1.314484 75.900 -10.3283
1.324009 76.031 -9.6032
1.333603 76.163 -8.9041
1.343267 76.298 -8.2328
1.353001 76.435 -7.5909
1.362805 76.574 -6.9799
1.372681 76.714 -6.4011
1.382628 76.855 -5.8556
1.392647 76.997 -5.3445
1.402739 77.140 -4.8684
1.412904 77.284 -4.4279
1.423142 77.428 -4.0231
1.433455 77.572 -3.6534
1.443842 77.718 -3.3176
1.454305 77.864 -3.0135
1.464843 78.011 -2.7380
1.475458 78.161 -2.4873
1.486150 78.314 -2.2578
1.496919 78.470 -2.0465
1.507766 78.629 -1.8516
1.518692 78.792 -1.6719
1.529697 78.959 -1.5071
1.540782 79.129 -1.3569
1.551947 79.303 -1.2217
1.563193 79.481 -1.1016
1.574521 79.661 -0.9970
1.585931 79.845 -0.9082
1.597423 80.031 -0.8356
1.608998 80.219 -0.7793
1.620658 80.410 -0.7398
1.632402 80.602 -0.7172
1.644231 80.796 -0.7119
1.656146 80.992 -0.7239
1.668147 81.188 -0.7537
1.680235 81.385 -0.8013
1.692410 81.582 -0.8670
1.704674 81.779 -0.9510
1.717027 81.976 -1.0534
1.729469 82.171 -1.1746
1.742002 82.366 -1.3145
1.754625 82.559 -1.4735
1.767340 82.750 -1.6516
1.780147 82.939 -1.8488
1.793046 83.125 -2.0649
1.806040 83.309 -2.2996
1.819127 83.490 -2.5521
1.832309 83.668 -2.8214
1.845587 83.844 -3.1059
1.858961 84.018 -3.4044
1.872431 84.191 -3.7153
1.886000 84.362 -4.0375
1.899666 84.531 -4.3700
1.913432 84.699 -4.7121
1.927298 84.866 -5.0632
1.941264 85.032 -5.4227
1.955331 85.197 -5.7903
1.969500 85.360 -6.1654
1.983772 85.522 -6.5479
1.998147 85.684 -6.9376
2.012626 85.844 -7.3341
2.027211 86.003 -7.7375
2.041901 86.161 -8.1475
2.056697 86.318 -8.5643
2.071601 86.474 -8.9877
2.086613 86.628 -9.4179
2.101733 86.782 -9.8550
2.116963 86.935 -10.2992
2.132303 87.088 -10.7507
2.147755 87.239 -11.2101
2.163318 87.389 -11.6776
2.178995 87.538 -12.1538
2.194785 87.686 -12.6393
2.210689 87.832 -13.1344
2.226709 87.977 -13.6395
2.242844 88.121 -14.1543
2.259097 88.262 -14.6785
2.275467 88.402 -15.2112
2.291956 88.541 -15.7517
2.308565 88.677 -16.2990
2.325294 88.812 -16.8521
2.342144 88.946 -17.4103
2.359116 89.078 -17.9725
2.376211 89.208 -18.5380
2.393430 89.337 -19.1060
2.410774 89.465 -19.6758
2.428243 89.591 -20.2470
2.445839 89.717 -20.8188
2.463562 89.841 -21.3910
2.481415 89.964 -21.9634
2.499396 90.086 -22.5359
2.517508 90.206 -23.1089
2.535750 90.326 -23.6831
2.554126 90.445 -24.2595
2.572634 90.562 -24.8394
2.591276 90.678 -25.4243
2.610054 90.793 -26.0151
2.628967 90.905 -26.6121
2.648018 91.016 -27.2152
2.667206 91.125 -27.8236
2.686534 91.233 -28.4363
2.706002 91.338 -29.0522
2.725610 91.442 -29.6701
2.745361 91.545 -30.2888
2.765255 91.646 -30.9068
2.785294 91.746 -31.5231
2.805477 91.845 -32.1365
2.825807 91.942 -32.7460
2.846284 92.039 -33.3508
2.866909 92.134 -33.9504
2.887684 92.228 -34.5449
2.908609 92.321 -35.1346
2.929686 92.413 -35.7208
2.950916 92.503 -36.3048
2.972299 92.592 -36.8883
2.993838 92.679 -37.4721
3.015532 92.765 -38.0567
3.037384 92.849 -38.6419
3.059394 92.931 -39.2272
3.081564 93.012 -39.8116
3.103894 93.091 -40.3940
3.126386 93.169 -40.9733
3.149041 93.246 -41.5482
3.171861 93.323 -42.1176
3.194845 93.398 -42.6803
3.217996 93.472 -43.2354
3.241315 93.546 -43.7821
3.264803 93.618 -44.3203
3.288461 93.690 -44.8503
3.312291 93.761 -45.3728
3.336293 93.831 -45.8890
3.360469 93.900 -46.3996
3.384820 93.967 -46.9053
3.409348 94.034 -47.4064
3.434054 94.099 -47.9026
3.458938 94.163 -48.3936
3.484003 94.227 -48.8789
3.509250 94.290 -49.3578
3.534679 94.352 -49.8294
3.560293 94.415 -50.2931
3.586092 94.477 -50.7481
3.612079 94.539 -51.1937
3.638253 94.601 -51.6295
3.664618 94.664 -52.0554
3.691173 94.726 -52.4714
3.717921 94.788 -52.8779
3.744862 94.849 -53.2755
3.771999 94.911 -53.6647
3.799332 94.972 -54.0461
3.826864 95.033 -54.4204
3.854595 95.095 -54.7881
3.882527 95.156 -55.1496
3.910661 95.219 -55.5053
3.938999 95.281 -55.8555
3.967543 95.345 -56.2001
3.996294 95.409 -56.5391
4.025252 95.475 -56.8722
4.054421 95.541 -57.1990
4.083801 95.608 -57.5194
4.113394 95.676 -57.8334
4.143201 95.745 -58.1418
4.173225 95.814 -58.4454
4.203466 95.884 -58.7453
4.233926 95.955 -59.0428
4.264606 96.027 -59.3391
4.295509 96.100 -59.6354
4.326636 96.174 -59.9325
4.357989 96.249 -60.2310
4.389569 96.325 -60.5309
4.421378 96.402 -60.8320
4.453417 96.480 -61.1340
4.485688 96.560 -61.4367
4.518193 96.640 -61.7406
4.550934 96.721 -62.0462
4.583912 96.803 -62.3545
4.617129 96.886 -62.6665
4.650587 96.969 -62.9833
4.684287 97.052 -63.3058
4.718231 97.136 -63.6349
4.752421 97.220 -63.9708
4.786859 97.305 -64.3138
4.821547 97.390 -64.6634
4.856485 97.475 -65.0196
4.891677 97.561 -65.3819
4.927125 97.646 -65.7502
4.962829 97.732 -66.1245
4.998791 97.817 -66.5048
5.035015 97.902 -66.8913
5.071500 97.987 -67.2844
5.108251 98.071 -67.6841
5.145267 98.154 -68.0909
5.182552 98.237 -68.5046
5.220107 98.319 -68.9249
5.257934 98.400 -69.3515
5.296035 98.480 -69.7833
5.334412 98.560 -70.2196
5.373067 98.639 -70.6595
5.412003 98.716 -71.1023
5.451221 98.793 -71.5476
5.490722 98.868 -71.9954
5.530510 98.942 -72.4456
5.570587 99.015 -72.8983
5.610953 99.087 -73.3532
5.651613 99.157 -73.8095
5.692567 99.227 -74.2663
5.733818 99.295 -74.7225
5.775367 99.362 -75.1770
5.817218 99.428 -75.6290
5.859372 99.493 -76.0781
5.901831 99.557 -76.5244
5.944598 99.620 -76.9677
5.987675 99.681 -77.4080
6.031065 99.742 -77.8450
6.074768 99.802 -78.2780
6.118788 99.862 -78.7065
6.163127 99.920 -79.1298
6.207788 99.979 -79.5474
6.252772 100.037 -79.9591
6.298082 100.094 -80.3651
6.343721 100.151 -80.7654
6.389690 100.208 -81.1603
6.435992 100.265 -81.5502
6.482630 100.321 -81.9353
6.529606 100.378 -82.3155
6.576922 100.435 -82.6911
6.624581 100.493 -83.0621
6.672585 100.550 -83.4287
6.720938 100.608 -83.7914
6.769640 100.667 -84.1508
6.818696 100.726 -84.5077
6.868107 100.785 -84.8629
6.917876 100.845 -85.2170
6.968006 100.905 -85.5705
7.018499 100.966 -85.9236
7.069358 101.028 -86.2768
7.120586 101.090 -86.6305
7.172184 101.152 -86.9853
7.224157 101.215 -87.3420
7.276506 101.278 -87.7011
7.329235 101.341 -88.0632
7.382345 101.405 -88.4285
7.435841 101.468 -88.7971
7.489724 101.532 -89.1691
7.543997 101.596 -89.5445
7.598664 101.659 -89.9234
7.653728 101.723 -90.3059
7.709189 101.786 -90.6920
7.765053 101.848 -91.0818
7.821322 101.910 -91.4749
7.877998 101.972 -91.8709
7.935086 102.033 -92.2694
7.992587 102.094 -92.6698
8.050504 102.154 -93.0719
8.108841 102.213 -93.4753
8.167601 102.272 -93.8798
8.226787 102.329 -94.2848
8.286402 102.387 -94.6899
8.346449 102.443 -95.0944
8.406931 102.499 -95.4980
8.467851 102.555 -95.9002
8.529212 102.609 -96.3009
8.591018 102.664 -96.6999
8.653272 102.718 -97.0972
8.715977 102.772 -97.4924
8.779137 102.825 -97.8856
8.842754 102.878 -98.2767
8.906833 102.932 -98.6659
8.971375 102.985 -99.0534
9.036386 103.038 -99.4397
9.101867 103.091 -99.8250
9.167823 103.144 -100.2098
9.234257 103.197 -100.5944
9.301172 103.251 -100.9793
9.368572 103.304 -101.3649
9.436460 103.358 -101.7518
9.504841 103.411 -102.1406
9.573717 103.465 -102.5316
9.643092 103.518 -102.9251
9.712970 103.571 -103.3214
9.783354 103.624 -103.7207
9.854248 103.677 -104.1231
9.925656 103.729 -104.5287
9.997581 103.780 -104.9374
10.070028 103.831 -105.3489
10.143000 103.881 -105.7628
10.216500 103.930 -106.1786
10.290533 103.979 -106.5958
10.365103 104.026 -107.0139
10.440212 104.072 -107.4322
10.515866 104.117 -107.8497
10.592069 104.161 -108.2656
10.668823 104.204 -108.6792
10.746134 104.247 -109.0898
10.824005 104.288 -109.4966
10.902440 104.328 -109.8989
10.981443 104.368 -110.2962
11.061020 104.407 -110.6880
11.141172 104.445 -111.0741
11.221906 104.484 -111.4545
11.303225 104.522 -111.8292
11.385133 104.560 -112.1985
11.467634 104.599 -112.5628
11.550734 104.637 -112.9228
11.634435 104.677 -113.2793
11.718742 104.716 -113.6333
11.803661 104.756 -113.9857
11.889195 104.797 -114.3375
11.975349 104.838 -114.6900
12.062128 104.879 -115.0441
12.149535 104.921 -115.4009
12.237576 104.963 -115.7611
12.326254 105.005 -116.1253
12.415575 105.047 -116.4940
12.505544 105.089 -116.8675
12.596164 105.130 -117.2455
12.687441 105.170 -117.6278
12.779379 105.209 -118.0136
12.871984 105.247 -118.4022
12.965260 105.284 -118.7924
13.059211 105.320 -119.1830
13.153843 105.354 -119.5726
13.249161 105.387 -119.9597
13.345170 105.419 -120.3429
13.441875 105.449 -120.7210
13.539280 105.479 -121.0926
13.637391 105.507 -121.4569
13.736214 105.535 -121.8132
13.835752 105.563 -122.1611
13.936011 105.591 -122.5007
14.036998 105.618 -122.8324
14.138716 105.647 -123.1567
14.241171 105.675 -123.4749
14.344368 105.705 -123.7883
14.448313 105.736 -124.0982
14.553011 105.767 -124.4062
14.658468 105.799 -124.7140
14.764689 105.832 -125.0230
14.871680 105.866 -125.3344
14.979446 105.899 -125.6491
15.087994 105.934 -125.9679
15.197328 105.968 -126.2909
15.307454 106.002 -126.6181
15.418378 106.035 -126.9488
15.530106 106.068 -127.2823
15.642643 106.101 -127.6176
15.755996 106.132 -127.9535
15.870171 106.163 -128.2889
15.985172 106.194 -128.6228
16.101007 106.224 -128.9545
16.217682 106.253 -129.2833
16.335201 106.283 -129.6093
16.453573 106.312 -129.9329
16.572803 106.342 -130.2547
16.692898 106.373 -130.5759
16.813862 106.404 -130.8980
16.935701 106.435 -131.2226
17.058424 106.467 -131.5512
17.182035 106.499 -131.8854
17.306543 106.532 -132.2262
17.431953 106.564 -132.5746
17.558273 106.595 -132.9307
17.685509 106.625 -133.2942
17.813665 106.654 -133.6643
17.942751 106.682 -134.0395
18.072771 106.708 -134.4179
18.203733 106.731 -134.7972
18.335646 106.753 -135.1751
18.468513 106.773 -135.5491
18.602345 106.792 -135.9169
18.737144 106.808 -136.2765
18.872921 106.824 -136.6264
19.009682 106.839 -136.9655
19.147434 106.854 -137.2934
19.286184 106.869 -137.6106
19.425940 106.884 -137.9180
19.566708 106.901 -138.2172
19.708496 106.918 -138.5102
19.851313 106.937 -138.7995
19.995163 106.957 -139.0880
20.140057 106.979 -139.3785
20.285999 107.001 -139.6739
20.433001 107.025 -139.9766
20.581066 107.050 -140.2887
20.730206 107.075 -140.6117
20.880424 107.099 -140.9462
21.031733 107.123 -141.2920
21.184137 107.145 -141.6478
21.337646 107.166 -142.0113
21.492268 107.184 -142.3793
21.648010 107.201 -142.7482
21.804880 107.214 -143.1136
21.962887 107.226 -143.4712
22.122040 107.236 -143.8173
22.282345 107.245 -144.1488
22.443811 107.254 -144.4642
22.606449 107.263 -144.7633
22.770266 107.274 -145.0477
22.935268 107.286 -145.3208
23.101467 107.302 -145.5870
23.268869 107.319 -145.8517
23.437485 107.340 -146.1202
23.607323 107.362 -146.3972
23.778391 107.386 -146.6861
23.950699 107.411 -146.9883
24.124256 107.435 -147.3036
24.299070 107.459 -147.6298
24.475151 107.481 -147.9636
24.652508 107.502 -148.3009
24.831150 107.521 -148.6381
25.011087 107.539 -148.9721
25.192327 107.557 -149.3015
25.374882 107.574 -149.6263
25.558758 107.591 -149.9478
25.743967 107.609 -150.2683
25.930519 107.626 -150.5899
26.118422 107.643 -150.9140
26.307686 107.659 -151.2405
26.498322 107.673 -151.5674
26.690340 107.685 -151.8912
26.883749 107.695 -152.2071
27.078560 107.703 -152.5104
27.274782 107.709 -152.7971
27.472427 107.716 -153.0656
27.671503 107.723 -153.3164
27.872023 107.732 -153.5532
28.073996 107.742 -153.7815
28.277431 107.755 -154.0082
28.482342 107.770 -154.2399
28.688736 107.786 -154.4816
28.896626 107.802 -154.7360
29.106022 107.817 -155.0030
29.316936 107.831 -155.2797
29.529379 107.842 -155.5619
29.743361 107.851 -155.8447
29.958893 107.858 -156.1237
30.175987 107.864 -156.3963
30.394655 107.869 -156.6614
30.614908 107.874 -156.9199
30.836756 107.879 -157.1735
31.060211 107.885 -157.4249
31.285286 107.891 -157.6762
31.511992 107.898 -157.9294
31.740341 107.904 -158.1858
31.970345 107.912 -158.4464
32.202015 107.919 -158.7123
32.435364 107.927 -158.9842
32.670403 107.934 -159.2628
32.907146 107.942 -159.5481
33.145607 107.948 -159.8390
33.385796 107.954 -160.1334
33.627724 107.958 -160.4280
33.871403 107.962 -160.7197
34.116848 107.966 -161.0059
34.364071 107.969 -161.2860
34.613087 107.974 -161.5616
34.863907 107.979 -161.8359
35.116547 107.986 -162.1130
35.371017 107.993 -162.3962
35.627331 107.999 -162.6866
35.885502 108.005 -162.9820
36.145542 108.009 -163.2779
36.407467 108.012 -163.5686
36.671291 108.014 -163.8492
36.937027 108.015 -164.1179
37.204689 108.018 -164.3767
37.474289 108.022 -164.6312
37.745842 108.028 -164.8884
38.019363 108.034 -165.1543
38.294868 108.041 -165.4314
38.572369 108.045 -165.7171
38.851879 108.048 -166.0053
39.133415 108.049 -166.2880
39.416992 108.049 -166.5587
39.702625 108.049 -166.8158
39.990326 108.050 -167.0631
40.280113 108.055 -167.3090
40.571999 108.061 -167.5634
40.866001 108.069 -167.8341
41.162132 108.076 -168.1238
41.460411 108.081 -168.4294
41.760849 108.083 -168.7430
42.063465 108.081 -169.0553
42.368275 108.077 -169.3577
42.675293 108.070 -169.6447
42.984535 108.062 -169.9137
43.296021 108.053 -170.1643
43.609760 108.043 -170.3963
43.925774 108.033 -170.6093
44.244080 108.023 -170.8027
44.564690 108.015 -170.9765
44.887623 108.008 -171.1331
45.212898 108.004 -171.2780
45.540531 108.003 -171.4194
45.870537 108.006 -171.5676
46.202934 108.012 -171.7333
46.537739 108.019 -171.9249
46.874969 108.027 -172.1474
47.214645 108.034 -172.4001
47.556782 108.038 -172.6769
47.901398 108.039 -172.9681
48.248512 108.036 -173.2630
48.598141 108.031 -173.5537
48.950302 108.026 -173.8370
49.305016 108.020 -174.1139
49.662300 108.016 -174.3877
50.022175 108.012 -174.6607
50.384655 108.009 -174.9332
50.749763 108.006 -175.2047
51.117516 108.003 -175.4756
51.487934 107.999 -175.7478
51.861038 107.992 -176.0205
52.236843 107.982 -176.2854
52.615372 107.964 -176.5239
52.996643 107.941 -176.7100
53.380680 107.915 -176.8220
53.767498 107.891 -176.8548
54.157120 107.875 -176.8262
54.549564 107.869 -176.7729
54.944855 107.873 -176.7369
55.343006 107.885 -176.7536
55.744045 107.901 -176.8472
56.147991 107.916 -177.0332
56.554863 107.926 -177.3209
56.964684 107.926 -177.7079
57.377472 107.909 -178.1728
57.793251 107.872 -178.6730
58.212044 107.816 -179.1539
58.633873 107.745 -179.5661
59.058758 107.668 -179.8824
59.486721 107.596 179.8935
59.917786 107.537 179.7249
60.351974 107.496 179.5485
60.789310 107.470 179.2946
61.229816 107.449 178.9232
61.673512 107.419 178.4611
62.120422 107.372 178.0089
62.570572 107.311 177.6960
63.023983 107.257 177.5981
63.480682 107.233 177.6713
63.940689 107.250 177.7693
64.404030 107.299 177.7425
64.870728 107.359 177.5345
65.340805 107.414 177.1935
65.814293 107.459 176.8058
66.291214 107.497 176.4271
66.771591 107.529 176.0676
67.255447 107.555 175.7273
67.742805 107.571 175.4285
68.233696 107.576 175.2102
68.728142 107.577 175.0946
69.226173 107.582 175.0628
69.727814 107.595 175.0606
70.233093 107.613 175.0275
70.742035 107.631 174.9234
71.254662 107.643 174.7397
71.771004 107.643 174.4966
72.291084 107.632 174.2302
72.814934 107.614 173.9753
73.342583 107.594 173.7454
73.874054 107.579 173.5238
74.409378 107.571 173.2765
74.948578 107.565 172.9835
75.491684 107.557 172.6622
76.038727 107.542 172.3589
76.589737 107.522 172.1157
77.144737 107.501 171.9473
77.703758 107.477 171.8464
78.266830 107.452 171.8041
78.833984 107.421 171.8167
79.405251 107.387 171.8811
79.980652 107.348 171.9954
