* Measurement data measured by REW V5.31
* Source: EXCL: Microphone (USB Sound Device        ), no input selected, L, volume: 0.390
* Format: 256k Log Swept Sine, 1 sweep at -4.0 dBFS with no timing reference
* Dated: Aug 24, 2024 7:41:26 PM
* REW Settings:
*  C-weighting compensation: Off
*  Target level: 75.0 dB
* Note: L Simgot EW300 Gold
* Measurement: L Simgot EW300 Gold2
* Smoothing: 1/12 octave
* Frequency Step: 96 ppo
* Start Frequency: 0.36621094 Hz
*
* Freq(Hz) SPL(dB) Phase(degrees)
0.366211 83.462 -65.0736
0.368865 83.468 -65.1388
0.371538 83.476 -65.2364
0.374230 83.486 -65.3588
0.376942 83.498 -65.4996
0.379673 83.511 -65.6539
0.382424 83.524 -65.8186
0.385196 83.537 -65.9919
0.387987 83.551 -66.1725
0.390798 83.565 -66.3599
0.393630 83.578 -66.5537
0.396483 83.592 -66.7538
0.399356 83.607 -66.9602
0.402250 83.621 -67.1727
0.405165 83.635 -67.3915
0.408101 83.650 -67.6165
0.411058 83.664 -67.8476
0.414037 83.679 -68.0851
0.417037 83.694 -68.3287
0.420059 83.709 -68.5786
0.423103 83.724 -68.8347
0.426169 83.739 -69.0971
0.429257 83.754 -69.3657
0.432368 83.769 -69.6406
0.435501 83.785 -69.9216
0.438656 83.800 -70.2089
0.441835 83.816 -70.5023
0.445037 83.832 -70.8019
0.448262 83.848 -71.1076
0.451510 83.864 -71.4194
0.454782 83.880 -71.7372
0.458077 83.896 -72.0610
0.461397 83.913 -72.3908
0.464740 83.929 -72.7265
0.468108 83.946 -73.0680
0.471500 83.962 -73.4153
0.474917 83.979 -73.7684
0.478358 83.996 -74.1270
0.481825 84.013 -74.4913
0.485316 84.031 -74.8610
0.488833 84.048 -75.2360
0.492375 84.065 -75.6164
0.495943 84.083 -76.0020
0.499537 84.101 -76.3926
0.503157 84.119 -76.7883
0.506803 84.137 -77.1888
0.510475 84.155 -77.5940
0.514175 84.173 -78.0039
0.517900 84.191 -78.4183
0.521653 84.210 -78.8370
0.525434 84.228 -79.2599
0.529241 84.247 -79.6869
0.533076 84.266 -80.1179
0.536939 84.285 -80.5526
0.540830 84.304 -80.9909
0.544749 84.324 -81.4327
0.548696 84.343 -81.8779
0.552673 84.363 -82.3261
0.556677 84.383 -82.7773
0.560711 84.402 -83.2313
0.564774 84.422 -83.6879
0.568867 84.443 -84.1470
0.572989 84.463 -84.6083
0.577141 84.483 -85.0717
0.581324 84.504 -85.5371
0.585536 84.525 -86.0041
0.589779 84.546 -86.4727
0.594053 84.567 -86.9426
0.598358 84.588 -87.4137
0.602694 84.610 -87.8858
0.607061 84.631 -88.3586
0.611460 84.653 -88.8321
0.615891 84.675 -89.3060
0.620354 84.697 -89.7802
0.624849 84.719 -90.2544
0.629377 84.741 -90.7286
0.633938 84.764 -91.2024
0.638532 84.786 -91.6758
0.643159 84.809 -92.1485
0.647819 84.832 -92.6205
0.652514 84.855 -93.0915
0.657242 84.879 -93.5613
0.662005 84.902 -94.0299
0.666802 84.926 -94.4971
0.671634 84.950 -94.9626
0.676501 84.974 -95.4265
0.681403 84.998 -95.8884
0.686341 85.022 -96.3484
0.691314 85.046 -96.8063
0.696324 85.071 -97.2620
0.701370 85.096 -97.7155
0.706452 85.120 -98.1668
0.711571 85.145 -98.6161
0.716728 85.168 -99.0638
0.721921 85.191 -99.5104
0.727153 85.213 -99.9569
0.732422 85.233 -100.4047
0.737729 85.250 -100.8555
0.743075 85.266 -101.3108
0.748460 85.281 -101.7720
0.753883 85.294 -102.2400
0.759346 85.306 -102.7154
0.764849 85.318 -103.1985
0.770391 85.330 -103.6893
0.775974 85.341 -104.1879
0.781597 85.352 -104.6942
0.787261 85.363 -105.2080
0.792966 85.373 -105.7292
0.798712 85.384 -106.2576
0.804500 85.394 -106.7930
0.810329 85.403 -107.3351
0.816201 85.413 -107.8838
0.822116 85.422 -108.4387
0.828073 85.430 -108.9997
0.834074 85.438 -109.5664
0.840118 85.446 -110.1387
0.846206 85.454 -110.7161
0.852338 85.460 -111.2984
0.858514 85.467 -111.8853
0.864735 85.473 -112.4765
0.871001 85.478 -113.0716
0.877313 85.483 -113.6703
0.883670 85.487 -114.2723
0.890074 85.491 -114.8771
0.896524 85.494 -115.4845
0.903020 85.496 -116.0939
0.909564 85.497 -116.7052
0.916155 85.498 -117.3178
0.922794 85.498 -117.9313
0.929481 85.497 -118.5454
0.936216 85.495 -119.1597
0.943000 85.492 -119.7736
0.949834 85.488 -120.3869
0.956717 85.484 -120.9990
0.963649 85.478 -121.6095
0.970632 85.471 -122.2180
0.977666 85.463 -122.8241
0.984750 85.454 -123.4272
0.991886 85.444 -124.0270
0.999074 85.432 -124.6229
1.006314 85.419 -125.2146
1.013606 85.405 -125.8015
1.020951 85.389 -126.3831
1.028349 85.372 -126.9591
1.035801 85.353 -127.5290
1.043307 85.332 -128.0922
1.050867 85.310 -128.6485
1.058482 85.287 -129.1976
1.066152 85.261 -129.7394
1.073878 85.235 -130.2740
1.081660 85.206 -130.8022
1.089498 85.177 -131.3250
1.097393 85.146 -131.8445
1.105345 85.116 -132.3631
1.113355 85.085 -132.8837
1.121423 85.055 -133.4088
1.129549 85.025 -133.9403
1.137734 84.996 -134.4796
1.145979 84.968 -135.0278
1.154283 84.940 -135.5855
1.162647 84.913 -136.1533
1.171072 84.885 -136.7314
1.179558 84.857 -137.3202
1.188106 84.829 -137.9198
1.196715 84.800 -138.5305
1.205387 84.770 -139.1522
1.214122 84.739 -139.7851
1.222920 84.705 -140.4292
1.231782 84.670 -141.0844
1.240708 84.632 -141.7507
1.249699 84.592 -142.4279
1.258754 84.548 -143.1157
1.267876 84.501 -143.8139
1.277063 84.449 -144.5221
1.286318 84.393 -145.2397
1.295639 84.333 -145.9662
1.305027 84.266 -146.7008
1.314484 84.194 -147.4427
1.324009 84.116 -148.1909
1.333604 84.031 -148.9442
1.343268 83.938 -149.7013
1.353002 83.837 -150.4606
1.362806 83.728 -151.2203
1.372681 83.609 -151.9786
1.382628 83.481 -152.7332
1.392647 83.343 -153.4819
1.402739 83.193 -154.2220
1.412904 83.031 -154.9509
1.423142 82.856 -155.6663
1.433455 82.667 -156.3659
1.443843 82.463 -157.0486
1.454305 82.240 -157.7142
1.464844 81.998 -158.3646
1.475459 81.732 -159.0029
1.486150 81.440 -159.6333
1.496920 81.121 -160.2597
1.507767 80.774 -160.8855
1.518693 80.397 -161.5132
1.529698 79.993 -162.1447
1.540783 79.562 -162.7811
1.551948 79.105 -163.4235
1.563194 78.625 -164.0725
1.574521 78.124 -164.7286
1.585931 77.604 -165.3921
1.597423 77.068 -166.0632
1.608999 76.518 -166.7419
1.620658 75.957 -167.4281
1.632402 75.388 -168.1216
1.644232 74.814 -168.8216
1.656146 74.239 -169.5273
1.668147 73.667 -170.2374
1.680235 73.102 -170.9498
1.692411 72.547 -171.6622
1.704675 72.008 -172.3708
1.717028 71.489 -173.0711
1.729470 70.996 -173.7565
1.742003 70.534 -174.4186
1.754626 70.110 -175.0457
1.767341 69.729 -175.6223
1.780147 69.398 -176.1272
1.793047 69.125 -176.5310
1.806040 68.915 -176.7926
1.819128 68.773 -176.8521
1.832310 68.703 -176.6163
1.845587 68.707 -175.9276
1.858961 68.786 -174.4848
1.872432 68.936 -171.6248
1.886001 69.154 -165.5803
1.899667 69.437 -150.1781
1.913433 69.779 -103.5466
1.927299 70.175 -51.8751
1.941265 70.620 -34.1644
1.955332 71.109 -27.3980
1.969501 71.634 -24.1957
1.983773 72.192 -22.5206
1.998148 72.775 -21.6305
2.012627 73.378 -21.1963
2.027212 73.995 -21.0512
2.041902 74.620 -21.1024
2.056698 75.248 -21.2949
2.071602 75.871 -21.5941
2.086614 76.486 -21.9777
2.101734 77.085 -22.4310
2.116964 77.666 -22.9441
2.132304 78.222 -23.5106
2.147756 78.752 -24.1263
2.163320 79.253 -24.7885
2.178996 79.726 -25.4954
2.194786 80.173 -26.2451
2.210690 80.597 -27.0352
2.226710 81.003 -27.8620
2.242845 81.395 -28.7205
2.259098 81.775 -29.6050
2.275468 82.146 -30.5094
2.291957 82.508 -31.4279
2.308566 82.863 -32.3555
2.325295 83.209 -33.2877
2.342145 83.549 -34.2208
2.359117 83.881 -35.1520
2.376212 84.206 -36.0790
2.393431 84.524 -37.0001
2.410775 84.835 -37.9141
2.428244 85.139 -38.8204
2.445840 85.437 -39.7190
2.463564 85.728 -40.6101
2.481416 86.012 -41.4949
2.499397 86.289 -42.3751
2.517509 86.559 -43.2534
2.535752 86.822 -44.1334
2.554127 87.077 -45.0199
2.572635 87.323 -45.9178
2.591277 87.559 -46.8317
2.610055 87.785 -47.7643
2.628968 88.002 -48.7159
2.648019 88.208 -49.6850
2.667208 88.404 -50.6685
2.686535 88.591 -51.6629
2.706003 88.770 -52.6639
2.725612 88.940 -53.6675
2.745363 89.103 -54.6698
2.765257 89.259 -55.6671
2.785295 89.410 -56.6561
2.805478 89.556 -57.6340
2.825808 89.697 -58.5985
2.846285 89.835 -59.5481
2.866910 89.970 -60.4826
2.887685 90.102 -61.4030
2.908611 90.232 -62.3122
2.929688 90.359 -63.2145
2.950917 90.482 -64.1155
2.972301 90.601 -65.0203
2.993839 90.715 -65.9324
3.015534 90.823 -66.8529
3.037386 90.927 -67.7813
3.059396 91.025 -68.7156
3.081565 91.118 -69.6529
3.103896 91.207 -70.5897
3.126388 91.290 -71.5223
3.149043 91.370 -72.4467
3.171862 91.446 -73.3592
3.194847 91.518 -74.2565
3.217998 91.587 -75.1357
3.241317 91.652 -75.9953
3.264805 91.715 -76.8352
3.288463 91.774 -77.6572
3.312293 91.829 -78.4646
3.336295 91.880 -79.2617
3.360471 91.928 -80.0521
3.384822 91.970 -80.8376
3.409350 92.009 -81.6189
3.434056 92.043 -82.3948
3.458940 92.074 -83.1634
3.484005 92.101 -83.9219
3.509252 92.124 -84.6669
3.534681 92.145 -85.3947
3.560295 92.164 -86.1015
3.586094 92.181 -86.7839
3.612081 92.195 -87.4389
3.638255 92.208 -88.0645
3.664620 92.219 -88.6603
3.691175 92.227 -89.2270
3.717923 92.232 -89.7662
3.744864 92.235 -90.2799
3.772001 92.235 -90.7694
3.799335 92.233 -91.2360
3.826866 92.229 -91.6803
3.854597 92.224 -92.1024
3.882529 92.218 -92.5020
3.910664 92.213 -92.8786
3.939002 92.209 -93.2311
3.967546 92.205 -93.5580
3.996296 92.204 -93.8575
4.025255 92.204 -94.1278
4.054423 92.205 -94.3670
4.083804 92.209 -94.5743
4.113396 92.213 -94.7502
4.143204 92.219 -94.8966
4.173227 92.227 -95.0165
4.203468 92.237 -95.1138
4.233928 92.250 -95.1928
4.264609 92.265 -95.2579
4.295512 92.284 -95.3131
4.326639 92.308 -95.3615
4.357992 92.335 -95.4049
4.389572 92.368 -95.4438
4.421380 92.406 -95.4773
4.453419 92.449 -95.5044
4.485691 92.497 -95.5255
4.518196 92.549 -95.5426
4.550936 92.606 -95.5593
4.583914 92.667 -95.5806
4.617131 92.731 -95.6118
4.650589 92.798 -95.6583
4.684289 92.868 -95.7249
4.718233 92.940 -95.8152
4.752424 93.015 -95.9310
4.786862 93.093 -96.0728
4.821549 93.173 -96.2396
4.856488 93.256 -96.4304
4.891680 93.342 -96.6443
4.927127 93.429 -96.8813
4.962831 93.516 -97.1415
4.998794 93.604 -97.4260
5.035017 93.692 -97.7357
5.071503 93.778 -98.0719
5.108253 93.862 -98.4358
5.145270 93.945 -98.8281
5.182555 94.026 -99.2488
5.220110 94.105 -99.6964
5.257937 94.182 -100.1687
5.296038 94.257 -100.6624
5.334415 94.330 -101.1742
5.373071 94.399 -101.7008
5.412006 94.466 -102.2396
5.451224 94.528 -102.7893
5.490725 94.587 -103.3495
5.530514 94.642 -103.9204
5.570590 94.693 -104.5022
5.610957 94.739 -105.0936
5.651616 94.782 -105.6921
5.692570 94.821 -106.2939
5.733821 94.857 -106.8948
5.775370 94.889 -107.4907
5.817221 94.917 -108.0784
5.859375 94.942 -108.6563
5.901834 94.964 -109.2237
5.944602 94.982 -109.7808
5.987679 94.996 -110.3272
6.031068 95.008 -110.8616
6.074771 95.017 -111.3821
6.118792 95.025 -111.8861
6.163131 95.031 -112.3710
6.207792 95.035 -112.8346
6.252776 95.039 -113.2756
6.298086 95.043 -113.6938
6.343725 95.045 -114.0899
6.389694 95.048 -114.4652
6.435996 95.051 -114.8211
6.482634 95.055 -115.1588
6.529610 95.061 -115.4794
6.576926 95.069 -115.7834
6.624585 95.079 -116.0712
6.672590 95.092 -116.3435
6.720942 95.107 -116.6023
6.769645 95.125 -116.8507
6.818700 95.146 -117.0926
6.868111 95.170 -117.3319
6.917881 95.197 -117.5722
6.968010 95.228 -117.8158
7.018504 95.261 -118.0643
7.069362 95.298 -118.3190
7.120590 95.337 -118.5819
7.172189 95.378 -118.8553
7.224161 95.422 -119.1420
7.276511 95.466 -119.4445
7.329239 95.512 -119.7647
7.382350 95.559 -120.1035
7.435845 95.606 -120.4607
7.489729 95.654 -120.8356
7.544002 95.701 -121.2275
7.598669 95.747 -121.6353
7.653732 95.792 -122.0586
7.709194 95.835 -122.4967
7.765058 95.877 -122.9487
7.821327 95.916 -123.4129
7.878004 95.953 -123.8870
7.935091 95.988 -124.3677
7.992592 96.020 -124.8522
8.050510 96.049 -125.3381
8.108847 96.075 -125.8235
8.167607 96.099 -126.3068
8.226793 96.121 -126.7861
8.286408 96.140 -127.2590
8.346454 96.157 -127.7228
8.406936 96.172 -128.1754
8.467856 96.186 -128.6151
8.529218 96.198 -129.0411
8.591024 96.210 -129.4532
8.653278 96.221 -129.8511
8.715983 96.231 -130.2347
8.779143 96.242 -130.6040
8.842760 96.254 -130.9591
8.906839 96.267 -131.3009
8.971381 96.280 -131.6310
9.036392 96.295 -131.9514
9.101873 96.311 -132.2642
9.167829 96.329 -132.5712
9.234263 96.349 -132.8740
9.301178 96.370 -133.1745
9.368578 96.393 -133.4745
9.436467 96.417 -133.7763
9.504847 96.442 -134.0816
9.573723 96.468 -134.3920
9.643099 96.495 -134.7083
9.712976 96.522 -135.0309
9.783361 96.550 -135.3600
9.854255 96.577 -135.6959
9.925663 96.603 -136.0385
9.997588 96.629 -136.3871
10.070035 96.654 -136.7408
10.143007 96.677 -137.0983
10.216507 96.700 -137.4581
10.290540 96.721 -137.8190
10.365109 96.740 -138.1797
10.440219 96.758 -138.5389
10.515873 96.775 -138.8952
10.592076 96.791 -139.2474
10.668830 96.806 -139.5944
10.746141 96.819 -139.9356
10.824012 96.832 -140.2708
10.902447 96.845 -140.5997
10.981451 96.857 -140.9226
11.061027 96.869 -141.2396
11.141180 96.881 -141.5513
11.221913 96.893 -141.8587
11.303232 96.905 -142.1627
11.385140 96.917 -142.4643
11.467641 96.930 -142.7644
11.550741 96.942 -143.0639
11.634442 96.955 -143.3636
11.718750 96.967 -143.6642
11.803669 96.979 -143.9663
11.889203 96.991 -144.2700
11.975357 97.002 -144.5751
12.062136 97.013 -144.8817
12.149543 97.023 -145.1892
12.237583 97.032 -145.4973
12.326262 97.041 -145.8053
12.415583 97.048 -146.1127
12.505552 97.055 -146.4187
12.596172 97.061 -146.7230
12.687449 97.067 -147.0254
12.779387 97.072 -147.3256
12.871992 97.077 -147.6237
12.965268 97.081 -147.9200
13.059220 97.086 -148.2150
13.153852 97.090 -148.5094
13.249170 97.095 -148.8037
13.345179 97.099 -149.0989
13.441884 97.104 -149.3956
13.539289 97.108 -149.6946
13.637401 97.112 -149.9962
13.736223 97.116 -150.3008
13.835761 97.120 -150.6084
13.936021 97.123 -150.9188
14.037007 97.125 -151.2316
14.138725 97.127 -151.5460
14.241180 97.127 -151.8614
14.344377 97.128 -152.1768
14.448323 97.127 -152.4913
14.553021 97.126 -152.8044
14.658478 97.125 -153.1152
14.764700 97.123 -153.4236
14.871691 97.122 -153.7295
14.979457 97.120 -154.0330
15.088005 97.119 -154.3347
15.197339 97.118 -154.6354
15.307465 97.117 -154.9358
15.418389 97.117 -155.2371
15.530117 97.118 -155.5400
15.642655 97.119 -155.8453
15.756008 97.120 -156.1536
15.870182 97.121 -156.4653
15.985184 97.122 -156.7800
16.101019 97.123 -157.0976
16.217694 97.123 -157.4172
16.335214 97.123 -157.7380
16.453586 97.122 -158.0588
16.572815 97.121 -158.3786
16.692909 97.120 -158.6964
16.813872 97.118 -159.0113
16.935713 97.115 -159.3228
17.058436 97.113 -159.6304
17.182048 97.111 -159.9341
17.306556 97.109 -160.2343
17.431967 97.107 -160.5312
17.558286 97.106 -160.8255
17.685521 97.104 -161.1175
17.813677 97.103 -161.4079
17.942762 97.102 -161.6969
18.072783 97.101 -161.9846
18.203746 97.100 -162.2709
18.335658 97.099 -162.5556
18.468526 97.097 -162.8383
18.602356 97.095 -163.1187
18.737156 97.094 -163.3965
18.872934 97.091 -163.6714
19.009695 97.089 -163.9436
19.147447 97.087 -164.2132
19.286197 97.085 -164.4806
19.425953 97.082 -164.7464
19.566721 97.080 -165.0109
19.708510 97.077 -165.2747
19.851326 97.074 -165.5381
19.995177 97.071 -165.8011
20.140070 97.067 -166.0636
20.286013 97.063 -166.3253
20.433014 97.057 -166.5859
20.581080 97.052 -166.8447
20.730219 97.046 -167.1016
20.880439 97.039 -167.3561
21.031747 97.031 -167.6084
21.184152 97.024 -167.8587
21.337661 97.016 -168.1074
21.492282 97.008 -168.3549
21.648024 96.999 -168.6017
21.804895 96.990 -168.8480
21.962902 96.981 -169.0938
22.122054 96.971 -169.3387
22.282360 96.961 -169.5822
22.443827 96.950 -169.8231
22.606464 96.938 -170.0607
22.770280 96.926 -170.2942
22.935283 96.915 -170.5229
23.101481 96.903 -170.7468
23.268884 96.892 -170.9663
23.437500 96.881 -171.1824
23.607338 96.872 -171.3965
23.778406 96.863 -171.6099
23.950714 96.855 -171.8244
24.124271 96.849 -172.0412
24.299086 96.842 -172.2612
24.475167 96.837 -172.4849
24.652524 96.832 -172.7120
24.831166 96.827 -172.9422
25.011103 96.822 -173.1747
25.192344 96.817 -173.4088
25.374898 96.813 -173.6439
25.558775 96.809 -173.8801
25.743984 96.806 -174.1178
25.930536 96.803 -174.3582
26.118439 96.801 -174.6025
26.307704 96.799 -174.8527
26.498341 96.798 -175.1101
26.690359 96.796 -175.3759
26.883768 96.794 -175.6501
27.078579 96.790 -175.9317
27.274801 96.784 -176.2182
27.472446 96.777 -176.5061
27.671522 96.766 -176.7908
27.872042 96.754 -177.0677
28.074014 96.740 -177.3324
28.277450 96.724 -177.5819
28.482360 96.709 -177.8151
28.688755 96.694 -178.0331
28.896645 96.680 -178.2393
29.106042 96.668 -178.4388
29.316957 96.659 -178.6375
29.529400 96.650 -178.8410
29.743382 96.644 -179.0535
29.958915 96.637 -179.2773
30.176009 96.630 -179.5124
30.394677 96.622 -179.7569
30.614929 96.613 179.9922
30.836778 96.602 179.7382
31.060234 96.590 179.4837
31.285309 96.577 179.2304
31.512015 96.564 178.9787
31.740364 96.549 178.7285
31.970368 96.535 178.4795
32.202039 96.520 178.2319
32.435388 96.504 177.9868
32.670428 96.488 177.7458
32.907171 96.472 177.5104
33.145630 96.455 177.2815
33.385817 96.440 177.0585
33.627745 96.425 176.8392
33.871425 96.412 176.6202
34.116871 96.400 176.3978
34.364096 96.389 176.1690
34.613113 96.377 175.9326
34.863934 96.365 175.6891
35.116572 96.352 175.4415
35.371041 96.338 175.1935
35.627354 96.321 174.9493
35.885525 96.304 174.7119
36.145566 96.286 174.4830
36.407492 96.268 174.2626
36.671316 96.250 174.0491
36.937051 96.232 173.8403
37.204712 96.215 173.6340
37.474313 96.197 173.4286
37.745867 96.180 173.2235
38.019389 96.161 173.0194
38.294893 96.143 172.8176
38.572394 96.123 172.6196
38.851905 96.103 172.4265
39.133442 96.083 172.2386
39.417019 96.063 172.0551
39.702651 96.044 171.8747
39.990353 96.025 171.6959
40.280140 96.006 171.5179
40.572026 95.987 171.3408
40.866028 95.968 171.1657
41.162160 95.950 170.9940
41.460438 95.931 170.8262
41.760877 95.914 170.6616
42.063494 95.898 170.4977
42.368303 95.884 170.3305
42.675322 95.871 170.1562
42.984565 95.858 169.9718
43.296048 95.846 169.7768
43.609789 95.832 169.5727
43.925804 95.818 169.3631
44.244108 95.802 169.1520
44.564719 95.785 168.9431
44.887654 95.767 168.7382
45.212928 95.749 168.5379
45.540560 95.731 168.3412
45.870565 95.713 168.1465
46.202962 95.695 167.9523
46.537768 95.677 167.7576
46.875000 95.659 167.5624
47.214676 95.640 167.3676
47.556813 95.621 167.1739
47.901429 95.601 166.9824
48.248542 95.581 166.7931
48.598171 95.561 166.6055
48.950334 95.540 166.4185
49.305048 95.519 166.2318
49.662333 95.498 166.0455
50.022206 95.475 165.8613
50.384688 95.452 165.6812
50.749796 95.428 165.5070
51.117550 95.404 165.3397
51.487969 95.380 165.1791
51.861072 95.355 165.0244
52.236879 95.331 164.8743
52.615409 95.308 164.7277
52.996681 95.285 164.5834
53.380717 95.262 164.4400
53.767536 95.240 164.2958
54.157158 95.218 164.1498
54.549603 95.196 164.0012
54.944892 95.175 163.8499
55.343045 95.153 163.6967
55.744084 95.130 163.5428
56.148028 95.108 163.3904
56.554900 95.085 163.2416
56.964720 95.062 163.0977
57.377510 95.041 162.9574
57.793291 95.020 162.8171
58.212085 95.001 162.6717
58.633914 94.982 162.5171
59.058799 94.963 162.3523
59.486764 94.942 162.1801
59.917829 94.920 162.0054
60.352019 94.896 161.8329
60.789354 94.871 161.6654
61.229859 94.845 161.5036
61.673556 94.819 161.3469
62.120468 94.792 161.1942
62.570618 94.765 161.0446
63.024031 94.738 160.8976
63.480729 94.710 160.7526
63.940736 94.683 160.6096
64.404077 94.655 160.4685
64.870776 94.627 160.3291
65.340856 94.600 160.1915
65.814343 94.572 160.0556
66.291261 94.544 159.9214
66.771635 94.517 159.7892
67.255489 94.489 159.6596
67.742850 94.462 159.5332
