* Measurement data measured by REW V5.30.5
* Source: EXCL: Microphone (Realtek(R) Audio), MICROPHONE (Master Volume), L, volume: 1.000
* Format: 256k Log Swept Sine, 1 sweep at -16.0 dBFS with no timing reference
* Dated: Feb 1, 2024 11:20:53 AM
* REW Settings:
*  C-weighting compensation: Off
*  Target level: 75.0 dB
* Note: Simgot EA500LM Gold 350 L
* Measurement: L Feb 1 gold 350
* Smoothing: 1/12 octave
* Frequency Step: 96 ppo
* Start Frequency: 0.36621094 Hz
*
* Freq(Hz) SPL(dB) Phase(degrees)
0.366211 77.544 0.1240
0.368865 77.548 0.1329
0.371538 77.554 0.1463
0.374230 77.561 0.1630
0.376942 77.569 0.1820
0.379673 77.578 0.2028
0.382424 77.587 0.2248
0.385196 77.596 0.2478
0.387987 77.606 0.2716
0.390798 77.615 0.2962
0.393630 77.625 0.3215
0.396483 77.634 0.3474
0.399356 77.644 0.3740
0.402250 77.654 0.4012
0.405165 77.664 0.4291
0.408101 77.674 0.4577
0.411058 77.684 0.4870
0.414037 77.694 0.5169
0.417037 77.705 0.5475
0.420059 77.715 0.5788
0.423103 77.725 0.6108
0.426169 77.736 0.6435
0.429257 77.746 0.6768
0.432367 77.757 0.7109
0.435501 77.768 0.7457
0.438656 77.778 0.7812
0.441835 77.789 0.8174
0.445037 77.800 0.8543
0.448262 77.811 0.8919
0.451510 77.822 0.9302
0.454782 77.833 0.9693
0.458077 77.845 1.0091
0.461397 77.856 1.0496
0.464740 77.867 1.0908
0.468108 77.879 1.1328
0.471500 77.891 1.1754
0.474917 77.902 1.2189
0.478358 77.914 1.2630
0.481825 77.926 1.3078
0.485316 77.938 1.3534
0.488833 77.950 1.3997
0.492375 77.962 1.4467
0.495943 77.974 1.4945
0.499537 77.986 1.5429
0.503157 77.999 1.5921
0.506803 78.011 1.6420
0.510475 78.024 1.6925
0.514174 78.036 1.7438
0.517900 78.049 1.7958
0.521653 78.062 1.8484
0.525433 78.075 1.9017
0.529241 78.088 1.9557
0.533076 78.101 2.0104
0.536939 78.114 2.0657
0.540830 78.127 2.1216
0.544749 78.141 2.1782
0.548696 78.154 2.2354
0.552673 78.168 2.2932
0.556677 78.181 2.3516
0.560711 78.195 2.4106
0.564774 78.209 2.4702
0.568867 78.223 2.5302
0.572989 78.237 2.5909
0.577141 78.251 2.6520
0.581324 78.266 2.7137
0.585536 78.280 2.7758
0.589779 78.294 2.8384
0.594053 78.309 2.9014
0.598358 78.324 2.9648
0.602694 78.339 3.0286
0.607061 78.353 3.0928
0.611460 78.368 3.1573
0.615891 78.384 3.2221
0.620354 78.399 3.2872
0.624849 78.414 3.3526
0.629377 78.430 3.4181
0.633938 78.445 3.4839
0.638532 78.461 3.5498
0.643159 78.477 3.6159
0.647819 78.493 3.6820
0.652514 78.509 3.7481
0.657242 78.525 3.8143
0.662005 78.541 3.8805
0.666802 78.557 3.9465
0.671634 78.574 4.0125
0.676501 78.591 4.0783
0.681403 78.607 4.1439
0.686341 78.624 4.2092
0.691314 78.641 4.2743
0.696324 78.659 4.3390
0.701369 78.676 4.4034
0.706452 78.694 4.4674
0.711571 78.712 4.5310
0.716727 78.731 4.5944
0.721921 78.752 4.6577
0.727153 78.774 4.7210
0.732422 78.798 4.7848
0.737729 78.824 4.8494
0.743075 78.852 4.9152
0.748460 78.883 4.9825
0.753883 78.915 5.0515
0.759346 78.949 5.1224
0.764849 78.983 5.1950
0.770391 79.019 5.2694
0.775974 79.055 5.3454
0.781597 79.093 5.4231
0.787261 79.131 5.5022
0.792965 79.170 5.5827
0.798712 79.210 5.6644
0.804499 79.251 5.7471
0.810329 79.293 5.8308
0.816201 79.335 5.9153
0.822116 79.379 6.0004
0.828073 79.423 6.0860
0.834073 79.468 6.1720
0.840118 79.514 6.2581
0.846205 79.560 6.3442
0.852337 79.608 6.4301
0.858514 79.656 6.5156
0.864735 79.705 6.6007
0.871001 79.756 6.6851
0.877313 79.806 6.7685
0.883670 79.858 6.8509
0.890074 79.911 6.9321
0.896523 79.964 7.0118
0.903020 80.018 7.0899
0.909564 80.073 7.1661
0.916155 80.129 7.2403
0.922793 80.185 7.3122
0.929480 80.242 7.3817
0.936216 80.300 7.4486
0.943000 80.359 7.5126
0.949833 80.419 7.5735
0.956716 80.479 7.6312
0.963649 80.540 7.6853
0.970632 80.602 7.7357
0.977666 80.664 7.7822
0.984750 80.727 7.8246
0.991886 80.791 7.8625
0.999074 80.855 7.8959
1.006313 80.921 7.9245
1.013605 80.986 7.9480
1.020950 81.052 7.9663
1.028349 81.119 7.9792
1.035801 81.187 7.9863
1.043306 81.255 7.9876
1.050867 81.323 7.9829
1.058482 81.392 7.9720
1.066152 81.461 7.9548
1.073878 81.531 7.9315
1.081659 81.602 7.9021
1.089498 81.673 7.8672
1.097393 81.745 7.8274
1.105345 81.818 7.7835
1.113355 81.891 7.7364
1.121422 81.966 7.6867
1.129549 82.041 7.6351
1.137734 82.118 7.5816
1.145978 82.196 7.5265
1.154283 82.276 7.4695
1.162647 82.356 7.4108
1.171072 82.438 7.3500
1.179558 82.520 7.2870
1.188106 82.604 7.2216
1.196715 82.689 7.1537
1.205387 82.775 7.0829
1.214122 82.862 7.0090
1.222920 82.950 6.9320
1.231781 83.039 6.8514
1.240708 83.129 6.7672
1.249698 83.220 6.6791
1.258754 83.312 6.5869
1.267875 83.405 6.4903
1.277063 83.498 6.3892
1.286317 83.592 6.2833
1.295638 83.687 6.1724
1.305027 83.783 6.0563
1.314484 83.879 5.9347
1.324009 83.976 5.8075
1.333603 84.074 5.6743
1.343267 84.172 5.5351
1.353001 84.270 5.3894
1.362805 84.369 5.2371
1.372681 84.468 5.0780
1.382628 84.567 4.9119
1.392647 84.667 4.7384
1.402739 84.766 4.5575
1.412904 84.866 4.3690
1.423142 84.966 4.1727
1.433455 85.066 3.9686
1.443842 85.165 3.7570
1.454305 85.265 3.5382
1.464843 85.365 3.3128
1.475458 85.465 3.0815
1.486150 85.566 2.8451
1.496919 85.666 2.6042
1.507766 85.768 2.3593
1.518692 85.869 2.1106
1.529697 85.972 1.8582
1.540782 86.074 1.6022
1.551947 86.178 1.3425
1.563193 86.281 1.0790
1.574521 86.385 0.8116
1.585931 86.490 0.5401
1.597423 86.595 0.2644
1.608998 86.700 -0.0156
1.620658 86.806 -0.3002
1.632402 86.912 -0.5894
1.644231 87.018 -0.8836
1.656146 87.124 -1.1828
1.668147 87.231 -1.4873
1.680235 87.338 -1.7974
1.692410 87.445 -2.1131
1.704674 87.552 -2.4347
1.717027 87.659 -2.7625
1.729469 87.766 -3.0967
1.742002 87.874 -3.4376
1.754625 87.981 -3.7854
1.767340 88.088 -4.1403
1.780147 88.195 -4.5026
1.793046 88.301 -4.8725
1.806040 88.408 -5.2501
1.819127 88.514 -5.6355
1.832309 88.621 -6.0285
1.845587 88.727 -6.4291
1.858961 88.832 -6.8370
1.872431 88.938 -7.2516
1.886000 89.044 -7.6728
1.899666 89.149 -8.0999
1.913432 89.254 -8.5328
1.927298 89.360 -8.9710
1.941264 89.465 -9.4141
1.955331 89.569 -9.8619
1.969500 89.674 -10.3141
1.983772 89.779 -10.7705
1.998147 89.883 -11.2307
2.012626 89.987 -11.6945
2.027211 90.091 -12.1619
2.041901 90.195 -12.6326
2.056697 90.298 -13.1064
2.071601 90.401 -13.5834
2.086613 90.504 -14.0633
2.101733 90.607 -14.5463
2.116963 90.709 -15.0323
2.132303 90.811 -15.5214
2.147755 90.913 -16.0138
2.163318 91.015 -16.5097
2.178995 91.116 -17.0097
2.194785 91.217 -17.5143
2.210689 91.317 -18.0239
2.226709 91.417 -18.5391
2.242844 91.516 -19.0600
2.259097 91.615 -19.5866
2.275467 91.713 -20.1187
2.291956 91.810 -20.6559
2.308565 91.908 -21.1976
2.325294 92.004 -21.7433
2.342144 92.100 -22.2924
2.359116 92.196 -22.8444
2.376211 92.291 -23.3987
2.393430 92.385 -23.9548
2.410774 92.479 -24.5122
2.428243 92.573 -25.0704
2.445839 92.666 -25.6291
2.463562 92.758 -26.1878
2.481415 92.851 -26.7463
2.499396 92.942 -27.3046
2.517508 93.034 -27.8626
2.535750 93.124 -28.4208
2.554126 93.215 -28.9798
2.572634 93.304 -29.5403
2.591276 93.393 -30.1034
2.610054 93.482 -30.6697
2.628967 93.569 -31.2395
2.648018 93.656 -31.8128
2.667206 93.742 -32.3894
2.686534 93.827 -32.9686
2.706002 93.912 -33.5498
2.725610 93.995 -34.1324
2.745361 94.079 -34.7156
2.765255 94.161 -35.2986
2.785294 94.243 -35.8808
2.805477 94.325 -36.4613
2.825807 94.406 -37.0396
2.846284 94.486 -37.6152
2.866909 94.566 -38.1876
2.887684 94.646 -38.7568
2.908609 94.725 -39.3230
2.929686 94.804 -39.8869
2.950916 94.882 -40.4491
2.972299 94.959 -41.0107
2.993838 95.036 -41.5721
3.015532 95.112 -42.1338
3.037384 95.187 -42.6955
3.059394 95.261 -43.2571
3.081564 95.335 -43.8180
3.103894 95.408 -44.3777
3.126386 95.480 -44.9356
3.149041 95.553 -45.4909
3.171861 95.624 -46.0430
3.194845 95.696 -46.5914
3.217996 95.767 -47.1353
3.241315 95.838 -47.6745
3.264803 95.909 -48.2088
3.288461 95.980 -48.7382
3.312291 96.050 -49.2632
3.336293 96.120 -49.7843
3.360469 96.189 -50.3019
3.384820 96.258 -50.8166
3.409348 96.327 -51.3284
3.434054 96.395 -51.8374
3.458938 96.463 -52.3435
3.484003 96.530 -52.8465
3.509250 96.598 -53.3463
3.534679 96.665 -53.8425
3.560293 96.733 -54.3349
3.586092 96.800 -54.8232
3.612079 96.868 -55.3072
3.638253 96.936 -55.7867
3.664618 97.004 -56.2616
3.691173 97.072 -56.7320
3.717921 97.140 -57.1981
3.744862 97.208 -57.6601
3.771999 97.276 -58.1184
3.799332 97.344 -58.5732
3.826864 97.413 -59.0248
3.854595 97.481 -59.4736
3.882527 97.550 -59.9198
3.910661 97.619 -60.3636
3.938999 97.688 -60.8053
3.967543 97.758 -61.2449
3.996294 97.827 -61.6824
4.025252 97.898 -62.1179
4.054421 97.968 -62.5512
4.083801 98.039 -62.9823
4.113394 98.111 -63.4111
4.143201 98.182 -63.8379
4.173225 98.254 -64.2630
4.203466 98.327 -64.6868
4.233926 98.399 -65.1097
4.264606 98.472 -65.5321
4.295509 98.545 -65.9544
4.326636 98.618 -66.3771
4.357989 98.691 -66.8003
4.389569 98.765 -67.2242
4.421378 98.839 -67.6489
4.453417 98.913 -68.0742
4.485688 98.987 -68.5001
4.518193 99.062 -68.9265
4.550934 99.136 -69.3534
4.583912 99.211 -69.7809
4.617129 99.285 -70.2092
4.650587 99.360 -70.6383
4.684287 99.434 -71.0684
4.718231 99.508 -71.4998
4.752421 99.583 -71.9326
4.786859 99.656 -72.3670
4.821547 99.730 -72.8030
4.856485 99.804 -73.2404
4.891677 99.877 -73.6791
4.927125 99.950 -74.1188
4.962829 100.022 -74.5591
4.998791 100.094 -74.9996
5.035015 100.166 -75.4401
5.071500 100.238 -75.8805
5.108251 100.309 -76.3208
5.145267 100.379 -76.7609
5.182552 100.449 -77.2011
5.220107 100.518 -77.6414
5.257934 100.587 -78.0815
5.296035 100.655 -78.5210
5.334412 100.723 -78.9596
5.373067 100.790 -79.3967
5.412003 100.857 -79.8318
5.451221 100.924 -80.2647
5.490722 100.990 -80.6951
5.530510 101.055 -81.1232
5.570587 101.120 -81.5490
5.610953 101.185 -81.9725
5.651613 101.249 -82.3938
5.692567 101.313 -82.8126
5.733818 101.376 -83.2288
5.775367 101.439 -83.6421
5.817218 101.502 -84.0523
5.859372 101.565 -84.4594
5.901831 101.628 -84.8632
5.944598 101.691 -85.2640
5.987675 101.753 -85.6620
6.031065 101.816 -86.0575
6.074768 101.878 -86.4507
6.118788 101.940 -86.8420
6.163127 102.003 -87.2314
6.207788 102.065 -87.6193
6.252772 102.128 -88.0057
6.298082 102.191 -88.3907
6.343721 102.254 -88.7746
6.389690 102.317 -89.1577
6.435992 102.380 -89.5406
6.482630 102.443 -89.9237
6.529606 102.507 -90.3075
6.576922 102.570 -90.6924
6.624581 102.634 -91.0786
6.672585 102.697 -91.4662
6.720938 102.760 -91.8554
6.769640 102.824 -92.2463
6.818696 102.887 -92.6391
6.868107 102.950 -93.0341
6.917876 103.013 -93.4315
6.968006 103.075 -93.8315
7.018499 103.137 -94.2343
7.069358 103.198 -94.6396
7.120586 103.259 -95.0473
7.172184 103.319 -95.4572
7.224157 103.379 -95.8689
7.276506 103.438 -96.2823
7.329235 103.496 -96.6971
7.382345 103.554 -97.1134
7.435841 103.610 -97.5308
7.489724 103.666 -97.9489
7.543997 103.721 -98.3673
7.598664 103.775 -98.7853
7.653728 103.829 -99.2025
7.709189 103.881 -99.6186
7.765053 103.933 -100.0333
7.821322 103.984 -100.4464
7.877998 104.034 -100.8577
7.935086 104.083 -101.2668
7.992587 104.132 -101.6734
8.050504 104.180 -102.0772
8.108841 104.228 -102.4780
8.167601 104.276 -102.8760
8.226787 104.323 -103.2713
8.286402 104.370 -103.6641
8.346449 104.416 -104.0545
8.406931 104.463 -104.4428
8.467851 104.509 -104.8292
8.529212 104.556 -105.2140
8.591018 104.602 -105.5977
8.653272 104.648 -105.9808
8.715977 104.695 -106.3639
8.779137 104.741 -106.7476
8.842754 104.788 -107.1322
8.906833 104.835 -107.5182
8.971375 104.881 -107.9060
9.036386 104.928 -108.2959
9.101867 104.974 -108.6884
9.167823 105.020 -109.0838
9.234257 105.066 -109.4823
9.301172 105.111 -109.8838
9.368572 105.156 -110.2883
9.436460 105.201 -110.6956
9.504841 105.244 -111.1054
9.573717 105.287 -111.5176
9.643092 105.330 -111.9317
9.712970 105.371 -112.3472
9.783354 105.412 -112.7635
9.854248 105.452 -113.1800
9.925656 105.491 -113.5960
9.997581 105.529 -114.0110
10.070028 105.566 -114.4247
10.143000 105.603 -114.8363
10.216500 105.640 -115.2455
10.290533 105.676 -115.6518
10.365103 105.711 -116.0551
10.440212 105.747 -116.4555
10.515866 105.782 -116.8531
10.592069 105.818 -117.2482
10.668823 105.853 -117.6410
10.746134 105.889 -118.0323
10.824005 105.926 -118.4226
10.902440 105.962 -118.8130
10.981443 106.000 -119.2044
11.061020 106.037 -119.5977
11.141172 106.075 -119.9938
11.221906 106.114 -120.3937
11.303225 106.153 -120.7982
11.385133 106.191 -121.2081
11.467634 106.230 -121.6240
11.550734 106.269 -122.0461
11.634435 106.307 -122.4746
11.718742 106.345 -122.9094
11.803661 106.381 -123.3500
11.889195 106.417 -123.7960
11.975349 106.452 -124.2462
12.062128 106.485 -124.6995
12.149535 106.517 -125.1545
12.237576 106.547 -125.6100
12.326254 106.576 -126.0642
12.415575 106.603 -126.5154
12.505544 106.629 -126.9620
12.596164 106.653 -127.4025
12.687441 106.676 -127.8357
12.779379 106.699 -128.2604
12.871984 106.721 -128.6756
12.965260 106.742 -129.0809
13.059211 106.764 -129.4761
13.153843 106.785 -129.8616
13.249161 106.807 -130.2380
13.345170 106.830 -130.6061
13.441875 106.854 -130.9674
13.539280 106.879 -131.3235
13.637391 106.906 -131.6762
13.736214 106.933 -132.0274
13.835752 106.962 -132.3789
13.936011 106.992 -132.7326
14.036998 107.023 -133.0901
14.138716 107.054 -133.4529
14.241171 107.086 -133.8217
14.344368 107.118 -134.1974
14.448313 107.150 -134.5802
14.553011 107.182 -134.9698
14.658468 107.213 -135.3655
14.764689 107.242 -135.7664
14.871680 107.271 -136.1714
14.979446 107.299 -136.5789
15.087994 107.325 -136.9874
15.197328 107.349 -137.3952
15.307454 107.373 -137.8009
15.418378 107.395 -138.2032
15.530106 107.416 -138.6009
15.642643 107.437 -138.9934
15.755996 107.456 -139.3802
15.870171 107.476 -139.7611
15.985172 107.495 -140.1364
16.101007 107.514 -140.5068
16.217682 107.532 -140.8729
16.335201 107.552 -141.2357
16.453573 107.571 -141.5963
16.572803 107.590 -141.9555
16.692898 107.609 -142.3143
16.813862 107.628 -142.6733
16.935701 107.648 -143.0331
17.058424 107.666 -143.3937
17.182035 107.685 -143.7552
17.306543 107.703 -144.1173
17.431953 107.720 -144.4795
17.558273 107.737 -144.8412
17.685509 107.753 -145.2020
17.813665 107.769 -145.5612
17.942751 107.785 -145.9186
18.072771 107.800 -146.2739
18.203733 107.815 -146.6274
18.335646 107.829 -146.9793
18.468513 107.844 -147.3304
18.602345 107.859 -147.6814
18.737144 107.874 -148.0334
18.872921 107.890 -148.3873
19.009682 107.905 -148.7440
19.147434 107.920 -149.1043
19.286184 107.935 -149.4687
19.425940 107.949 -149.8372
19.566708 107.962 -150.2094
19.708496 107.975 -150.5847
19.851313 107.986 -150.9618
19.995163 107.996 -151.3392
20.140057 108.005 -151.7153
20.285999 108.013 -152.0881
20.433001 108.019 -152.4559
20.581066 108.025 -152.8171
20.730206 108.030 -153.1706
20.880424 108.034 -153.5157
21.031733 108.039 -153.8525
21.184137 108.044 -154.1815
21.337646 108.050 -154.5040
21.492268 108.057 -154.8221
21.648010 108.065 -155.1381
21.804880 108.074 -155.4546
21.962887 108.085 -155.7742
22.122040 108.095 -156.0991
22.282345 108.107 -156.4310
22.443811 108.118 -156.7706
22.606449 108.129 -157.1177
22.770266 108.138 -157.4710
22.935268 108.146 -157.8280
23.101467 108.153 -158.1856
23.268869 108.158 -158.5404
23.437485 108.161 -158.8887
23.607323 108.163 -159.2278
23.778391 108.165 -159.5557
23.950699 108.166 -159.8721
24.124256 108.169 -160.1787
24.299070 108.174 -160.4786
24.475151 108.180 -160.7764
24.652508 108.188 -161.0777
24.831150 108.197 -161.3878
25.011087 108.208 -161.7114
25.192327 108.218 -162.0510
25.374882 108.228 -162.4070
25.558758 108.235 -162.7767
25.743967 108.239 -163.1550
25.930519 108.239 -163.5347
26.118422 108.236 -163.9077
26.307686 108.229 -164.2658
26.498322 108.220 -164.6027
26.690340 108.210 -164.9148
26.883749 108.201 -165.2018
27.078560 108.194 -165.4672
27.274782 108.190 -165.7180
27.472427 108.190 -165.9632
27.671503 108.194 -166.2123
27.872023 108.200 -166.4739
28.073996 108.208 -166.7537
28.277431 108.216 -167.0542
28.482342 108.223 -167.3738
28.688736 108.228 -167.7079
28.896626 108.230 -168.0493
29.106022 108.229 -168.3905
29.316936 108.225 -168.7241
29.529379 108.219 -169.0451
29.743361 108.213 -169.3507
29.958893 108.206 -169.6411
30.175987 108.200 -169.9186
30.394655 108.195 -170.1871
30.614908 108.192 -170.4509
30.836756 108.191 -170.7141
31.060211 108.190 -170.9797
31.285286 108.191 -171.2497
31.511992 108.192 -171.5252
31.740341 108.193 -171.8069
31.970345 108.195 -172.0953
32.202015 108.196 -172.3912
32.435364 108.198 -172.6956
32.670403 108.199 -173.0096
32.907146 108.200 -173.3339
33.145607 108.199 -173.6685
33.385796 108.197 -174.0121
33.627724 108.192 -174.3622
33.871403 108.184 -174.7145
34.116848 108.174 -175.0637
34.364071 108.160 -175.4034
34.613087 108.145 -175.7272
34.863907 108.127 -176.0298
35.116547 108.110 -176.3082
35.371017 108.094 -176.5632
35.627331 108.081 -176.7995
35.885502 108.072 -177.0258
36.145542 108.067 -177.2537
36.407467 108.066 -177.4950
36.671291 108.067 -177.7589
36.937027 108.069 -178.0495
37.204689 108.069 -178.3649
37.474289 108.066 -178.6970
37.745842 108.058 -179.0340
38.019363 108.047 -179.3638
38.294868 108.033 -179.6770
38.572369 108.019 -179.9701
38.851879 108.005 179.7542
39.133415 107.994 179.4877
39.416992 107.984 179.2204
39.702625 107.975 178.9435
39.990326 107.967 178.6528
40.280113 107.957 178.3494
40.571999 107.944 178.0393
40.866001 107.928 177.7313
41.162132 107.909 177.4341
41.460411 107.888 177.1537
41.760849 107.867 176.8923
42.063465 107.846 176.6474
42.368275 107.828 176.4132
42.675293 107.811 176.1824
42.984535 107.795 175.9483
43.296021 107.780 175.7072
43.609760 107.764 175.4590
43.925774 107.747 175.2075
44.244080 107.729 174.9580
44.564690 107.708 174.7158
44.887623 107.687 174.4843
45.212898 107.664 174.2647
45.540531 107.641 174.0577
45.870537 107.618 173.8646
46.202934 107.594 173.6879
46.537739 107.571 173.5298
46.874969 107.549 173.3888
47.214645 107.530 173.2585
47.556782 107.515 173.1282
47.901398 107.503 172.9874
48.248512 107.492 172.8297
48.598141 107.481 172.6556
48.950302 107.469 172.4693
49.305016 107.457 172.2740
49.662300 107.446 172.0687
50.022175 107.434 171.8499
50.384655 107.421 171.6165
50.749763 107.405 171.3749
51.117516 107.387 171.1382
51.487934 107.368 170.9187
51.861038 107.350 170.7186
52.236843 107.336 170.5254
52.615372 107.327 170.3168
52.996643 107.320 170.0726
53.380680 107.312 169.7855
53.767498 107.298 169.4646
54.157120 107.276 169.1307
54.549564 107.247 168.8067
54.944855 107.211 168.5102
55.343006 107.171 168.2500
55.744045 107.129 168.0265
56.147991 107.088 167.8335
56.554863 107.049 167.6606
56.964684 107.012 167.4949
57.377472 106.978 167.3228
57.793251 106.947 167.1311
58.212044 106.916 166.9108
58.633873 106.884 166.6623
59.058758 106.848 166.3997
59.486721 106.807 166.1496
59.917786 106.764 165.9381
60.351974 106.726 165.7740
60.789310 106.695 165.6391
61.229816 106.674 165.4993
61.673512 106.659 165.3297
62.120422 106.644 165.1340
62.570572 106.626 164.9405
63.023983 106.608 164.7771
63.480682 106.592 164.6477
63.940689 106.583 164.5275
64.404030 106.578 164.3801
64.870728 106.573 164.1814
65.340805 106.562 163.9315
65.814293 106.540 163.6524
66.291214 106.505 163.3763
66.771591 106.461 163.1324
67.255447 106.409 162.9370
67.742805 106.355 162.7899
68.233696 106.302 162.6806
68.728142 106.252 162.5980
69.226173 106.205 162.5363
69.727814 106.163 162.4937
70.233093 106.127 162.4652
70.742035 106.097 162.4418
71.254662 106.074 162.4148
71.771004 106.055 162.3829
72.291084 106.038 162.3534
72.814934 106.023 162.3358
73.342583 106.011 162.3315
73.874054 106.002 162.3320
74.409378 105.993 162.3277
74.948578 105.984 162.3198
75.491684 105.973 162.3200
76.038727 105.963 162.3361
76.589737 105.957 162.3577
77.144737 105.959 162.3527
77.703758 105.968 162.2786
78.266830 105.980 162.1002
78.833984 105.987 161.8091
79.405251 105.985 161.4340
79.980652 105.971 161.0260
80.560226 105.949 160.6277
81.143997 105.923 160.2513
81.732002 105.898 159.8874
82.324265 105.871 159.5295
82.920822 105.842 159.1829
83.521698 105.811 158.8543
84.126930 105.777 158.5460
84.736549 105.740 158.2624
85.350586 105.698 158.0129
85.969070 105.653 157.8002
86.592041 105.608 157.6114
87.219521 105.561 157.4282
87.851547 105.512 157.2438
