* Measurement data measured by REW V5.31
* Source: EXCL: Microphone (USB Sound Device        ), MICROPHONE (Master Volume), L, volume: 0.250
* Format: 256k Log Swept Sine, 1 sweep at -5.0 dBFS with no timing reference
* Dated: Jun 9, 2024 12:27:54 AM
* REW Settings:
*  C-weighting compensation: Off
*  Target level: 75.0 dB
* Note: Simgot EM10 R
* Measurement: R Simgot EM10
* Smoothing: 1/12 octave
* Frequency Step: 96 ppo
* Start Frequency: 0.36621094 Hz
*
* Freq(Hz) SPL(dB) Phase(degrees)
0.366211 76.921 -160.9688
0.368865 76.926 -160.9744
0.371538 76.934 -160.9827
0.374230 76.944 -160.9932
0.376942 76.955 -161.0053
0.379673 76.966 -161.0186
0.382424 76.979 -161.0328
0.385196 76.991 -161.0478
0.387987 77.004 -161.0635
0.390798 77.017 -161.0798
0.393630 77.030 -161.0967
0.396483 77.043 -161.1142
0.399356 77.057 -161.1323
0.402250 77.070 -161.1509
0.405165 77.084 -161.1701
0.408101 77.097 -161.1899
0.411058 77.111 -161.2102
0.414037 77.125 -161.2311
0.417037 77.139 -161.2525
0.420059 77.153 -161.2745
0.423103 77.167 -161.2971
0.426169 77.181 -161.3201
0.429257 77.196 -161.3438
0.432368 77.210 -161.3679
0.435501 77.225 -161.3925
0.438656 77.239 -161.4177
0.441835 77.254 -161.4434
0.445037 77.269 -161.4696
0.448262 77.284 -161.4963
0.451510 77.299 -161.5235
0.454782 77.314 -161.5512
0.458077 77.329 -161.5793
0.461397 77.345 -161.6080
0.464740 77.360 -161.6370
0.468108 77.376 -161.6666
0.471500 77.392 -161.6965
0.474917 77.408 -161.7269
0.478358 77.424 -161.7577
0.481825 77.440 -161.7889
0.485316 77.456 -161.8205
0.488833 77.472 -161.8524
0.492375 77.489 -161.8848
0.495943 77.505 -161.9174
0.499537 77.522 -161.9505
0.503157 77.539 -161.9838
0.506803 77.556 -162.0174
0.510475 77.573 -162.0514
0.514175 77.590 -162.0856
0.517900 77.607 -162.1201
0.521653 77.625 -162.1548
0.525434 77.642 -162.1897
0.529241 77.660 -162.2249
0.533076 77.678 -162.2602
0.536939 77.696 -162.2957
0.540830 77.714 -162.3313
0.544749 77.732 -162.3671
0.548696 77.750 -162.4030
0.552673 77.769 -162.4389
0.556677 77.787 -162.4750
0.560711 77.806 -162.5110
0.564774 77.825 -162.5471
0.568867 77.844 -162.5832
0.572989 77.863 -162.6193
0.577141 77.882 -162.6553
0.581324 77.902 -162.6912
0.585536 77.921 -162.7270
0.589779 77.941 -162.7627
0.594053 77.961 -162.7982
0.598358 77.981 -162.8335
0.602694 78.001 -162.8687
0.607061 78.021 -162.9035
0.611460 78.042 -162.9381
0.615891 78.062 -162.9724
0.620354 78.083 -163.0063
0.624849 78.104 -163.0399
0.629377 78.125 -163.0730
0.633938 78.146 -163.1057
0.638532 78.168 -163.1380
0.643159 78.189 -163.1697
0.647819 78.211 -163.2009
0.652514 78.233 -163.2315
0.657242 78.254 -163.2614
0.662005 78.277 -163.2907
0.666802 78.299 -163.3193
0.671634 78.321 -163.3471
0.676501 78.344 -163.3742
0.681403 78.367 -163.4005
0.686341 78.390 -163.4260
0.691314 78.413 -163.4507
0.696324 78.436 -163.4749
0.701370 78.459 -163.4987
0.706452 78.482 -163.5227
0.711571 78.504 -163.5479
0.716728 78.526 -163.5756
0.721921 78.547 -163.6081
0.727153 78.567 -163.6481
0.732422 78.584 -163.6985
0.737729 78.599 -163.7611
0.743075 78.611 -163.8358
0.748460 78.622 -163.9210
0.753883 78.631 -164.0150
0.759346 78.640 -164.1163
0.764849 78.648 -164.2237
0.770391 78.655 -164.3366
0.775974 78.662 -164.4545
0.781597 78.669 -164.5770
0.787261 78.676 -164.7040
0.792966 78.683 -164.8353
0.798712 78.689 -164.9708
0.804500 78.695 -165.1105
0.810329 78.700 -165.2543
0.816201 78.705 -165.4022
0.822116 78.710 -165.5539
0.828073 78.714 -165.7095
0.834074 78.718 -165.8689
0.840118 78.721 -166.0319
0.846206 78.724 -166.1986
0.852338 78.726 -166.3688
0.858514 78.728 -166.5424
0.864735 78.728 -166.7194
0.871001 78.729 -166.8996
0.877313 78.728 -167.0829
0.883670 78.726 -167.2693
0.890074 78.724 -167.4586
0.896524 78.721 -167.6507
0.903020 78.717 -167.8455
0.909564 78.712 -168.0428
0.916155 78.705 -168.2427
0.922794 78.698 -168.4448
0.929481 78.689 -168.6492
0.936216 78.679 -168.8555
0.943000 78.668 -169.0639
0.949834 78.656 -169.2740
0.956717 78.642 -169.4857
0.963649 78.627 -169.6989
0.970632 78.609 -169.9135
0.977666 78.591 -170.1292
0.984750 78.570 -170.3459
0.991886 78.548 -170.5635
0.999074 78.524 -170.7816
1.006314 78.498 -171.0003
1.013606 78.470 -171.2193
1.020951 78.440 -171.4383
1.028349 78.407 -171.6573
1.035801 78.373 -171.8760
1.043307 78.335 -172.0942
1.050867 78.296 -172.3119
1.058482 78.253 -172.5289
1.066152 78.209 -172.7452
1.073878 78.161 -172.9613
1.081660 78.111 -173.1775
1.089498 78.057 -173.3948
1.097393 78.002 -173.6147
1.105345 77.943 -173.8391
1.113355 77.883 -174.0699
1.121423 77.820 -174.3087
1.129549 77.754 -174.5570
1.137734 77.687 -174.8155
1.145979 77.617 -175.0848
1.154283 77.544 -175.3653
1.162647 77.470 -175.6570
1.171072 77.393 -175.9601
1.179558 77.313 -176.2745
1.188106 77.231 -176.6002
1.196715 77.145 -176.9372
1.205387 77.058 -177.2852
1.214122 76.967 -177.6442
1.222920 76.873 -178.0140
1.231782 76.776 -178.3945
1.240708 76.676 -178.7853
1.249699 76.572 -179.1863
1.258754 76.465 -179.5971
1.267876 76.354 179.9827
1.277063 76.240 179.5534
1.286318 76.121 179.1156
1.295639 75.999 178.6697
1.305027 75.873 178.2165
1.314484 75.742 177.7566
1.324009 75.607 177.2909
1.333604 75.467 176.8202
1.343268 75.323 176.3457
1.353002 75.174 175.8685
1.362806 75.020 175.3900
1.372681 74.861 174.9118
1.382628 74.696 174.4355
1.392647 74.526 173.9629
1.402739 74.350 173.4961
1.412904 74.168 173.0371
1.423142 73.979 172.5878
1.433455 73.782 172.1497
1.443843 73.577 171.7234
1.454305 73.361 171.3083
1.464844 73.132 170.9019
1.475459 72.887 170.5001
1.486150 72.624 170.0977
1.496920 72.340 169.6898
1.507767 72.035 169.2722
1.518693 71.708 168.8412
1.529698 71.360 168.3942
1.540783 70.991 167.9283
1.551948 70.604 167.4412
1.563194 70.199 166.9300
1.574521 69.780 166.3916
1.585931 69.348 165.8223
1.597423 68.906 165.2173
1.608999 68.456 164.5703
1.620658 68.000 163.8733
1.632402 67.543 163.1147
1.644232 67.086 162.2786
1.656146 66.634 161.3406
1.668147 66.189 160.2634
1.680235 65.755 158.9849
1.692411 65.337 157.3936
1.704675 64.939 155.2677
1.717028 64.565 152.0940
1.729470 64.220 146.3689
1.742003 63.910 131.3928
1.754626 63.640 62.8541
1.767341 63.416 6.1080
1.780147 63.245 -6.5706
1.793047 63.133 -11.8469
1.806040 63.086 -14.9443
1.819128 63.111 -17.1240
1.832310 63.212 -18.8289
1.845587 63.391 -20.2509
1.858961 63.650 -21.4854
1.872432 63.987 -22.5858
1.886001 64.397 -23.5854
1.899667 64.877 -24.5070
1.913433 65.420 -25.3665
1.927299 66.020 -26.1764
1.941265 66.669 -26.9459
1.955332 67.361 -27.6827
1.969501 68.088 -28.3928
1.983773 68.843 -29.0811
1.998148 69.619 -29.7516
2.012627 70.409 -30.4081
2.027212 71.205 -31.0536
2.041902 72.001 -31.6906
2.056698 72.790 -32.3218
2.071602 73.564 -32.9492
2.086614 74.318 -33.5751
2.101734 75.046 -34.2014
2.116964 75.741 -34.8300
2.132304 76.398 -35.4627
2.147756 77.014 -36.1016
2.163320 77.586 -36.7485
2.178996 78.113 -37.4053
2.194786 78.598 -38.0734
2.210690 79.042 -38.7538
2.226710 79.451 -39.4467
2.242845 79.829 -40.1512
2.259098 80.178 -40.8660
2.275468 80.502 -41.5889
2.291957 80.803 -42.3179
2.308566 81.082 -43.0507
2.325295 81.343 -43.7855
2.342145 81.585 -44.5205
2.359117 81.812 -45.2542
2.376212 82.024 -45.9852
2.393431 82.225 -46.7126
2.410775 82.416 -47.4357
2.428244 82.600 -48.1537
2.445840 82.778 -48.8663
2.463564 82.953 -49.5736
2.481416 83.126 -50.2758
2.499397 83.301 -50.9737
2.517509 83.477 -51.6686
2.535752 83.655 -52.3624
2.554127 83.836 -53.0581
2.572635 84.017 -53.7585
2.591277 84.197 -54.4668
2.610055 84.374 -55.1847
2.628968 84.547 -55.9130
2.648019 84.715 -56.6509
2.667208 84.877 -57.3970
2.686535 85.034 -58.1492
2.706003 85.185 -58.9054
2.725612 85.331 -59.6630
2.745363 85.473 -60.4197
2.765257 85.609 -61.1732
2.785295 85.742 -61.9214
2.805478 85.872 -62.6622
2.825808 85.998 -63.3943
2.846285 86.121 -64.1162
2.866910 86.242 -64.8276
2.887685 86.360 -65.5289
2.908611 86.477 -66.2215
2.929688 86.590 -66.9080
2.950917 86.700 -67.5917
2.972301 86.807 -68.2759
2.993839 86.911 -68.9625
3.015534 87.010 -69.6525
3.037386 87.105 -70.3455
3.059396 87.196 -71.0402
3.081565 87.283 -71.7350
3.103896 87.367 -72.4276
3.126388 87.447 -73.1155
3.149043 87.525 -73.7963
3.171862 87.599 -74.4677
3.194847 87.671 -75.1271
3.217998 87.741 -75.7728
3.241317 87.808 -76.4036
3.264805 87.874 -77.0192
3.288463 87.937 -77.6201
3.312293 87.997 -78.2083
3.336295 88.055 -78.7861
3.360471 88.110 -79.3556
3.384822 88.161 -79.9180
3.409350 88.210 -80.4738
3.434056 88.255 -81.0224
3.458940 88.298 -81.5631
3.484005 88.339 -82.0944
3.509252 88.378 -82.6148
3.534681 88.415 -83.1223
3.560295 88.451 -83.6151
3.586094 88.486 -84.0913
3.612081 88.520 -84.5494
3.638255 88.553 -84.9883
3.664620 88.585 -85.4073
3.691175 88.617 -85.8068
3.717923 88.647 -86.1874
3.744864 88.676 -86.5502
3.772001 88.703 -86.8964
3.799335 88.729 -87.2268
3.826866 88.755 -87.5425
3.854597 88.781 -87.8445
3.882529 88.806 -88.1333
3.910664 88.832 -88.4094
3.939002 88.859 -88.6731
3.967546 88.887 -88.9242
3.996296 88.916 -89.1622
4.025255 88.947 -89.3863
4.054423 88.980 -89.5956
4.083804 89.014 -89.7895
4.113396 89.050 -89.9684
4.143204 89.086 -90.1337
4.173227 89.125 -90.2873
4.203468 89.164 -90.4320
4.233928 89.206 -90.5707
4.264609 89.249 -90.7065
4.295512 89.294 -90.8420
4.326639 89.342 -90.9796
4.357992 89.391 -91.1205
4.389572 89.443 -91.2650
4.421380 89.498 -91.4130
4.453419 89.555 -91.5635
4.485691 89.615 -91.7165
4.518196 89.677 -91.8728
4.550936 89.742 -92.0341
4.583914 89.808 -92.2025
4.617131 89.875 -92.3806
4.650589 89.944 -92.5712
4.684289 90.013 -92.7764
4.718233 90.084 -92.9982
4.752424 90.155 -93.2377
4.786862 90.227 -93.4950
4.821549 90.300 -93.7698
4.856488 90.373 -94.0613
4.891680 90.447 -94.3688
4.927127 90.521 -94.6917
4.962831 90.596 -95.0296
4.998794 90.669 -95.3827
5.035017 90.742 -95.7510
5.071503 90.814 -96.1350
5.108253 90.884 -96.5352
5.145270 90.952 -96.9521
5.182555 91.019 -97.3859
5.220110 91.085 -97.8359
5.257937 91.149 -98.3009
5.296038 91.211 -98.7787
5.334415 91.271 -99.2673
5.373071 91.329 -99.7644
5.412006 91.385 -100.2682
5.451224 91.438 -100.7776
5.490725 91.489 -101.2922
5.530514 91.538 -101.8123
5.570590 91.583 -102.3378
5.610957 91.627 -102.8682
5.651616 91.668 -103.4020
5.692570 91.706 -103.9372
5.733821 91.743 -104.4712
5.775370 91.777 -105.0016
5.817221 91.810 -105.5266
5.859375 91.840 -106.0450
5.901834 91.869 -106.5565
5.944602 91.895 -107.0612
5.987679 91.920 -107.5590
6.031068 91.944 -108.0496
6.074771 91.966 -108.5322
6.118792 91.988 -109.0056
6.163131 92.009 -109.4688
6.207792 92.030 -109.9207
6.252776 92.051 -110.3608
6.298086 92.072 -110.7892
6.343725 92.093 -111.2064
6.389694 92.115 -111.6134
6.435996 92.137 -112.0116
6.482634 92.160 -112.4020
6.529610 92.184 -112.7856
6.576926 92.210 -113.1630
6.624585 92.237 -113.5347
6.672590 92.266 -113.9011
6.720942 92.297 -114.2633
6.769645 92.329 -114.6230
6.818700 92.363 -114.9824
6.868111 92.399 -115.3436
6.917881 92.436 -115.7086
6.968010 92.475 -116.0786
7.018504 92.516 -116.4543
7.069362 92.558 -116.8363
7.120590 92.602 -117.2253
7.172189 92.647 -117.6223
7.224161 92.693 -118.0282
7.276511 92.739 -118.4443
7.329239 92.786 -118.8712
7.382350 92.832 -119.3093
7.435845 92.879 -119.7582
7.489729 92.926 -120.2173
7.544002 92.973 -120.6858
7.598669 93.019 -121.1628
7.653732 93.063 -121.6476
7.709194 93.107 -122.1396
7.765058 93.150 -122.6384
7.821327 93.192 -123.1427
7.878004 93.232 -123.6512
7.935091 93.271 -124.1619
7.992592 93.308 -124.6732
8.050510 93.344 -125.1835
8.108847 93.379 -125.6918
8.167607 93.412 -126.1973
8.226793 93.445 -126.6990
8.286408 93.476 -127.1956
8.346454 93.506 -127.6859
8.406936 93.535 -128.1688
8.467856 93.564 -128.6436
8.529218 93.593 -129.1100
8.591024 93.621 -129.5681
8.653278 93.649 -130.0179
8.715983 93.677 -130.4597
8.779143 93.706 -130.8937
8.842760 93.735 -131.3203
8.906839 93.765 -131.7399
8.971381 93.795 -132.1534
9.036392 93.826 -132.5621
9.101873 93.857 -132.9670
9.167829 93.890 -133.3693
9.234263 93.923 -133.7697
9.301178 93.957 -134.1688
9.368578 93.991 -134.5677
9.436467 94.026 -134.9672
9.504847 94.061 -135.3678
9.573723 94.095 -135.7703
9.643099 94.130 -136.1747
9.712976 94.162 -136.5809
9.783361 94.194 -136.9888
9.854255 94.223 -137.3979
9.925663 94.248 -137.8081
9.997588 94.271 -138.2188
10.070035 94.291 -138.6292
10.143007 94.308 -139.0385
10.216507 94.323 -139.4458
10.290540 94.335 -139.8503
10.365109 94.345 -140.2515
10.440219 94.354 -140.6486
10.515873 94.361 -141.0412
10.592076 94.367 -141.4289
10.668830 94.373 -141.8114
10.746141 94.378 -142.1887
10.824012 94.382 -142.5612
10.902447 94.387 -142.9291
10.981451 94.391 -143.2933
11.061027 94.396 -143.6543
11.141180 94.400 -144.0129
11.221913 94.405 -144.3700
11.303232 94.410 -144.7268
11.385140 94.415 -145.0841
11.467641 94.419 -145.4429
11.550741 94.424 -145.8039
11.634442 94.429 -146.1677
11.718750 94.434 -146.5349
11.803669 94.439 -146.9058
11.889203 94.444 -147.2805
11.975357 94.448 -147.6588
12.062136 94.452 -148.0406
12.149543 94.456 -148.4254
12.237583 94.458 -148.8126
12.326262 94.460 -149.2019
12.415583 94.461 -149.5923
12.505552 94.460 -149.9835
12.596172 94.459 -150.3748
12.687449 94.457 -150.7657
12.779387 94.454 -151.1561
12.871992 94.450 -151.5457
12.965268 94.446 -151.9344
13.059220 94.441 -152.3225
13.153852 94.437 -152.7103
13.249170 94.432 -153.0981
13.345179 94.427 -153.4865
13.441884 94.423 -153.8759
13.539289 94.418 -154.2668
13.637401 94.414 -154.6599
13.736223 94.409 -155.0552
13.835761 94.405 -155.4531
13.936021 94.400 -155.8536
14.037007 94.395 -156.2568
14.138725 94.390 -156.6625
14.241180 94.384 -157.0703
14.344377 94.378 -157.4799
14.448323 94.371 -157.8909
14.553021 94.365 -158.3030
14.658478 94.358 -158.7157
14.764700 94.351 -159.1289
14.871691 94.344 -159.5424
14.979457 94.337 -159.9563
15.088005 94.330 -160.3707
15.197339 94.324 -160.7858
15.307465 94.319 -161.2020
15.418389 94.313 -161.6196
15.530117 94.308 -162.0389
15.642655 94.304 -162.4601
15.756008 94.299 -162.8835
15.870182 94.295 -163.3089
15.985184 94.290 -163.7361
16.101019 94.286 -164.1649
16.217694 94.281 -164.5945
16.335214 94.276 -165.0245
16.453586 94.271 -165.4539
16.572815 94.266 -165.8821
16.692909 94.262 -166.3084
16.813872 94.257 -166.7322
16.935713 94.253 -167.1531
17.058436 94.249 -167.5708
17.182048 94.246 -167.9854
17.306556 94.243 -168.3970
17.431967 94.240 -168.8058
17.558286 94.238 -169.2123
17.685521 94.236 -169.6168
17.813677 94.234 -170.0199
17.942762 94.232 -170.4218
18.072783 94.230 -170.8225
18.203746 94.228 -171.2223
18.335658 94.226 -171.6210
18.468526 94.223 -172.0182
18.602356 94.221 -172.4137
18.737156 94.218 -172.8071
18.872934 94.214 -173.1982
19.009695 94.211 -173.5866
19.147447 94.207 -173.9722
19.286197 94.203 -174.3550
19.425953 94.198 -174.7351
19.566721 94.194 -175.1127
19.708510 94.188 -175.4881
19.851326 94.183 -175.8617
19.995177 94.177 -176.2337
20.140070 94.170 -176.6046
20.286013 94.163 -176.9746
20.433014 94.156 -177.3441
20.581080 94.148 -177.7132
20.730219 94.140 -178.0823
20.880439 94.131 -178.4518
21.031747 94.122 -178.8218
21.184152 94.113 -179.1929
21.337661 94.103 -179.5653
21.492282 94.094 -179.9395
21.648024 94.084 179.6844
21.804895 94.074 179.3062
21.962902 94.063 178.9257
22.122054 94.052 178.5432
22.282360 94.040 178.1589
22.443827 94.028 177.7731
22.606464 94.016 177.3861
22.770280 94.003 176.9982
22.935283 93.990 176.6093
23.101481 93.977 176.2197
23.268884 93.964 175.8290
23.437500 93.951 175.4371
23.607338 93.937 175.0437
23.778406 93.924 174.6485
23.950714 93.911 174.2515
24.124271 93.898 173.8525
24.299086 93.884 173.4521
24.475167 93.871 173.0505
24.652524 93.857 172.6483
24.831166 93.843 172.2461
25.011103 93.830 171.8443
25.192344 93.816 171.4434
25.374898 93.803 171.0436
25.558775 93.789 170.6451
25.743984 93.776 170.2481
25.930536 93.762 169.8525
26.118439 93.749 169.4587
26.307704 93.736 169.0666
26.498341 93.722 168.6766
26.690359 93.709 168.2891
26.883768 93.695 167.9042
27.078579 93.681 167.5221
27.274801 93.666 167.1428
27.472446 93.652 166.7662
27.671522 93.637 166.3920
27.872042 93.622 166.0197
28.074014 93.607 165.6490
28.277450 93.591 165.2795
28.482360 93.575 164.9112
28.688755 93.558 164.5437
28.896645 93.541 164.1771
29.106042 93.523 163.8110
29.316957 93.504 163.4453
29.529400 93.486 163.0797
29.743382 93.467 162.7138
29.958915 93.448 162.3472
30.176009 93.428 161.9793
30.394677 93.408 161.6100
30.614929 93.388 161.2391
30.836778 93.368 160.8663
31.060234 93.347 160.4918
31.285309 93.326 160.1154
31.512015 93.305 159.7369
31.740364 93.284 159.3566
31.970368 93.263 158.9743
32.202039 93.241 158.5900
32.435388 93.219 158.2040
32.670428 93.197 157.8165
32.907171 93.175 157.4280
33.145630 93.153 157.0390
33.385817 93.131 156.6501
33.627745 93.108 156.2618
33.871425 93.086 155.8746
34.116871 93.063 155.4891
34.364096 93.041 155.1058
34.613113 93.018 154.7249
34.863934 92.996 154.3464
35.116572 92.973 153.9703
35.371041 92.951 153.5962
35.627354 92.929 153.2236
35.885525 92.906 152.8525
36.145566 92.884 152.4827
36.407492 92.860 152.1149
36.671316 92.837 151.7498
36.937051 92.813 151.3881
37.204712 92.789 151.0304
37.474313 92.764 150.6764
37.745867 92.740 150.3248
38.019389 92.717 149.9736
38.294893 92.693 149.6208
38.572394 92.670 149.2644
38.851905 92.647 148.9036
39.133442 92.623 148.5388
39.417019 92.598 148.1711
39.702651 92.573 147.8020
39.990353 92.547 147.4320
40.280140 92.521 147.0612
40.572026 92.495 146.6885
40.866028 92.469 146.3125
41.162160 92.442 145.9327
41.460438 92.415 145.5501
41.760877 92.387 145.1667
42.063494 92.357 144.7858
42.368303 92.327 144.4098
42.675322 92.297 144.0396
42.984565 92.267 143.6736
43.296048 92.238 143.3090
43.609789 92.210 142.9424
43.925804 92.181 142.5717
44.244108 92.153 142.1969
44.564719 92.123 141.8206
44.887654 92.092 141.4462
45.212928 92.061 141.0765
45.540560 92.029 140.7126
45.870565 91.998 140.3533
46.202962 91.967 139.9961
46.537768 91.936 139.6384
46.875000 91.906 139.2784
47.214676 91.876 138.9160
47.556813 91.845 138.5519
47.901429 91.813 138.1874
48.248542 91.781 137.8239
48.598171 91.749 137.4623
48.950334 91.717 137.1031
49.305048 91.684 136.7464
49.662333 91.651 136.3920
50.022206 91.618 136.0389
50.384688 91.584 135.6865
50.749796 91.551 135.3341
51.117550 91.517 134.9816
51.487969 91.483 134.6297
51.861072 91.448 134.2793
52.236879 91.413 133.9312
52.615409 91.378 133.5859
52.996681 91.343 133.2433
53.380717 91.308 132.9028
53.767536 91.274 132.5641
54.157158 91.239 132.2263
54.549603 91.206 131.8889
54.944892 91.172 131.5508
55.343045 91.139 131.2110
55.744084 91.106 130.8686
56.148028 91.074 130.5227
56.554900 91.041 130.1729
56.964720 91.008 129.8187
57.377510 90.975 129.4608
57.793291 90.940 129.1001
58.212085 90.905 128.7382
58.633914 90.869 128.3770
59.058799 90.832 128.0179
59.486764 90.794 127.6616
59.917829 90.755 127.3073
60.352019 90.717 126.9540
60.789354 90.678 126.6006
61.229859 90.638 126.2467
61.673556 90.598 125.8927
62.120468 90.558 125.5400
62.570618 90.517 125.1898
63.024031 90.477 124.8429
63.480729 90.436 124.4992
63.940736 90.395 124.1577
64.404077 90.355 123.8174
64.870776 90.315 123.4775
65.340856 90.275 123.1383
65.814343 90.234 122.8007
66.291261 90.194 122.4652
66.771635 90.153 122.1322
67.255489 90.112 121.8013
67.742850 90.071 121.4711
68.233743 90.030 121.1407
