* Measurement data measured by REW V5.31
* Source: EXCL: Microphone (USB Sound Device        ), no input selected, L, volume: 0.390
* Format: 256k Log Swept Sine, 1 sweep at -3.0 dBFS with no timing reference
* Dated: Aug 24, 2024 7:26:30 PM
* REW Settings:
*  C-weighting compensation: Off
*  Target level: 75.0 dB
* Note: Simgot EW300 Silver 1Foam
* Measurement: L Simgot EW300 Silver 1Foa
* Smoothing: 1/12 octave
* Frequency Step: 96 ppo
* Start Frequency: 0.36621094 Hz
*
* Freq(Hz) SPL(dB) Phase(degrees)
0.366211 87.157 -57.8074
0.368865 87.160 -57.8687
0.371538 87.165 -57.9604
0.374230 87.171 -58.0755
0.376942 87.178 -58.2080
0.379673 87.185 -58.3533
0.382424 87.193 -58.5086
0.385196 87.201 -58.6720
0.387987 87.209 -58.8425
0.390798 87.217 -59.0196
0.393630 87.225 -59.2029
0.396483 87.233 -59.3924
0.399356 87.241 -59.5880
0.402250 87.249 -59.7896
0.405165 87.258 -59.9973
0.408101 87.266 -60.2112
0.411058 87.275 -60.4312
0.414037 87.283 -60.6573
0.417037 87.292 -60.8896
0.420059 87.300 -61.1282
0.423103 87.309 -61.3730
0.426169 87.318 -61.6240
0.429257 87.327 -61.8813
0.432368 87.336 -62.1449
0.435501 87.345 -62.4148
0.438656 87.354 -62.6909
0.441835 87.363 -62.9734
0.445037 87.372 -63.2621
0.448262 87.381 -63.5572
0.451510 87.391 -63.8585
0.454782 87.400 -64.1661
0.458077 87.409 -64.4799
0.461397 87.419 -64.7999
0.464740 87.429 -65.1262
0.468108 87.438 -65.4586
0.471500 87.448 -65.7971
0.474917 87.458 -66.1417
0.478358 87.468 -66.4924
0.481825 87.478 -66.8490
0.485316 87.488 -67.2116
0.488833 87.498 -67.5801
0.492375 87.508 -67.9543
0.495943 87.518 -68.3343
0.499537 87.528 -68.7200
0.503157 87.539 -69.1112
0.506803 87.549 -69.5079
0.510475 87.560 -69.9100
0.514175 87.570 -70.3174
0.517900 87.581 -70.7300
0.521653 87.592 -71.1477
0.525434 87.603 -71.5703
0.529241 87.613 -71.9977
0.533076 87.624 -72.4299
0.536939 87.636 -72.8666
0.540830 87.647 -73.3078
0.544749 87.658 -73.7533
0.548696 87.669 -74.2030
0.552673 87.681 -74.6566
0.556677 87.692 -75.1141
0.560711 87.704 -75.5752
0.564774 87.715 -76.0399
0.568867 87.727 -76.5079
0.572989 87.739 -76.9791
0.577141 87.751 -77.4532
0.581324 87.763 -77.9302
0.585536 87.775 -78.4098
0.589779 87.787 -78.8918
0.594053 87.799 -79.3761
0.598358 87.812 -79.8624
0.602694 87.824 -80.3506
0.607061 87.837 -80.8405
0.611460 87.849 -81.3318
0.615891 87.862 -81.8243
0.620354 87.875 -82.3180
0.624849 87.888 -82.8124
0.629377 87.901 -83.3076
0.633938 87.914 -83.8032
0.638532 87.927 -84.2991
0.643159 87.940 -84.7950
0.647819 87.953 -85.2907
0.652514 87.967 -85.7862
0.657242 87.980 -86.2810
0.662005 87.994 -86.7752
0.666802 88.008 -87.2684
0.671634 88.022 -87.7606
0.676501 88.036 -88.2514
0.681403 88.050 -88.7407
0.686341 88.064 -89.2284
0.691314 88.078 -89.7143
0.696324 88.092 -90.1983
0.701370 88.106 -90.6803
0.706452 88.121 -91.1602
0.711571 88.135 -91.6383
0.716728 88.148 -92.1148
0.721921 88.161 -92.5904
0.727153 88.173 -93.0661
0.732422 88.184 -93.5433
0.737729 88.193 -94.0236
0.743075 88.201 -94.5088
0.748460 88.208 -95.0004
0.753883 88.214 -95.4992
0.759346 88.220 -96.0060
0.764849 88.225 -96.5211
0.770391 88.230 -97.0447
0.775974 88.234 -97.5767
0.781597 88.239 -98.1171
0.787261 88.243 -98.6658
0.792966 88.248 -99.2226
0.798712 88.252 -99.7874
0.804500 88.256 -100.3600
0.810329 88.259 -100.9402
0.816201 88.263 -101.5277
0.822116 88.266 -102.1224
0.828073 88.269 -102.7239
0.834074 88.271 -103.3321
0.840118 88.274 -103.9466
0.846206 88.276 -104.5671
0.852338 88.277 -105.1934
0.858514 88.278 -105.8252
0.864735 88.279 -106.4620
0.871001 88.280 -107.1036
0.877313 88.280 -107.7497
0.883670 88.279 -108.3998
0.890074 88.278 -109.0536
0.896524 88.277 -109.7106
0.903020 88.274 -110.3706
0.909564 88.272 -111.0331
0.916155 88.268 -111.6976
0.922794 88.264 -112.3637
0.929481 88.260 -113.0311
0.936216 88.254 -113.6992
0.943000 88.248 -114.3676
0.949834 88.241 -115.0358
0.956717 88.233 -115.7035
0.963649 88.224 -116.3700
0.970632 88.215 -117.0349
0.977666 88.204 -117.6978
0.984750 88.192 -118.3582
0.991886 88.180 -119.0155
0.999074 88.166 -119.6692
1.006314 88.151 -120.3190
1.013606 88.135 -120.9642
1.020951 88.118 -121.6043
1.028349 88.099 -122.2390
1.035801 88.079 -122.8676
1.043307 88.058 -123.4897
1.050867 88.035 -124.1050
1.058482 88.010 -124.7131
1.066152 87.985 -125.3139
1.073878 87.957 -125.9076
1.081660 87.929 -126.4947
1.089498 87.899 -127.0766
1.097393 87.868 -127.6550
1.105345 87.836 -128.2327
1.113355 87.804 -128.8122
1.121423 87.772 -129.3963
1.129549 87.740 -129.9869
1.137734 87.707 -130.5854
1.145979 87.674 -131.1931
1.154283 87.642 -131.8105
1.162647 87.608 -132.4384
1.171072 87.575 -133.0771
1.179558 87.540 -133.7270
1.188106 87.505 -134.3883
1.196715 87.469 -135.0613
1.205387 87.432 -135.7462
1.214122 87.394 -136.4431
1.222920 87.354 -137.1520
1.231782 87.312 -137.8731
1.240708 87.268 -138.6064
1.249699 87.222 -139.3516
1.258754 87.173 -140.1088
1.267876 87.121 -140.8776
1.277063 87.067 -141.6578
1.286318 87.009 -142.4489
1.295639 86.948 -143.2504
1.305027 86.883 -144.0616
1.314484 86.813 -144.8818
1.324009 86.740 -145.7100
1.333604 86.661 -146.5452
1.343268 86.577 -147.3861
1.353002 86.488 -148.2312
1.362806 86.393 -149.0790
1.372681 86.292 -149.9276
1.382628 86.184 -150.7750
1.392647 86.070 -151.6189
1.402739 85.948 -152.4570
1.412904 85.817 -153.2870
1.423142 85.678 -154.1065
1.433455 85.530 -154.9137
1.443843 85.372 -155.7077
1.454305 85.201 -156.4888
1.464844 85.018 -157.2588
1.475459 84.819 -158.0213
1.486150 84.604 -158.7808
1.496920 84.372 -159.5415
1.507767 84.121 -160.3072
1.518693 83.851 -161.0808
1.529698 83.564 -161.8646
1.540783 83.260 -162.6604
1.551948 82.940 -163.4698
1.563194 82.605 -164.2942
1.574521 82.257 -165.1347
1.585931 81.897 -165.9925
1.597423 81.526 -166.8689
1.608999 81.147 -167.7649
1.620658 80.760 -168.6817
1.632402 80.369 -169.6204
1.644232 79.975 -170.5821
1.656146 79.579 -171.5678
1.668147 79.185 -172.5786
1.680235 78.794 -173.6152
1.692411 78.410 -174.6787
1.704675 78.034 -175.7695
1.717028 77.670 -176.8881
1.729470 77.320 -178.0349
1.742003 76.988 -179.2099
1.754626 76.677 179.5872
1.767341 76.390 178.3566
1.780147 76.130 177.0981
1.793047 75.901 175.8107
1.806040 75.706 174.4907
1.819128 75.545 173.1298
1.832310 75.421 171.7119
1.845587 75.333 170.2087
1.858961 75.280 168.5762
1.872432 75.261 166.7466
1.886001 75.274 164.6136
1.899667 75.317 162.0005
1.913433 75.390 158.5860
1.927299 75.491 153.7187
1.941265 75.617 145.8820
1.955332 75.768 130.9365
1.969501 75.941 98.2197
1.983773 76.135 51.6739
1.998148 76.348 25.0067
2.012627 76.578 12.6471
2.027212 76.823 5.8372
2.041902 77.082 1.4487
2.056698 77.352 -1.7110
2.071602 77.631 -4.1740
2.086614 77.917 -6.2104
2.101734 78.209 -7.9716
2.116964 78.504 -9.5493
2.132304 78.801 -11.0031
2.147756 79.100 -12.3737
2.163320 79.400 -13.6907
2.178996 79.703 -14.9756
2.194786 80.011 -16.2443
2.210690 80.326 -17.5074
2.226710 80.653 -18.7705
2.242845 80.993 -20.0347
2.259098 81.347 -21.2977
2.275468 81.714 -22.5558
2.291957 82.094 -23.8048
2.308566 82.485 -25.0410
2.325295 82.884 -26.2609
2.342145 83.291 -27.4620
2.359117 83.703 -28.6426
2.376212 84.116 -29.8015
2.393431 84.530 -30.9384
2.410775 84.940 -32.0531
2.428244 85.345 -33.1462
2.445840 85.743 -34.2189
2.463564 86.130 -35.2726
2.481416 86.504 -36.3097
2.499397 86.863 -37.3331
2.517509 87.206 -38.3469
2.535752 87.531 -39.3564
2.554127 87.838 -40.3679
2.572635 88.126 -41.3879
2.591277 88.398 -42.4224
2.610055 88.653 -43.4751
2.628968 88.894 -44.5465
2.648019 89.121 -45.6352
2.667208 89.335 -46.7377
2.686535 89.537 -47.8497
2.706003 89.729 -48.9668
2.725612 89.910 -50.0841
2.745363 90.083 -51.1973
2.765257 90.249 -52.3021
2.785295 90.407 -53.3950
2.805478 90.560 -54.4729
2.825808 90.708 -55.5333
2.846285 90.852 -56.5748
2.866910 90.993 -57.5972
2.887685 91.132 -58.6018
2.908611 91.268 -59.5922
2.929688 91.402 -60.5737
2.950917 91.531 -61.5527
2.972301 91.657 -62.5353
2.993839 91.777 -63.5253
3.015534 91.891 -64.5244
3.037386 92.000 -65.5320
3.059396 92.103 -66.5459
3.081565 92.200 -67.5629
3.103896 92.292 -68.5792
3.126388 92.379 -69.5905
3.149043 92.461 -70.5924
3.171862 92.539 -71.5809
3.194847 92.613 -72.5522
3.217998 92.683 -73.5034
3.241317 92.750 -74.4327
3.264805 92.814 -75.3403
3.288463 92.874 -76.2281
3.312293 92.930 -77.1003
3.336295 92.981 -77.9616
3.360471 93.028 -78.8162
3.384822 93.070 -79.6664
3.409350 93.108 -80.5128
3.434056 93.141 -81.3541
3.458940 93.169 -82.1882
3.484005 93.194 -83.0118
3.509252 93.215 -83.8209
3.534681 93.233 -84.6115
3.560295 93.249 -85.3792
3.586094 93.262 -86.1198
3.612081 93.272 -86.8301
3.638255 93.281 -87.5080
3.664620 93.287 -88.1528
3.691175 93.290 -88.7656
3.717923 93.289 -89.3483
3.744864 93.286 -89.9031
3.772001 93.280 -90.4316
3.799335 93.271 -90.9351
3.826866 93.260 -91.4139
3.854597 93.247 -91.8683
3.882529 93.234 -92.2976
3.910664 93.222 -92.7008
3.939002 93.210 -93.0765
3.967546 93.200 -93.4227
3.996296 93.192 -93.7373
4.025255 93.187 -94.0179
4.054423 93.185 -94.2625
4.083804 93.185 -94.4700
4.113396 93.188 -94.6410
4.143204 93.192 -94.7775
4.173227 93.198 -94.8827
4.203468 93.204 -94.9611
4.233928 93.212 -95.0172
4.264609 93.220 -95.0560
4.295512 93.230 -95.0818
4.326639 93.243 -95.0981
4.357992 93.258 -95.1071
4.389572 93.280 -95.1088
4.421380 93.308 -95.1024
4.453419 93.344 -95.0870
4.485691 93.386 -95.0630
4.518196 93.436 -95.0330
4.550936 93.491 -95.0013
4.583914 93.551 -94.9736
4.617131 93.616 -94.9564
4.650589 93.684 -94.9561
4.684289 93.756 -94.9780
4.718233 93.831 -95.0266
4.752424 93.909 -95.1039
4.786862 93.990 -95.2104
4.821549 94.075 -95.3452
4.856488 94.163 -95.5069
4.891680 94.254 -95.6947
4.927127 94.347 -95.9085
4.962831 94.440 -96.1489
4.998794 94.535 -96.4167
5.035017 94.628 -96.7135
5.071503 94.721 -97.0406
5.108253 94.811 -97.3994
5.145270 94.900 -97.7906
5.182555 94.987 -98.2141
5.220110 95.071 -98.6682
5.257937 95.154 -99.1503
5.296038 95.234 -99.6567
5.334415 95.312 -100.1836
5.373071 95.386 -100.7274
5.412006 95.457 -101.2855
5.451224 95.523 -101.8560
5.490725 95.586 -102.4388
5.530514 95.644 -103.0342
5.570590 95.697 -103.6422
5.610957 95.746 -104.2616
5.651616 95.790 -104.8893
5.692570 95.831 -105.5213
5.733821 95.867 -106.1527
5.775370 95.899 -106.7789
5.817221 95.927 -107.3966
5.859375 95.952 -108.0037
5.901834 95.972 -108.5997
5.944602 95.988 -109.1848
5.987679 96.000 -109.7584
6.031068 96.009 -110.3191
6.074771 96.016 -110.8646
6.118792 96.020 -111.3918
6.163131 96.022 -111.8976
6.207792 96.023 -112.3796
6.252776 96.022 -112.8362
6.298086 96.021 -113.2671
6.343725 96.019 -113.6730
6.389694 96.016 -114.0552
6.435996 96.014 -114.4150
6.482634 96.013 -114.7537
6.529610 96.013 -115.0723
6.576926 96.016 -115.3712
6.624585 96.021 -115.6506
6.672590 96.029 -115.9114
6.720942 96.040 -116.1558
6.769645 96.054 -116.3871
6.818700 96.071 -116.6099
6.868111 96.091 -116.8285
6.917881 96.115 -117.0468
6.968010 96.142 -117.2675
7.018504 96.173 -117.4923
7.069362 96.208 -117.7231
7.120590 96.246 -117.9619
7.172189 96.286 -118.2116
7.224161 96.329 -118.4756
7.276511 96.373 -118.7567
7.329239 96.419 -119.0573
7.382350 96.465 -119.3783
7.435845 96.513 -119.7196
7.489729 96.561 -120.0807
7.544002 96.609 -120.4608
7.598669 96.656 -120.8589
7.653732 96.701 -121.2747
7.709194 96.745 -121.7074
7.765058 96.786 -122.1561
7.821327 96.826 -122.6191
7.878004 96.863 -123.0937
7.935091 96.897 -123.5764
7.992592 96.928 -124.0641
8.050510 96.957 -124.5541
8.108847 96.982 -125.0446
8.167607 97.005 -125.5336
8.226793 97.024 -126.0190
8.286408 97.041 -126.4981
8.346454 97.056 -126.9680
8.406936 97.069 -127.4261
8.467856 97.080 -127.8708
8.529218 97.090 -128.3011
8.591024 97.098 -128.7165
8.653278 97.105 -129.1167
8.715983 97.113 -129.5015
8.779143 97.121 -129.8707
8.842760 97.129 -130.2247
8.906839 97.138 -130.5641
8.971381 97.148 -130.8907
9.036392 97.159 -131.2067
9.101873 97.172 -131.5143
9.167829 97.187 -131.8155
9.234263 97.204 -132.1122
9.301178 97.222 -132.4061
9.368578 97.242 -132.6997
9.436467 97.264 -132.9951
9.504847 97.286 -133.2947
9.573723 97.310 -133.5997
9.643099 97.335 -133.9114
9.712976 97.360 -134.2302
9.783361 97.385 -134.5564
9.854255 97.410 -134.8903
9.925663 97.434 -135.2316
9.997588 97.458 -135.5800
10.070035 97.480 -135.9343
10.143007 97.501 -136.2931
10.216507 97.521 -136.6547
10.290540 97.540 -137.0179
10.365109 97.557 -137.3811
10.440219 97.572 -137.7430
10.515873 97.586 -138.1020
10.592076 97.599 -138.4567
10.668830 97.610 -138.8059
10.746141 97.621 -139.1489
10.824012 97.630 -139.4854
10.902447 97.639 -139.8152
10.981451 97.648 -140.1382
11.061027 97.657 -140.4547
11.141180 97.665 -140.7654
11.221913 97.674 -141.0711
11.303232 97.683 -141.3729
11.385140 97.692 -141.6718
11.467641 97.701 -141.9687
11.550741 97.711 -142.2645
11.634442 97.720 -142.5602
11.718750 97.729 -142.8564
11.803669 97.739 -143.1538
11.889203 97.747 -143.4523
11.975357 97.756 -143.7521
12.062136 97.764 -144.0529
12.149543 97.771 -144.3542
12.237583 97.777 -144.6558
12.326262 97.783 -144.9570
12.415583 97.788 -145.2571
12.505552 97.793 -145.5557
12.596172 97.797 -145.8523
12.687449 97.800 -146.1468
12.779387 97.804 -146.4391
12.871992 97.807 -146.7296
12.965268 97.809 -147.0184
13.059220 97.812 -147.3062
13.153852 97.815 -147.5939
13.249170 97.818 -147.8823
13.345179 97.822 -148.1722
13.441884 97.825 -148.4644
13.539289 97.828 -148.7593
13.637401 97.830 -149.0576
13.736223 97.833 -149.3593
13.835761 97.835 -149.6642
13.936021 97.836 -149.9718
14.037007 97.836 -150.2814
14.138725 97.836 -150.5921
14.241180 97.834 -150.9028
14.344377 97.832 -151.2122
14.448323 97.830 -151.5194
14.553021 97.826 -151.8236
14.658478 97.823 -152.1241
14.764700 97.819 -152.4205
14.871691 97.815 -152.7132
14.979457 97.812 -153.0025
15.088005 97.809 -153.2894
15.197339 97.807 -153.5750
15.307465 97.806 -153.8605
15.418389 97.805 -154.1476
15.530117 97.805 -154.4375
15.642655 97.806 -154.7312
15.756008 97.807 -155.0295
15.870182 97.808 -155.3326
15.985184 97.808 -155.6406
16.101019 97.809 -155.9525
16.217694 97.808 -156.2673
16.335214 97.807 -156.5837
16.453586 97.805 -156.9000
16.572815 97.803 -157.2146
16.692909 97.799 -157.5259
16.813872 97.796 -157.8326
16.935713 97.791 -158.1339
17.058436 97.787 -158.4291
17.182048 97.783 -158.7185
17.306556 97.780 -159.0025
17.431967 97.777 -159.2819
17.558286 97.774 -159.5580
17.685521 97.773 -159.8319
17.813677 97.772 -160.1049
17.942762 97.771 -160.3780
18.072783 97.771 -160.6520
18.203746 97.771 -160.9274
18.335658 97.771 -161.2042
18.468526 97.770 -161.4822
18.602356 97.770 -161.7609
18.737156 97.769 -162.0396
18.872934 97.767 -162.3176
19.009695 97.765 -162.5942
19.147447 97.762 -162.8688
19.286197 97.759 -163.1409
19.425953 97.756 -163.4102
19.566721 97.752 -163.6765
19.708510 97.747 -163.9398
19.851326 97.743 -164.2002
19.995177 97.738 -164.4578
20.140070 97.733 -164.7128
20.286013 97.728 -164.9655
20.433014 97.722 -165.2159
20.581080 97.717 -165.4648
20.730219 97.711 -165.7125
20.880439 97.705 -165.9598
21.031747 97.700 -166.2074
21.184152 97.694 -166.4560
21.337661 97.688 -166.7063
21.492282 97.682 -166.9587
21.648024 97.676 -167.2136
21.804895 97.669 -167.4706
21.962902 97.661 -167.7292
22.122054 97.652 -167.9885
22.282360 97.643 -168.2473
22.443827 97.633 -168.5045
22.606464 97.623 -168.7592
22.770280 97.612 -169.0105
22.935283 97.601 -169.2585
23.101481 97.591 -169.5035
23.268884 97.581 -169.7465
23.437500 97.571 -169.9885
23.607338 97.562 -170.2311
23.778406 97.554 -170.4753
23.950714 97.546 -170.7224
24.124271 97.538 -170.9725
24.299086 97.530 -171.2258
24.475167 97.523 -171.4814
24.652524 97.515 -171.7388
24.831166 97.507 -171.9966
25.011103 97.498 -172.2542
25.192344 97.490 -172.5107
25.374898 97.482 -172.7659
25.558775 97.473 -173.0197
25.743984 97.465 -173.2722
25.930536 97.457 -173.5236
26.118439 97.449 -173.7741
26.307704 97.441 -174.0235
26.498341 97.433 -174.2715
26.690359 97.425 -174.5175
26.883768 97.416 -174.7610
27.078579 97.408 -175.0015
27.274801 97.399 -175.2383
27.472446 97.390 -175.4714
27.671522 97.381 -175.7009
27.872042 97.372 -175.9271
28.074014 97.363 -176.1505
28.277450 97.354 -176.3716
28.482360 97.346 -176.5914
28.688755 97.337 -176.8106
28.896645 97.329 -177.0300
29.106042 97.320 -177.2504
29.316957 97.311 -177.4724
29.529400 97.302 -177.6963
29.743382 97.293 -177.9219
29.958915 97.282 -178.1489
30.176009 97.271 -178.3763
30.394677 97.259 -178.6030
30.614929 97.246 -178.8277
30.836778 97.233 -179.0496
31.060234 97.219 -179.2684
31.285309 97.205 -179.4844
31.512015 97.192 -179.6984
31.740364 97.179 -179.9119
31.970368 97.166 179.8740
32.202039 97.153 179.6580
32.435388 97.141 179.4395
32.670428 97.128 179.2183
32.907171 97.116 178.9949
33.145630 97.103 178.7699
33.385817 97.090 178.5439
33.627745 97.076 178.3176
33.871425 97.063 178.0916
34.116871 97.049 177.8660
34.364096 97.036 177.6413
34.613113 97.022 177.4176
34.863934 97.008 177.1952
35.116572 96.994 176.9741
35.371041 96.980 176.7544
35.627354 96.966 176.5361
35.885525 96.952 176.3194
36.145566 96.938 176.1042
36.407492 96.923 175.8908
36.671316 96.909 175.6795
36.937051 96.894 175.4706
37.204712 96.878 175.2641
37.474313 96.863 175.0601
37.745867 96.848 174.8582
38.019389 96.832 174.6578
38.294893 96.817 174.4586
38.572394 96.801 174.2601
38.851905 96.785 174.0621
39.133442 96.769 173.8643
39.417019 96.753 173.6667
39.702651 96.737 173.4692
39.990353 96.720 173.2717
40.280140 96.703 173.0743
40.572026 96.686 172.8773
40.866028 96.669 172.6807
41.162160 96.651 172.4850
41.460438 96.634 172.2906
41.760877 96.616 172.0977
42.063494 96.598 171.9065
42.368303 96.580 171.7168
42.675322 96.563 171.5286
42.984565 96.545 171.3414
43.296048 96.528 171.1550
43.609789 96.510 170.9691
43.925804 96.493 170.7838
44.244108 96.476 170.5986
44.564719 96.458 170.4138
44.887654 96.441 170.2289
45.212928 96.423 170.0439
45.540560 96.405 169.8590
45.870565 96.387 169.6745
46.202962 96.368 169.4911
46.537768 96.349 169.3098
46.875000 96.330 169.1312
47.214676 96.310 168.9556
47.556813 96.290 168.7828
47.901429 96.270 168.6120
48.248542 96.251 168.4426
48.598171 96.231 168.2743
48.950334 96.211 168.1069
49.305048 96.191 167.9403
49.662333 96.171 167.7746
50.022206 96.151 167.6096
50.384688 96.131 167.4452
50.749796 96.110 167.2817
51.117550 96.089 167.1199
51.487969 96.068 166.9604
51.861072 96.047 166.8039
52.236879 96.026 166.6503
52.615409 96.005 166.4995
52.996681 95.984 166.3509
53.380717 95.963 166.2040
53.767536 95.942 166.0588
54.157158 95.921 165.9153
54.549603 95.901 165.7729
54.944892 95.881 165.6312
55.343045 95.861 165.4893
55.744084 95.841 165.3458
56.148028 95.822 165.2003
56.554900 95.803 165.0524
56.964720 95.783 164.9023
57.377510 95.763 164.7502
57.793291 95.744 164.5961
58.212085 95.723 164.4397
58.633914 95.703 164.2811
59.058799 95.682 164.1212
59.486764 95.660 163.9609
59.917829 95.637 163.8022
60.352019 95.613 163.6462
60.789354 95.589 163.4937
61.229859 95.565 163.3447
61.673556 95.540 163.1987
62.120468 95.516 163.0553
62.570618 95.491 162.9141
63.024031 95.466 162.7747
63.480729 95.440 162.6370
63.940736 95.415 162.5010
64.404077 95.389 162.3670
64.870776 95.363 162.2360
65.340856 95.337 162.1088
65.814343 95.310 161.9860
66.291261 95.284 161.8672
66.771635 95.258 161.7520
67.255489 95.232 161.6393
67.742850 95.206 161.5289
68.233743 95.181 161.4207
