* Measurement data measured by REW V5.30.5
* Source: EXCL: Microphone (Realtek(R) Audio), MICROPHONE (Master Volume), L, volume: 1.000
* Format: 256k Log Swept Sine, 1 sweep at -16.0 dBFS with no timing reference
* Dated: Feb 1, 2024 11:30:07 AM
* REW Settings:
*  C-weighting compensation: Off
*  Target level: 75.0 dB
* Note: Simgot EA500LM Gold NoFoam L
* Measurement: R Feb 1 gold no foam
* Smoothing: 1/12 octave
* Frequency Step: 96 ppo
* Start Frequency: 0.36621094 Hz
*
* Freq(Hz) SPL(dB) Phase(degrees)
0.366211 74.912 -7.8223
0.368865 74.916 -7.8159
0.371538 74.922 -7.8063
0.374230 74.930 -7.7944
0.376942 74.939 -7.7809
0.379673 74.949 -7.7665
0.382424 74.959 -7.7513
0.385196 74.969 -7.7356
0.387987 74.980 -7.7196
0.390798 74.990 -7.7034
0.393630 75.001 -7.6868
0.396483 75.012 -7.6700
0.399356 75.023 -7.6530
0.402250 75.033 -7.6357
0.405165 75.044 -7.6182
0.408101 75.056 -7.6005
0.411058 75.067 -7.5824
0.414037 75.078 -7.5641
0.417037 75.089 -7.5456
0.420059 75.101 -7.5267
0.423103 75.112 -7.5076
0.426169 75.124 -7.4881
0.429257 75.136 -7.4684
0.432367 75.147 -7.4483
0.435501 75.159 -7.4279
0.438656 75.171 -7.4072
0.441835 75.183 -7.3862
0.445037 75.195 -7.3648
0.448262 75.207 -7.3430
0.451510 75.220 -7.3208
0.454782 75.232 -7.2983
0.458077 75.245 -7.2754
0.461397 75.257 -7.2520
0.464740 75.270 -7.2283
0.468108 75.283 -7.2041
0.471500 75.295 -7.1795
0.474917 75.308 -7.1545
0.478358 75.321 -7.1290
0.481825 75.334 -7.1030
0.485316 75.348 -7.0765
0.488833 75.361 -7.0496
0.492375 75.374 -7.0221
0.495943 75.388 -6.9941
0.499537 75.401 -6.9656
0.503157 75.415 -6.9366
0.506803 75.429 -6.9069
0.510475 75.443 -6.8767
0.514174 75.457 -6.8460
0.517900 75.471 -6.8146
0.521653 75.485 -6.7826
0.525433 75.499 -6.7500
0.529241 75.514 -6.7167
0.533076 75.528 -6.6828
0.536939 75.543 -6.6483
0.540830 75.558 -6.6130
0.544749 75.572 -6.5770
0.548696 75.587 -6.5404
0.552673 75.602 -6.5030
0.556677 75.617 -6.4648
0.560711 75.633 -6.4260
0.564774 75.648 -6.3863
0.568867 75.664 -6.3458
0.572989 75.679 -6.3046
0.577141 75.695 -6.2625
0.581324 75.711 -6.2197
0.585536 75.727 -6.1759
0.589779 75.743 -6.1313
0.594053 75.759 -6.0859
0.598358 75.775 -6.0395
0.602694 75.791 -5.9923
0.607061 75.808 -5.9441
0.611460 75.825 -5.8951
0.615891 75.841 -5.8450
0.620354 75.858 -5.7941
0.624849 75.875 -5.7421
0.629377 75.892 -5.6892
0.633938 75.910 -5.6353
0.638532 75.927 -5.5804
0.643159 75.945 -5.5245
0.647819 75.962 -5.4675
0.652514 75.980 -5.4096
0.657242 75.998 -5.3506
0.662005 76.016 -5.2905
0.666802 76.034 -5.2294
0.671634 76.052 -5.1673
0.676501 76.071 -5.1040
0.681403 76.089 -5.0397
0.686341 76.108 -4.9743
0.691314 76.127 -4.9079
0.696324 76.146 -4.8403
0.701369 76.165 -4.7716
0.706452 76.185 -4.7017
0.711571 76.206 -4.6307
0.716727 76.227 -4.5583
0.721921 76.250 -4.4846
0.727153 76.275 -4.4092
0.732422 76.303 -4.3319
0.737729 76.334 -4.2523
0.743075 76.367 -4.1702
0.748460 76.404 -4.0854
0.753883 76.442 -3.9978
0.759346 76.482 -3.9072
0.764849 76.523 -3.8137
0.770391 76.566 -3.7175
0.775974 76.610 -3.6185
0.781597 76.655 -3.5170
0.787261 76.701 -3.4131
0.792965 76.748 -3.3070
0.798712 76.796 -3.1987
0.804499 76.845 -3.0884
0.810329 76.895 -2.9764
0.816201 76.947 -2.8628
0.822116 76.999 -2.7478
0.828073 77.053 -2.6316
0.834073 77.107 -2.5143
0.840118 77.163 -2.3961
0.846205 77.220 -2.2773
0.852337 77.277 -2.1580
0.858514 77.336 -2.0385
0.864735 77.396 -1.9190
0.871001 77.457 -1.7996
0.877313 77.519 -1.6807
0.883670 77.582 -1.5623
0.890074 77.646 -1.4448
0.896523 77.711 -1.3284
0.903020 77.777 -1.2132
0.909564 77.844 -1.0996
0.916155 77.912 -0.9877
0.922793 77.981 -0.8779
0.929480 78.051 -0.7703
0.936216 78.122 -0.6652
0.943000 78.194 -0.5628
0.949833 78.267 -0.4633
0.956716 78.341 -0.3671
0.963649 78.415 -0.2744
0.970632 78.491 -0.1853
0.977666 78.567 -0.1002
0.984750 78.645 -0.0193
0.991886 78.723 0.0572
0.999074 78.802 0.1290
1.006313 78.881 0.1959
1.013605 78.962 0.2576
1.020950 79.043 0.3139
1.028349 79.125 0.3646
1.035801 79.207 0.4094
1.043306 79.290 0.4482
1.050867 79.374 0.4808
1.058482 79.459 0.5071
1.066152 79.544 0.5271
1.073878 79.629 0.5409
1.081659 79.716 0.5488
1.089498 79.803 0.5514
1.097393 79.891 0.5497
1.105345 79.980 0.5448
1.113355 80.070 0.5377
1.121422 80.161 0.5295
1.129549 80.254 0.5206
1.137734 80.349 0.5114
1.145978 80.445 0.5018
1.154283 80.542 0.4917
1.162647 80.641 0.4808
1.171072 80.741 0.4690
1.179558 80.843 0.4558
1.188106 80.946 0.4410
1.196715 81.051 0.4241
1.205387 81.157 0.4048
1.214122 81.264 0.3829
1.222920 81.373 0.3579
1.231781 81.483 0.3294
1.240708 81.594 0.2973
1.249698 81.706 0.2610
1.258754 81.819 0.2204
1.267875 81.933 0.1750
1.277063 82.049 0.1245
1.286317 82.165 0.0686
1.295638 82.282 0.0071
1.305027 82.400 -0.0605
1.314484 82.518 -0.1344
1.324009 82.637 -0.2150
1.333603 82.757 -0.3026
1.343267 82.877 -0.3974
1.353001 82.998 -0.4998
1.362805 83.119 -0.6100
1.372681 83.240 -0.7285
1.382628 83.362 -0.8554
1.392647 83.483 -0.9910
1.402739 83.605 -1.1355
1.412904 83.727 -1.2892
1.423142 83.848 -1.4521
1.433455 83.969 -1.6242
1.443842 84.090 -1.8051
1.454305 84.211 -1.9942
1.464843 84.332 -2.1908
1.475458 84.452 -2.3937
1.486150 84.573 -2.6017
1.496919 84.695 -2.8140
1.507766 84.816 -3.0301
1.518692 84.939 -3.2494
1.529697 85.061 -3.4720
1.540782 85.184 -3.6979
1.551947 85.307 -3.9270
1.563193 85.431 -4.1597
1.574521 85.555 -4.3960
1.585931 85.680 -4.6362
1.597423 85.805 -4.8805
1.608998 85.930 -5.1291
1.620658 86.055 -5.3822
1.632402 86.181 -5.6402
1.644231 86.307 -5.9031
1.656146 86.433 -6.1714
1.668147 86.559 -6.4452
1.680235 86.685 -6.7248
1.692410 86.812 -7.0105
1.704674 86.938 -7.3026
1.717027 87.064 -7.6012
1.729469 87.190 -7.9068
1.742002 87.316 -8.2195
1.754625 87.442 -8.5397
1.767340 87.568 -8.8677
1.780147 87.693 -9.2036
1.793046 87.818 -9.5476
1.806040 87.943 -9.8998
1.819127 88.067 -10.2601
1.832309 88.191 -10.6284
1.845587 88.315 -11.0041
1.858961 88.438 -11.3867
1.872431 88.561 -11.7759
1.886000 88.684 -12.1710
1.899666 88.806 -12.5716
1.913432 88.928 -12.9774
1.927298 89.049 -13.3879
1.941264 89.171 -13.8029
1.955331 89.291 -14.2220
1.969500 89.412 -14.6451
1.983772 89.532 -15.0720
1.998147 89.651 -15.5024
2.012626 89.771 -15.9362
2.027211 89.890 -16.3733
2.041901 90.008 -16.8136
2.056697 90.126 -17.2571
2.071601 90.244 -17.7036
2.086613 90.361 -18.1533
2.101733 90.478 -18.6061
2.116963 90.595 -19.0622
2.132303 90.711 -19.5217
2.147755 90.826 -19.9848
2.163318 90.941 -20.4518
2.178995 91.056 -20.9232
2.194785 91.170 -21.3994
2.210689 91.283 -21.8810
2.226709 91.396 -22.3683
2.242844 91.508 -22.8613
2.259097 91.619 -23.3600
2.275467 91.730 -23.8641
2.291956 91.839 -24.3731
2.308565 91.948 -24.8864
2.325294 92.056 -25.4035
2.342144 92.164 -25.9238
2.359116 92.270 -26.4467
2.376211 92.376 -26.9717
2.393430 92.481 -27.4983
2.410774 92.585 -28.0261
2.428243 92.689 -28.5545
2.445839 92.792 -29.0832
2.463562 92.895 -29.6119
2.481415 92.996 -30.1403
2.499396 93.098 -30.6685
2.517508 93.198 -31.1965
2.535750 93.298 -31.7247
2.554126 93.397 -32.2539
2.572634 93.496 -32.7849
2.591276 93.593 -33.3187
2.610054 93.690 -33.8560
2.628967 93.785 -34.3970
2.648018 93.880 -34.9417
2.667206 93.973 -35.4897
2.686534 94.066 -36.0404
2.706002 94.157 -36.5931
2.725610 94.248 -37.1470
2.745361 94.337 -37.7014
2.765255 94.426 -38.2554
2.785294 94.514 -38.8082
2.805477 94.602 -39.3591
2.825807 94.688 -39.9074
2.846284 94.774 -40.4526
2.866909 94.860 -40.9943
2.887684 94.944 -41.5323
2.908609 95.028 -42.0672
2.929686 95.111 -42.5994
2.950916 95.194 -43.1299
2.972299 95.275 -43.6598
2.993838 95.355 -44.1895
3.015532 95.435 -44.7195
3.037384 95.513 -45.2496
3.059394 95.590 -45.7794
3.081564 95.667 -46.3085
3.103894 95.743 -46.8361
3.126386 95.817 -47.3615
3.149041 95.892 -47.8840
3.171861 95.965 -48.4026
3.194845 96.038 -48.9169
3.217996 96.111 -49.4260
3.241315 96.184 -49.9296
3.264803 96.255 -50.4274
3.288461 96.327 -50.9197
3.312291 96.398 -51.4069
3.336293 96.468 -51.8895
3.360469 96.538 -52.3682
3.384820 96.607 -52.8435
3.409348 96.675 -53.3154
3.434054 96.743 -53.7839
3.458938 96.810 -54.2491
3.484003 96.877 -54.7105
3.509250 96.944 -55.1680
3.534679 97.010 -55.6212
3.560293 97.076 -56.0697
3.586092 97.143 -56.5131
3.612079 97.209 -56.9511
3.638253 97.276 -57.3835
3.664618 97.342 -57.8101
3.691173 97.409 -58.2311
3.717921 97.476 -58.6466
3.744862 97.542 -59.0570
3.771999 97.609 -59.4625
3.799332 97.675 -59.8638
3.826864 97.742 -60.2610
3.854595 97.809 -60.6548
3.882527 97.876 -61.0454
3.910661 97.943 -61.4333
3.938999 98.010 -61.8185
3.967543 98.079 -62.2013
3.996294 98.147 -62.5816
4.025252 98.216 -62.9592
4.054421 98.286 -63.3341
4.083801 98.356 -63.7060
4.113394 98.427 -64.0751
4.143201 98.498 -64.4417
4.173225 98.570 -64.8062
4.203466 98.642 -65.1695
4.233926 98.715 -65.5322
4.264606 98.788 -65.8950
4.295509 98.861 -66.2588
4.326636 98.935 -66.6240
4.357989 99.010 -66.9911
4.389569 99.085 -67.3600
4.421378 99.160 -67.7308
4.453417 99.236 -68.1033
4.485688 99.312 -68.4773
4.518193 99.389 -68.8530
4.550934 99.466 -69.2306
4.583912 99.544 -69.6105
4.617129 99.621 -69.9932
4.650587 99.699 -70.3793
4.684287 99.777 -70.7692
4.718231 99.855 -71.1634
4.752421 99.933 -71.5621
4.786859 100.010 -71.9654
4.821547 100.088 -72.3734
4.856485 100.166 -72.7857
4.891677 100.243 -73.2022
4.927125 100.321 -73.6226
4.962829 100.398 -74.0468
4.998791 100.475 -74.4745
5.035015 100.551 -74.9057
5.071500 100.627 -75.3405
5.108251 100.702 -75.7790
5.145267 100.776 -76.2214
5.182552 100.850 -76.6678
5.220107 100.923 -77.1180
5.257934 100.995 -77.5717
5.296035 101.067 -78.0283
5.334412 101.138 -78.4872
5.373067 101.208 -78.9476
5.412003 101.277 -79.4091
5.451221 101.346 -79.8712
5.490722 101.413 -80.3339
5.530510 101.480 -80.7972
5.570587 101.545 -81.2613
5.610953 101.610 -81.7259
5.651613 101.674 -82.1906
5.692567 101.737 -82.6549
5.733818 101.799 -83.1178
5.775367 101.860 -83.5789
5.817218 101.920 -84.0374
5.859372 101.980 -84.4932
5.901831 102.039 -84.9463
5.944598 102.097 -85.3966
5.987675 102.154 -85.8442
6.031065 102.211 -86.2890
6.074768 102.267 -86.7307
6.118788 102.323 -87.1690
6.163127 102.378 -87.6034
6.207788 102.433 -88.0339
6.252772 102.488 -88.4602
6.298082 102.542 -88.8824
6.343721 102.597 -89.3008
6.389690 102.651 -89.7157
6.435992 102.705 -90.1272
6.482630 102.758 -90.5357
6.529606 102.812 -90.9413
6.576922 102.866 -91.3441
6.624581 102.921 -91.7443
6.672585 102.975 -92.1421
6.720938 103.029 -92.5377
6.769640 103.084 -92.9317
6.818696 103.139 -93.3246
6.868107 103.194 -93.7169
6.917876 103.250 -94.1092
6.968006 103.305 -94.5018
7.018499 103.361 -94.8949
7.069358 103.417 -95.2888
7.120586 103.473 -95.6838
7.172184 103.530 -96.0802
7.224157 103.586 -96.4785
7.276506 103.643 -96.8791
7.329235 103.699 -97.2823
7.382345 103.755 -97.6884
7.435841 103.812 -98.0973
7.489724 103.868 -98.5091
7.543997 103.924 -98.9237
7.598664 103.979 -99.3413
7.653728 104.034 -99.7617
7.709189 104.089 -100.1851
7.765053 104.143 -100.6114
7.821322 104.197 -101.0403
7.877998 104.250 -101.4717
7.935086 104.302 -101.9051
7.992587 104.354 -102.3402
8.050504 104.405 -102.7767
8.108841 104.456 -103.2144
8.167601 104.505 -103.6530
8.226787 104.554 -104.0922
8.286402 104.602 -104.5316
8.346449 104.650 -104.9706
8.406931 104.696 -105.4089
8.467851 104.742 -105.8462
8.529212 104.788 -106.2822
8.591018 104.832 -106.7168
8.653272 104.876 -107.1497
8.715977 104.920 -107.5806
8.779137 104.963 -108.0092
8.842754 105.005 -108.4354
8.906833 105.047 -108.8591
8.971375 105.089 -109.2804
9.036386 105.130 -109.6993
9.101867 105.171 -110.1157
9.167823 105.212 -110.5297
9.234257 105.253 -110.9415
9.301172 105.294 -111.3511
9.368572 105.334 -111.7588
9.436460 105.375 -112.1649
9.504841 105.415 -112.5696
9.573717 105.455 -112.9732
9.643092 105.496 -113.3758
9.712970 105.536 -113.7778
9.783354 105.577 -114.1795
9.854248 105.617 -114.5812
9.925656 105.658 -114.9832
9.997581 105.698 -115.3857
10.070028 105.738 -115.7888
10.143000 105.779 -116.1929
10.216500 105.819 -116.5981
10.290533 105.859 -117.0045
10.365103 105.898 -117.4123
10.440212 105.938 -117.8215
10.515866 105.977 -118.2320
10.592069 106.016 -118.6438
10.668823 106.054 -119.0569
10.746134 106.092 -119.4711
10.824005 106.130 -119.8863
10.902440 106.167 -120.3022
10.981443 106.204 -120.7185
11.061020 106.240 -121.1350
11.141172 106.275 -121.5514
11.221906 106.310 -121.9674
11.303225 106.344 -122.3826
11.385133 106.378 -122.7966
11.467634 106.411 -123.2092
11.550734 106.443 -123.6201
11.634435 106.476 -124.0290
11.718742 106.507 -124.4357
11.803661 106.538 -124.8401
11.889195 106.569 -125.2420
11.975349 106.600 -125.6415
12.062128 106.631 -126.0386
12.149535 106.661 -126.4334
12.237576 106.691 -126.8262
12.326254 106.721 -127.2172
12.415575 106.751 -127.6068
12.505544 106.781 -127.9955
12.596164 106.812 -128.3835
12.687441 106.842 -128.7713
12.779379 106.872 -129.1594
12.871984 106.901 -129.5481
12.965260 106.931 -129.9378
13.059211 106.961 -130.3286
13.153843 106.990 -130.7208
13.249161 107.018 -131.1142
13.345170 107.047 -131.5089
13.441875 107.074 -131.9045
13.539280 107.101 -132.3006
13.637391 107.127 -132.6968
13.736214 107.153 -133.0926
13.835752 107.178 -133.4871
13.936011 107.202 -133.8799
14.036998 107.225 -134.2702
14.138716 107.247 -134.6576
14.241171 107.269 -135.0414
14.344368 107.291 -135.4213
14.448313 107.312 -135.7973
14.553011 107.333 -136.1694
14.658468 107.354 -136.5378
14.764689 107.375 -136.9030
14.871680 107.396 -137.2658
14.979446 107.418 -137.6270
15.087994 107.440 -137.9876
15.197328 107.462 -138.3486
15.307454 107.484 -138.7112
15.418378 107.506 -139.0763
15.530106 107.529 -139.4446
15.642643 107.551 -139.8167
15.755996 107.573 -140.1930
15.870171 107.594 -140.5734
15.985172 107.615 -140.9574
16.101007 107.635 -141.3443
16.217682 107.653 -141.7332
16.335201 107.671 -142.1227
16.453573 107.687 -142.5115
16.572803 107.702 -142.8979
16.692898 107.716 -143.2808
16.813862 107.729 -143.6586
16.935701 107.742 -144.0306
17.058424 107.754 -144.3961
17.182035 107.766 -144.7549
17.306543 107.778 -145.1075
17.431953 107.791 -145.4546
17.558273 107.804 -145.7975
17.685509 107.818 -146.1378
17.813665 107.833 -146.4775
17.942751 107.849 -146.8184
18.072771 107.866 -147.1624
18.203733 107.884 -147.5112
18.335646 107.901 -147.8661
18.468513 107.919 -148.2277
18.602345 107.937 -148.5963
18.737144 107.954 -148.9714
18.872921 107.970 -149.3522
19.009682 107.985 -149.7372
19.147434 107.999 -150.1244
19.286184 108.011 -150.5120
19.425940 108.022 -150.8978
19.566708 108.032 -151.2800
19.708496 108.041 -151.6568
19.851313 108.050 -152.0270
19.995163 108.057 -152.3898
20.140057 108.065 -152.7451
20.285999 108.072 -153.0930
20.433001 108.080 -153.4341
20.581066 108.088 -153.7697
20.730206 108.097 -154.1007
20.880424 108.107 -154.4286
21.031733 108.117 -154.7547
21.184137 108.128 -155.0801
21.337646 108.139 -155.4058
21.492268 108.150 -155.7327
21.648010 108.162 -156.0614
21.804880 108.174 -156.3924
21.962887 108.185 -156.7260
22.122040 108.196 -157.0623
22.282345 108.207 -157.4013
22.443811 108.217 -157.7426
22.606449 108.227 -158.0858
22.770266 108.235 -158.4298
22.935268 108.243 -158.7737
23.101467 108.249 -159.1159
23.268869 108.254 -159.4549
23.437485 108.257 -159.7894
23.607323 108.260 -160.1183
23.778391 108.263 -160.4410
23.950699 108.264 -160.7576
24.124256 108.266 -161.0692
24.299070 108.268 -161.3772
24.475151 108.269 -161.6836
24.652508 108.271 -161.9903
24.831150 108.272 -162.2986
25.011087 108.272 -162.6087
25.192327 108.271 -162.9194
25.374882 108.268 -163.2279
25.558758 108.264 -163.5300
25.743967 108.257 -163.8211
25.930519 108.250 -164.0964
26.118422 108.242 -164.3528
26.307686 108.235 -164.5894
26.498322 108.230 -164.8087
26.690340 108.229 -165.0166
26.883749 108.231 -165.2220
27.078560 108.239 -165.4359
27.274782 108.250 -165.6692
27.472427 108.264 -165.9313
27.671503 108.279 -166.2275
27.872023 108.293 -166.5587
28.073996 108.304 -166.9203
28.277431 108.310 -167.3036
28.482342 108.311 -167.6967
28.688736 108.307 -168.0872
28.896626 108.299 -168.4641
29.106022 108.288 -168.8201
29.316936 108.276 -169.1528
29.529379 108.265 -169.4644
29.743361 108.256 -169.7616
29.958893 108.250 -170.0530
30.175987 108.246 -170.3475
30.394655 108.244 -170.6515
30.614908 108.243 -170.9682
30.836756 108.241 -171.2969
31.060211 108.237 -171.6340
31.285286 108.233 -171.9742
31.511992 108.226 -172.3125
31.740341 108.219 -172.6454
31.970345 108.212 -172.9719
32.202015 108.204 -173.2931
32.435364 108.198 -173.6116
32.670403 108.192 -173.9300
32.907146 108.185 -174.2496
33.145607 108.179 -174.5704
33.385796 108.172 -174.8902
33.627724 108.163 -175.2057
33.871403 108.154 -175.5138
34.116848 108.145 -175.8122
34.364071 108.136 -176.1004
34.613087 108.127 -176.3793
34.863907 108.119 -176.6512
35.116547 108.111 -176.9183
35.371017 108.104 -177.1820
35.627331 108.096 -177.4418
35.885502 108.088 -177.6954
36.145542 108.079 -177.9392
36.407467 108.068 -178.1692
36.671291 108.058 -178.3825
36.937027 108.048 -178.5784
37.204689 108.039 -178.7591
37.474289 108.032 -178.9296
37.745842 108.027 -179.0970
38.019363 108.024 -179.2691
38.294868 108.021 -179.4527
38.572369 108.018 -179.6523
38.851879 108.013 -179.8698
39.133415 108.005 179.8965
39.416992 107.991 179.6517
39.702625 107.972 179.4042
39.990326 107.947 179.1662
40.280113 107.915 178.9525
40.571999 107.878 178.7792
40.866001 107.838 178.6602
41.162132 107.801 178.6009
41.460411 107.771 178.5929
41.760849 107.752 178.6108
42.063465 107.748 178.6141
42.368275 107.757 178.5553
42.675293 107.777 178.3940
42.984535 107.798 178.1093
43.296021 107.814 177.7060
43.609760 107.819 177.2138
43.925774 107.809 176.6766
44.244080 107.786 176.1393
44.564690 107.753 175.6351
44.887623 107.717 175.1785
45.212898 107.681 174.7666
45.540531 107.648 174.3873
45.870537 107.619 174.0282
46.202934 107.593 173.6827
46.537739 107.569 173.3507
46.874969 107.547 173.0349
47.214645 107.527 172.7368
47.556782 107.509 172.4571
47.901398 107.492 172.1979
48.248512 107.474 171.9659
48.598141 107.458 171.7701
48.950302 107.443 171.6164
49.305016 107.432 171.4998
49.662300 107.428 171.4024
50.022175 107.430 171.2990
50.384655 107.435 171.1668
50.749763 107.441 170.9947
51.117516 107.443 170.7848
51.487934 107.440 170.5462
51.861038 107.432 170.2868
52.236843 107.419 170.0085
52.615372 107.401 169.7096
52.996643 107.378 169.3917
53.380680 107.347 169.0636
53.767498 107.311 168.7409
54.157120 107.269 168.4395
54.549564 107.226 168.1682
54.944855 107.185 167.9260
55.343006 107.147 167.7041
55.744045 107.115 167.4910
56.147991 107.087 167.2772
56.554863 107.063 167.0569
56.964684 107.042 166.8292
57.377472 107.022 166.5964
57.793251 107.001 166.3640
58.212044 106.979 166.1396
58.633873 106.955 165.9316
59.058758 106.930 165.7468
59.486721 106.904 165.5865
59.917786 106.878 165.4459
60.351974 106.853 165.3129
60.789310 106.829 165.1719
61.229816 106.806 165.0072
61.673512 106.781 164.8046
62.120422 106.753 164.5534
62.570572 106.719 164.2498
63.023983 106.675 163.9047
63.480682 106.618 163.5502
63.940689 106.548 163.2365
64.404030 106.471 163.0143
64.870728 106.396 162.9092
65.340805 106.333 162.9050
65.814293 106.289 162.9498
66.291214 106.264 162.9825
66.771591 106.250 162.9623
67.255447 106.241 162.8819
67.742805 106.229 162.7626
68.233696 106.209 162.6390
68.728142 106.180 162.5440
69.226173 106.142 162.5011
69.727814 106.096 162.5240
70.233093 106.044 162.6205
70.742035 105.987 162.7955
71.254662 105.929 163.0473
71.771004 105.874 163.3622
72.291084 105.825 163.7125
72.814934 105.786 164.0621
73.342583 105.757 164.3728
73.874054 105.738 164.6077
74.409378 105.726 164.7366
74.948578 105.716 164.7515
75.491684 105.704 164.6795
76.038727 105.690 164.5732
76.589737 105.679 164.4726
77.144737 105.681 164.3702
77.703758 105.699 164.2176
78.266830 105.727 163.9711
78.833984 105.759 163.6277
79.405251 105.788 163.2170
79.980652 105.812 162.7700
80.560226 105.830 162.3055
81.143997 105.841 161.8415
81.732002 105.843 161.4024
82.324265 105.840 161.0080
82.920822 105.834 160.6617
83.521698 105.826 160.3549
