* Measurement data measured by REW V5.30.5
* Source: EXCL: Microphone (Realtek(R) Audio), MICROPHONE (Master Volume), L, volume: 1.000
* Format: 256k Log Swept Sine, 1 sweep at -16.0 dBFS with no timing reference
* Dated: Feb 1, 2024 11:24:48 AM
* REW Settings:
*  C-weighting compensation: Off
*  Target level: 75.0 dB
* Note: Simgot EA500LM Gold L
* Measurement: L Feb 1 gold
* Smoothing: 1/12 octave
* Frequency Step: 96 ppo
* Start Frequency: 0.36621094 Hz
*
* Freq(Hz) SPL(dB) Phase(degrees)
0.366211 78.616 143.5914
0.368865 78.613 143.5358
0.371538 78.610 143.4525
0.374230 78.605 143.3482
0.376942 78.600 143.2284
0.379673 78.595 143.0973
0.382424 78.589 142.9575
0.385196 78.583 142.8107
0.387987 78.577 142.6579
0.390798 78.571 142.4994
0.393630 78.565 142.3356
0.396483 78.559 142.1666
0.399356 78.553 141.9924
0.402250 78.547 141.8129
0.405165 78.541 141.6281
0.408101 78.534 141.4380
0.411058 78.528 141.2425
0.414037 78.522 141.0415
0.417037 78.515 140.8349
0.420059 78.509 140.6228
0.423103 78.502 140.4049
0.426169 78.496 140.1814
0.429257 78.489 139.9520
0.432367 78.483 139.7168
0.435501 78.476 139.4756
0.438656 78.469 139.2284
0.441835 78.462 138.9752
0.445037 78.456 138.7158
0.448262 78.449 138.4502
0.451510 78.442 138.1784
0.454782 78.435 137.9003
0.458077 78.428 137.6158
0.461397 78.421 137.3248
0.464740 78.413 137.0273
0.468108 78.406 136.7233
0.471500 78.399 136.4126
0.474917 78.392 136.0953
0.478358 78.384 135.7713
0.481825 78.377 135.4404
0.485316 78.369 135.1028
0.488833 78.362 134.7582
0.492375 78.354 134.4067
0.495943 78.347 134.0483
0.499537 78.339 133.6828
0.503157 78.331 133.3102
0.506803 78.324 132.9306
0.510475 78.316 132.5438
0.514174 78.308 132.1498
0.517900 78.300 131.7487
0.521653 78.292 131.3402
0.525433 78.284 130.9245
0.529241 78.276 130.5016
0.533076 78.267 130.0713
0.536939 78.259 129.6337
0.540830 78.251 129.1887
0.544749 78.242 128.7364
0.548696 78.234 128.2767
0.552673 78.226 127.8096
0.556677 78.217 127.3352
0.560711 78.208 126.8534
0.564774 78.200 126.3642
0.568867 78.191 125.8676
0.572989 78.182 125.3638
0.577141 78.173 124.8525
0.581324 78.164 124.3340
0.585536 78.155 123.8082
0.589779 78.146 123.2751
0.594053 78.137 122.7348
0.598358 78.128 122.1872
0.602694 78.119 121.6326
0.607061 78.109 121.0707
0.611460 78.100 120.5019
0.615891 78.090 119.9259
0.620354 78.081 119.3430
0.624849 78.071 118.7532
0.629377 78.062 118.1564
0.633938 78.052 117.5528
0.638532 78.042 116.9425
0.643159 78.032 116.3255
0.647819 78.022 115.7018
0.652514 78.012 115.0715
0.657242 78.002 114.4346
0.662005 77.992 113.7913
0.666802 77.982 113.1416
0.671634 77.971 112.4856
0.676501 77.961 111.8232
0.681403 77.951 111.1546
0.686341 77.940 110.4797
0.691314 77.930 109.7987
0.696324 77.919 109.1116
0.701369 77.909 108.4182
0.706452 77.899 107.7186
0.711571 77.889 107.0125
0.716727 77.881 106.2996
0.721921 77.874 105.5795
0.727153 77.869 104.8513
0.732422 77.867 104.1140
0.737729 77.869 103.3663
0.743075 77.875 102.6072
0.748460 77.883 101.8357
0.753883 77.894 101.0510
0.759346 77.906 100.2531
0.764849 77.920 99.4416
0.770391 77.935 98.6167
0.775974 77.951 97.7785
0.781597 77.969 96.9273
0.787261 77.987 96.0634
0.792965 78.006 95.1871
0.798712 78.026 94.2987
0.804499 78.047 93.3988
0.810329 78.070 92.4876
0.816201 78.093 91.5657
0.822116 78.117 90.6335
0.828073 78.142 89.6916
0.834073 78.168 88.7404
0.840118 78.195 87.7805
0.846205 78.223 86.8125
0.852337 78.253 85.8369
0.858514 78.283 84.8543
0.864735 78.314 83.8652
0.871001 78.347 82.8704
0.877313 78.380 81.8704
0.883670 78.414 80.8657
0.890074 78.450 79.8571
0.896523 78.487 78.8451
0.903020 78.524 77.8303
0.909564 78.563 76.8133
0.916155 78.603 75.7947
0.922793 78.644 74.7751
0.929480 78.686 73.7549
0.936216 78.729 72.7348
0.943000 78.773 71.7152
0.949833 78.818 70.6967
0.956716 78.864 69.6795
0.963649 78.912 68.6644
0.970632 78.960 67.6515
0.977666 79.010 66.6413
0.984750 79.060 65.6341
0.991886 79.112 64.6302
0.999074 79.165 63.6299
1.006313 79.219 62.6335
1.013605 79.274 61.6411
1.020950 79.330 60.6529
1.028349 79.387 59.6690
1.035801 79.445 58.6896
1.043306 79.504 57.7145
1.050867 79.564 56.7439
1.058482 79.626 55.7776
1.066152 79.688 54.8155
1.073878 79.752 53.8573
1.081659 79.816 52.9025
1.089498 79.883 51.9506
1.097393 79.950 51.0008
1.105345 80.020 50.0524
1.113355 80.091 49.1046
1.121422 80.164 48.1569
1.129549 80.240 47.2091
1.137734 80.318 46.2611
1.145978 80.398 45.3131
1.154283 80.481 44.3653
1.162647 80.565 43.4181
1.171072 80.652 42.4719
1.179558 80.741 41.5270
1.188106 80.833 40.5838
1.196715 80.926 39.6428
1.205387 81.021 38.7043
1.214122 81.119 37.7687
1.222920 81.218 36.8365
1.231781 81.319 35.9081
1.240708 81.422 34.9838
1.249698 81.526 34.0639
1.258754 81.632 33.1490
1.267875 81.739 32.2393
1.277063 81.848 31.3352
1.286317 81.958 30.4370
1.295638 82.069 29.5451
1.305027 82.182 28.6598
1.314484 82.295 27.7813
1.324009 82.409 26.9100
1.333603 82.524 26.0460
1.343267 82.639 25.1898
1.353001 82.755 24.3414
1.362805 82.871 23.5012
1.372681 82.988 22.6693
1.382628 83.104 21.8460
1.392647 83.220 21.0313
1.402739 83.336 20.2254
1.412904 83.452 19.4284
1.423142 83.567 18.6403
1.433455 83.681 17.8610
1.443842 83.795 17.0903
1.454305 83.908 16.3279
1.464843 84.021 15.5733
1.475458 84.133 14.8259
1.486150 84.246 14.0850
1.496919 84.359 13.3501
1.507766 84.472 12.6210
1.518692 84.585 11.8973
1.529697 84.699 11.1789
1.540782 84.814 10.4657
1.551947 84.929 9.7576
1.563193 85.044 9.0546
1.574521 85.160 8.3566
1.585931 85.276 7.6635
1.597423 85.393 6.9752
1.608998 85.510 6.2917
1.620658 85.627 5.6129
1.632402 85.745 4.9386
1.644231 85.863 4.2687
1.656146 85.981 3.6032
1.668147 86.099 2.9418
1.680235 86.217 2.2845
1.692410 86.336 1.6311
1.704674 86.454 0.9815
1.717027 86.572 0.3354
1.729469 86.691 -0.3072
1.742002 86.809 -0.9467
1.754625 86.927 -1.5831
1.767340 87.045 -2.2168
1.780147 87.162 -2.8478
1.793046 87.279 -3.4766
1.806040 87.396 -4.1035
1.819127 87.513 -4.7288
1.832309 87.629 -5.3529
1.845587 87.745 -5.9761
1.858961 87.860 -6.5988
1.872431 87.975 -7.2211
1.886000 88.090 -7.8429
1.899666 88.204 -8.4642
1.913432 88.318 -9.0847
1.927298 88.431 -9.7041
1.941264 88.545 -10.3223
1.955331 88.658 -10.9390
1.969500 88.770 -11.5540
1.983772 88.883 -12.1669
1.998147 88.995 -12.7776
2.012626 89.106 -13.3858
2.027211 89.218 -13.9913
2.041901 89.329 -14.5940
2.056697 89.440 -15.1936
2.071601 89.551 -15.7901
2.086613 89.661 -16.3832
2.101733 89.771 -16.9728
2.116963 89.881 -17.5590
2.132303 89.991 -18.1416
2.147755 90.101 -18.7207
2.163318 90.211 -19.2966
2.178995 90.320 -19.8696
2.194785 90.429 -20.4400
2.210689 90.538 -21.0086
2.226709 90.646 -21.5758
2.242844 90.754 -22.1419
2.259097 90.861 -22.7073
2.275467 90.968 -23.2720
2.291956 91.074 -23.8359
2.308565 91.179 -24.3988
2.325294 91.285 -24.9607
2.342144 91.389 -25.5212
2.359116 91.494 -26.0802
2.376211 91.597 -26.6374
2.393430 91.701 -27.1927
2.410774 91.804 -27.7458
2.428243 91.907 -28.2965
2.445839 92.009 -28.8447
2.463562 92.111 -29.3903
2.481415 92.213 -29.9331
2.499396 92.315 -30.4731
2.517508 92.416 -31.0104
2.535750 92.517 -31.5452
2.554126 92.618 -32.0777
2.572634 92.719 -32.6083
2.591276 92.819 -33.1376
2.610054 92.918 -33.6660
2.628967 93.017 -34.1936
2.648018 93.116 -34.7206
2.667206 93.214 -35.2469
2.686534 93.311 -35.7725
2.706002 93.408 -36.2973
2.725610 93.505 -36.8209
2.745361 93.601 -37.3434
2.765255 93.696 -37.8644
2.785294 93.791 -38.3839
2.805477 93.886 -38.9016
2.825807 93.980 -39.4174
2.846284 94.075 -39.9312
2.866909 94.168 -40.4431
2.887684 94.262 -40.9530
2.908609 94.355 -41.4612
2.929686 94.448 -41.9680
2.950916 94.541 -42.4738
2.972299 94.633 -42.9790
2.993838 94.725 -43.4838
3.015532 94.816 -43.9882
3.037384 94.906 -44.4924
3.059394 94.996 -44.9960
3.081564 95.086 -45.4989
3.103894 95.175 -46.0009
3.126386 95.263 -46.5017
3.149041 95.352 -47.0010
3.171861 95.439 -47.4986
3.194845 95.527 -47.9942
3.217996 95.614 -48.4877
3.241315 95.701 -48.9790
3.264803 95.788 -49.4682
3.288461 95.874 -49.9554
3.312291 95.960 -50.4410
3.336293 96.045 -50.9253
3.360469 96.130 -51.4086
3.384820 96.214 -51.8910
3.409348 96.298 -52.3725
3.434054 96.382 -52.8532
3.458938 96.465 -53.3329
3.484003 96.547 -53.8114
3.509250 96.629 -54.2887
3.534679 96.711 -54.7644
3.560293 96.792 -55.2386
3.586092 96.873 -55.7110
3.612079 96.954 -56.1818
3.638253 97.034 -56.6510
3.664618 97.114 -57.1188
3.691173 97.194 -57.5856
3.717921 97.273 -58.0514
3.744862 97.352 -58.5165
3.771999 97.430 -58.9809
3.799332 97.508 -59.4444
3.826864 97.585 -59.9069
3.854595 97.662 -60.3682
3.882527 97.738 -60.8279
3.910661 97.814 -61.2860
3.938999 97.890 -61.7421
3.967543 97.965 -62.1962
3.996294 98.040 -62.6482
4.025252 98.115 -63.0984
4.054421 98.189 -63.5467
4.083801 98.263 -63.9936
4.113394 98.336 -64.4391
4.143201 98.409 -64.8833
4.173225 98.481 -65.3261
4.203466 98.554 -65.7675
4.233926 98.625 -66.2072
4.264606 98.697 -66.6450
4.295509 98.767 -67.0809
4.326636 98.838 -67.5146
4.357989 98.908 -67.9462
4.389569 98.978 -68.3756
4.421378 99.048 -68.8031
4.453417 99.117 -69.2288
4.485688 99.186 -69.6528
4.518193 99.255 -70.0751
4.550934 99.323 -70.4956
4.583912 99.391 -70.9143
4.617129 99.458 -71.3310
4.650587 99.525 -71.7456
4.684287 99.592 -72.1578
4.718231 99.659 -72.5676
4.752421 99.726 -72.9751
4.786859 99.792 -73.3802
4.821547 99.858 -73.7830
4.856485 99.924 -74.1837
4.891677 99.990 -74.5824
4.927125 100.055 -74.9791
4.962829 100.121 -75.3738
4.998791 100.186 -75.7666
5.035015 100.251 -76.1574
5.071500 100.316 -76.5462
5.108251 100.380 -76.9329
5.145267 100.445 -77.3177
5.182552 100.510 -77.7006
5.220107 100.575 -78.0816
5.257934 100.639 -78.4609
5.296035 100.704 -78.8388
5.334412 100.769 -79.2153
5.373067 100.833 -79.5908
5.412003 100.898 -79.9653
5.451221 100.963 -80.3390
5.490722 101.027 -80.7119
5.530510 101.092 -81.0841
5.570587 101.157 -81.4557
5.610953 101.222 -81.8267
5.651613 101.287 -82.1976
5.692567 101.353 -82.5684
5.733818 101.418 -82.9396
5.775367 101.483 -83.3114
5.817218 101.548 -83.6841
5.859372 101.614 -84.0578
5.901831 101.679 -84.4326
5.944598 101.745 -84.8086
5.987675 101.811 -85.1859
6.031065 101.876 -85.5647
6.074768 101.942 -85.9453
6.118788 102.007 -86.3279
6.163127 102.073 -86.7127
6.207788 102.138 -87.1001
6.252772 102.203 -87.4901
6.298082 102.268 -87.8828
6.343721 102.333 -88.2782
6.389690 102.398 -88.6763
6.435992 102.462 -89.0772
6.482630 102.526 -89.4807
6.529606 102.590 -89.8871
6.576922 102.653 -90.2963
6.624581 102.716 -90.7084
6.672585 102.778 -91.1234
6.720938 102.840 -91.5413
6.769640 102.901 -91.9617
6.818696 102.962 -92.3845
6.868107 103.022 -92.8093
6.917876 103.081 -93.2360
6.968006 103.140 -93.6645
7.018499 103.198 -94.0948
7.069358 103.255 -94.5266
7.120586 103.311 -94.9597
7.172184 103.367 -95.3936
7.224157 103.421 -95.8280
7.276506 103.475 -96.2625
7.329235 103.529 -96.6967
7.382345 103.581 -97.1306
7.435841 103.633 -97.5639
7.489724 103.684 -97.9965
7.543997 103.734 -98.4279
7.598664 103.783 -98.8578
7.653728 103.832 -99.2860
7.709189 103.881 -99.7120
7.765053 103.928 -100.1359
7.821322 103.975 -100.5576
7.877998 104.022 -100.9769
7.935086 104.068 -101.3939
7.992587 104.114 -101.8084
8.050504 104.160 -102.2204
8.108841 104.205 -102.6298
8.167601 104.250 -103.0367
8.226787 104.295 -103.4414
8.286402 104.340 -103.8441
8.346449 104.384 -104.2449
8.406931 104.429 -104.6442
8.467851 104.474 -105.0421
8.529212 104.519 -105.4389
8.591018 104.563 -105.8349
8.653272 104.608 -106.2305
8.715977 104.653 -106.6261
8.779137 104.698 -107.0222
8.842754 104.743 -107.4189
8.906833 104.788 -107.8166
8.971375 104.834 -108.2156
9.036386 104.879 -108.6161
9.101867 104.924 -109.0184
9.167823 104.969 -109.4229
9.234257 105.014 -109.8296
9.301172 105.058 -110.2386
9.368572 105.103 -110.6500
9.436460 105.147 -111.0638
9.504841 105.191 -111.4798
9.573717 105.234 -111.8981
9.643092 105.277 -112.3185
9.712970 105.319 -112.7407
9.783354 105.361 -113.1645
9.854248 105.402 -113.5896
9.925656 105.443 -114.0156
9.997581 105.483 -114.4423
10.070028 105.523 -114.8693
10.143000 105.561 -115.2961
10.216500 105.600 -115.7225
10.290533 105.637 -116.1480
10.365103 105.674 -116.5723
10.440212 105.711 -116.9953
10.515866 105.747 -117.4164
10.592069 105.782 -117.8357
10.668823 105.817 -118.2527
10.746134 105.852 -118.6674
10.824005 105.887 -119.0798
10.902440 105.921 -119.4899
10.981443 105.955 -119.8975
11.061020 105.989 -120.3029
11.141172 106.023 -120.7060
11.221906 106.056 -121.1071
11.303225 106.090 -121.5062
11.385133 106.124 -121.9036
11.467634 106.157 -122.2995
11.550734 106.191 -122.6939
11.634435 106.224 -123.0872
11.718742 106.258 -123.4794
11.803661 106.291 -123.8707
11.889195 106.325 -124.2612
11.975349 106.358 -124.6510
12.062128 106.391 -125.0401
12.149535 106.425 -125.4286
12.237576 106.458 -125.8166
12.326254 106.491 -126.2040
12.415575 106.524 -126.5907
12.505544 106.557 -126.9769
12.596164 106.589 -127.3626
12.687441 106.622 -127.7476
12.779379 106.654 -128.1321
12.871984 106.687 -128.5162
12.965260 106.719 -128.8999
13.059211 106.751 -129.2834
13.153843 106.783 -129.6667
13.249161 106.815 -130.0500
13.345170 106.846 -130.4335
13.441875 106.878 -130.8174
13.539280 106.909 -131.2017
13.637391 106.940 -131.5866
13.736214 106.971 -131.9722
13.835752 107.001 -132.3586
13.936011 107.031 -132.7457
14.036998 107.061 -133.1335
14.138716 107.090 -133.5218
14.241171 107.118 -133.9106
14.344368 107.146 -134.2996
14.448313 107.174 -134.6885
14.553011 107.201 -135.0773
14.658468 107.227 -135.4655
14.764689 107.252 -135.8530
14.871680 107.277 -136.2396
14.979446 107.301 -136.6252
15.087994 107.325 -137.0096
15.197328 107.348 -137.3928
15.307454 107.370 -137.7748
15.418378 107.392 -138.1558
15.530106 107.414 -138.5359
15.642643 107.435 -138.9151
15.755996 107.455 -139.2937
15.870171 107.475 -139.6716
15.985172 107.495 -140.0490
16.101007 107.513 -140.4257
16.217682 107.531 -140.8016
16.335201 107.548 -141.1765
16.453573 107.565 -141.5500
16.572803 107.581 -141.9216
16.692898 107.596 -142.2909
16.813862 107.610 -142.6574
16.935701 107.624 -143.0205
17.058424 107.637 -143.3799
17.182035 107.650 -143.7353
17.306543 107.663 -144.0866
17.431953 107.675 -144.4337
17.558273 107.687 -144.7770
17.685509 107.700 -145.1168
17.813665 107.713 -145.4538
17.942751 107.726 -145.7887
18.072771 107.739 -146.1223
18.203733 107.753 -146.4554
18.335646 107.768 -146.7890
18.468513 107.782 -147.1236
18.602345 107.797 -147.4599
18.737144 107.812 -147.7984
18.872921 107.828 -148.1395
19.009682 107.843 -148.4831
19.147434 107.858 -148.8295
19.286184 107.874 -149.1786
19.425940 107.889 -149.5301
19.566708 107.903 -149.8840
19.708496 107.918 -150.2399
19.851313 107.932 -150.5977
19.995163 107.946 -150.9568
20.140057 107.959 -151.3169
20.285999 107.972 -151.6774
20.433001 107.984 -152.0375
20.581066 107.996 -152.3963
20.730206 108.006 -152.7528
20.880424 108.017 -153.1058
21.031733 108.026 -153.4543
21.184137 108.035 -153.7973
21.337646 108.044 -154.1340
21.492268 108.053 -154.4641
21.648010 108.062 -154.7877
21.804880 108.071 -155.1056
21.962887 108.081 -155.4187
22.122040 108.091 -155.7287
22.282345 108.103 -156.0372
22.443811 108.115 -156.3461
22.606449 108.127 -156.6568
22.770266 108.139 -156.9706
22.935268 108.152 -157.2880
23.101467 108.164 -157.6093
23.268869 108.175 -157.9337
23.437485 108.186 -158.2608
23.607323 108.196 -158.5894
23.778391 108.205 -158.9187
23.950699 108.213 -159.2482
24.124256 108.220 -159.5779
24.299070 108.227 -159.9084
24.475151 108.233 -160.2405
24.652508 108.239 -160.5756
24.831150 108.244 -160.9149
25.011087 108.248 -161.2594
25.192327 108.250 -161.6093
25.374882 108.251 -161.9641
25.558758 108.250 -162.3224
25.743967 108.247 -162.6822
25.930519 108.242 -163.0408
26.118422 108.234 -163.3952
26.307686 108.225 -163.7424
26.498322 108.214 -164.0800
26.690340 108.201 -164.4061
26.883749 108.188 -164.7195
27.078560 108.176 -165.0199
27.274782 108.164 -165.3079
27.472427 108.153 -165.5850
27.671503 108.143 -165.8533
27.872023 108.136 -166.1159
28.073996 108.132 -166.3766
28.277431 108.130 -166.6397
28.482342 108.131 -166.9099
28.688736 108.134 -167.1914
28.896626 108.138 -167.4880
29.106022 108.144 -167.8018
29.316936 108.150 -168.1332
29.529379 108.154 -168.4799
29.743361 108.157 -168.8377
29.958893 108.158 -169.2004
30.175987 108.156 -169.5610
30.394655 108.152 -169.9126
30.614908 108.147 -170.2497
30.836756 108.141 -170.5694
31.060211 108.135 -170.8714
31.285286 108.131 -171.1586
31.511992 108.129 -171.4359
31.740341 108.129 -171.7089
31.970345 108.130 -171.9830
32.202015 108.133 -172.2618
32.435364 108.135 -172.5466
32.670403 108.136 -172.8362
32.907146 108.136 -173.1278
33.145607 108.135 -173.4179
33.385796 108.132 -173.7035
33.627724 108.128 -173.9830
33.871403 108.124 -174.2566
34.116848 108.119 -174.5256
34.364071 108.113 -174.7920
34.613087 108.108 -175.0576
34.863907 108.101 -175.3228
35.116547 108.094 -175.5872
35.371017 108.087 -175.8499
35.627331 108.079 -176.1104
35.885502 108.071 -176.3700
36.145542 108.064 -176.6317
36.407467 108.058 -176.9001
36.671291 108.052 -177.1801
36.937027 108.046 -177.4748
37.204689 108.039 -177.7844
37.474289 108.030 -178.1052
37.745842 108.018 -178.4304
38.019363 108.003 -178.7518
38.294868 107.986 -179.0623
38.572369 107.969 -179.3575
38.851879 107.951 -179.6368
39.133415 107.935 -179.9028
39.416992 107.920 179.8402
39.702625 107.906 179.5882
39.990326 107.894 179.3384
40.280113 107.883 179.0897
40.571999 107.872 178.8414
40.866001 107.862 178.5924
41.162132 107.853 178.3401
41.460411 107.845 178.0811
41.760849 107.836 177.8115
42.063465 107.827 177.5291
42.368275 107.815 177.2338
42.675293 107.800 176.9285
42.984535 107.781 176.6190
43.296021 107.758 176.3129
43.609760 107.731 176.0195
43.925774 107.701 175.7476
44.244080 107.669 175.5032
44.564690 107.638 175.2872
44.887623 107.609 175.0932
45.212898 107.585 174.9083
45.540531 107.566 174.7167
45.870537 107.550 174.5057
46.202934 107.535 174.2706
46.537739 107.519 174.0171
46.874969 107.502 173.7576
47.214645 107.484 173.5046
47.556782 107.466 173.2634
47.901398 107.452 173.0291
48.248512 107.440 172.7899
48.598141 107.430 172.5345
48.950302 107.420 172.2597
49.305016 107.406 171.9728
49.662300 107.388 171.6887
50.022175 107.365 171.4236
50.384655 107.340 171.1884
50.749763 107.313 170.9863
51.117516 107.286 170.8139
51.487934 107.261 170.6643
51.861038 107.237 170.5295
52.236843 107.216 170.4009
52.615372 107.197 170.2691
52.996643 107.180 170.1242
53.380680 107.164 169.9579
53.767498 107.148 169.7650
54.157120 107.132 169.5441
54.549564 107.114 169.2959
54.944855 107.094 169.0227
55.343006 107.072 168.7277
55.744045 107.047 168.4173
56.147991 107.018 168.1013
56.554863 106.986 167.7911
56.964684 106.953 167.4952
57.377472 106.921 167.2150
57.793251 106.889 166.9451
58.212044 106.858 166.6787
58.633873 106.827 166.4138
59.058758 106.794 166.1566
59.486721 106.759 165.9177
59.917786 106.721 165.7059
60.351974 106.683 165.5240
60.789310 106.645 165.3690
61.229816 106.608 165.2359
61.673512 106.572 165.1187
62.120422 106.538 165.0092
62.570572 106.506 164.8962
63.023983 106.475 164.7698
63.480682 106.442 164.6283
63.940689 106.407 164.4815
64.404030 106.369 164.3468
64.870728 106.329 164.2400
65.340805 106.290 164.1700
65.814293 106.254 164.1407
66.291214 106.222 164.1550
66.771591 106.198 164.2131
67.255447 106.183 164.3041
67.742805 106.179 164.4018
68.233696 106.185 164.4725
68.728142 106.197 164.4938
69.226173 106.206 164.4692
69.727814 106.212 164.4234
70.233093 106.213 164.3828
70.742035 106.214 164.3546
71.254662 106.216 164.3225
71.771004 106.219 164.2640
72.291084 106.221 164.1693
72.814934 106.221 164.0428
73.342583 106.220 163.8858
73.874054 106.218 163.6824
74.409378 106.211 163.4135
74.948578 106.195 163.0862
75.491684 106.163 162.7460
76.038727 106.118 162.4513
76.589737 106.067 162.2353
77.144737 106.019 162.0886
77.703758 105.976 161.9760
78.266830 105.940 161.8636
78.833984 105.910 161.7299
79.405251 105.885 161.5620
79.980652 105.862 161.3526
80.560226 105.841 161.1023
81.143997 105.819 160.8180
