* Measurement data measured by REW V5.30.5
* Source: EXCL: Microphone (Realtek(R) Audio), MICROPHONE (Master Volume), L, volume: 1.000
* Format: 256k Log Swept Sine, 1 sweep at -10.0 dBFS with no timing reference
* Dated: Feb 12, 2024 1:34:14 AM
* REW Settings:
*  C-weighting compensation: Off
*  Target level: 75.0 dB
* Note: Softears Twilight L
* Measurement: L Softears Twilight
* Smoothing: 1/12 octave
* Frequency Step: 96 ppo
* Start Frequency: 1.0986328 Hz
*
* Freq(Hz) SPL(dB) Phase(degrees)
1.098633 71.198 59.3039
1.106594 71.280 58.6583
1.114613 71.400 57.7187
1.122690 71.547 56.5841
1.130825 71.712 55.3378
1.139020 71.887 54.0386
1.147273 72.069 52.7242
1.155587 72.256 51.4166
1.163961 72.445 50.1280
1.172395 72.637 48.8648
1.180891 72.830 47.6300
1.189448 73.025 46.4248
1.198068 73.221 45.2493
1.206749 73.419 44.1032
1.215494 73.618 42.9859
1.224302 73.819 41.8965
1.233174 74.021 40.8340
1.242110 74.225 39.7974
1.251111 74.430 38.7856
1.260177 74.636 37.7975
1.269308 74.844 36.8319
1.278506 75.054 35.8878
1.287771 75.265 34.9639
1.297103 75.478 34.0592
1.306502 75.692 33.1724
1.315969 75.908 32.3024
1.325505 76.125 31.4482
1.335111 76.344 30.6086
1.344785 76.565 29.7826
1.354530 76.787 28.9691
1.364346 77.010 28.1671
1.374232 77.236 27.3757
1.384191 77.462 26.5937
1.394221 77.690 25.8205
1.404324 77.919 25.0550
1.414500 78.149 24.2966
1.424751 78.379 23.5446
1.435075 78.608 22.7986
1.445474 78.834 22.0586
1.455948 79.058 21.3249
1.466499 79.276 20.5980
1.477126 79.489 19.8790
1.487830 79.698 19.1687
1.498611 79.902 18.4679
1.509471 80.104 17.7770
1.520409 80.303 17.0958
1.531427 80.500 16.4244
1.542524 80.696 15.7623
1.553702 80.891 15.1090
1.564960 81.084 14.4640
1.576301 81.276 13.8267
1.587723 81.467 13.1966
1.599229 81.657 12.5729
1.610817 81.846 11.9552
1.622490 82.034 11.3426
1.634247 82.221 10.7347
1.646089 82.407 10.1308
1.658018 82.592 9.5301
1.670032 82.777 8.9322
1.682134 82.960 8.3363
1.694323 83.143 7.7418
1.706601 83.325 7.1481
1.718968 83.507 6.5546
1.731424 83.688 5.9606
1.743971 83.868 5.3655
1.756608 84.048 4.7688
1.769338 84.227 4.1699
1.782159 84.406 3.5683
1.795073 84.585 2.9637
1.808081 84.762 2.3559
1.821183 84.940 1.7449
1.834380 85.116 1.1311
1.847673 85.291 0.5150
1.861062 85.466 -0.1027
1.874548 85.638 -0.7214
1.888132 85.810 -1.3404
1.901814 85.979 -1.9592
1.915595 86.148 -2.5775
1.929476 86.314 -3.1950
1.943458 86.480 -3.8113
1.957541 86.644 -4.4265
1.971726 86.806 -5.0403
1.986014 86.968 -5.6527
2.000406 87.128 -6.2638
2.014902 87.287 -6.8736
2.029502 87.445 -7.4821
2.044209 87.602 -8.0896
2.059022 87.758 -8.6962
2.073943 87.913 -9.3021
2.088971 88.068 -9.9075
2.104109 88.222 -10.5128
2.119356 88.375 -11.1184
2.134714 88.528 -11.7245
2.150183 88.680 -12.3317
2.165764 88.832 -12.9404
2.181458 88.983 -13.5511
2.197266 89.133 -14.1643
2.213188 89.283 -14.7805
2.229226 89.431 -15.3997
2.245379 89.579 -16.0220
2.261650 89.724 -16.6471
2.278039 89.869 -17.2746
2.294547 90.012 -17.9040
2.311174 90.154 -18.5349
2.327922 90.295 -19.1667
2.344791 90.434 -19.7992
2.361782 90.572 -20.4318
2.378897 90.709 -21.0642
2.396135 90.845 -21.6961
2.413498 90.980 -22.3273
2.430988 91.114 -22.9576
2.448604 91.247 -23.5869
2.466347 91.379 -24.2151
2.484219 91.510 -24.8424
2.502221 91.641 -25.4689
2.520353 91.770 -26.0951
2.538617 91.899 -26.7215
2.557013 92.027 -27.3490
2.575542 92.154 -27.9786
2.594205 92.280 -28.6109
2.613004 92.405 -29.2465
2.631939 92.528 -29.8856
2.651011 92.650 -30.5279
2.670221 92.771 -31.1728
2.689571 92.890 -31.8199
2.709061 93.008 -32.4683
2.728692 93.125 -33.1174
2.748465 93.240 -33.7665
2.768381 93.354 -34.4148
2.788442 93.468 -35.0618
2.808648 93.580 -35.7069
2.829001 93.691 -36.3497
2.849501 93.801 -36.9900
2.870150 93.910 -37.6277
2.890948 94.018 -38.2632
2.911897 94.126 -38.8971
2.932998 94.232 -39.5304
2.954252 94.337 -40.1642
2.975659 94.441 -40.7996
2.997222 94.543 -41.4371
3.018941 94.644 -42.0767
3.040818 94.744 -42.7181
3.062853 94.842 -43.3607
3.085048 94.939 -44.0037
3.107403 95.034 -44.6461
3.129921 95.128 -45.2871
3.152601 95.222 -45.9258
3.175447 95.314 -46.5613
3.198457 95.405 -47.1930
3.221634 95.495 -47.8203
3.244980 95.584 -48.4431
3.268494 95.672 -49.0617
3.292179 95.759 -49.6766
3.316035 95.844 -50.2890
3.340065 95.929 -50.9000
3.364268 96.012 -51.5102
3.388647 96.094 -52.1200
3.413202 96.174 -52.7291
3.437936 96.253 -53.3372
3.462848 96.331 -53.9435
3.487942 96.408 -54.5472
3.513217 96.483 -55.1472
3.538675 96.558 -55.7427
3.564318 96.632 -56.3329
3.590146 96.704 -56.9172
3.616162 96.776 -57.4953
3.642366 96.847 -58.0672
3.668760 96.917 -58.6335
3.695346 96.986 -59.1948
3.722124 97.054 -59.7520
3.749096 97.120 -60.3056
3.776263 97.186 -60.8556
3.803627 97.250 -61.4019
3.831190 97.314 -61.9440
3.858953 97.376 -62.4813
3.886916 97.438 -63.0132
3.915082 97.499 -63.5389
3.943453 97.559 -64.0577
3.972029 97.619 -64.5692
4.000812 97.678 -65.0732
4.029803 97.737 -65.5695
4.059005 97.794 -66.0587
4.088418 97.852 -66.5411
4.118044 97.908 -67.0170
4.147885 97.964 -67.4868
4.177943 98.019 -67.9505
4.208218 98.074 -68.4080
4.238712 98.128 -68.8593
4.269428 98.182 -69.3039
4.300366 98.236 -69.7417
4.331528 98.290 -70.1724
4.362916 98.344 -70.5957
4.394531 98.397 -71.0115
4.426376 98.451 -71.4198
4.458451 98.504 -71.8206
4.490759 98.558 -72.2143
4.523301 98.611 -72.6012
4.556078 98.664 -72.9817
4.589094 98.718 -73.3562
4.622348 98.771 -73.7249
4.655844 98.825 -74.0882
4.689582 98.879 -74.4462
4.723565 98.934 -74.7989
4.757793 98.989 -75.1463
4.792270 99.045 -75.4883
4.826997 99.101 -75.8248
4.861975 99.157 -76.1561
4.897207 99.215 -76.4826
4.932694 99.272 -76.8050
4.968439 99.330 -77.1240
5.004442 99.389 -77.4404
5.040707 99.449 -77.7548
5.077234 99.509 -78.0677
5.114026 99.570 -78.3794
5.151084 99.632 -78.6897
5.188411 99.694 -78.9988
5.226008 99.757 -79.3067
5.263878 99.821 -79.6138
5.302022 99.886 -79.9208
5.340443 99.951 -80.2285
5.379142 100.017 -80.5377
5.418121 100.084 -80.8491
5.457383 100.151 -81.1633
5.496930 100.219 -81.4807
5.536763 100.287 -81.8012
5.576884 100.356 -82.1248
5.617297 100.425 -82.4518
5.658002 100.495 -82.7824
5.699002 100.565 -83.1170
5.740300 100.636 -83.4561
5.781896 100.707 -83.8004
5.823794 100.777 -84.1501
5.865995 100.848 -84.5056
5.908503 100.919 -84.8670
5.951319 100.990 -85.2342
5.994444 101.061 -85.6072
6.037883 101.131 -85.9857
6.081636 101.201 -86.3697
6.125706 101.271 -86.7591
6.170095 101.341 -87.1541
6.214807 101.410 -87.5548
6.259841 101.478 -87.9611
6.305203 101.545 -88.3729
6.350893 101.612 -88.7901
6.396914 101.678 -89.2121
6.443269 101.744 -89.6383
6.489959 101.808 -90.0680
6.536988 101.871 -90.5009
6.584358 101.933 -90.9366
6.632071 101.994 -91.3750
6.680129 102.054 -91.8160
6.728536 102.113 -92.2590
6.777294 102.171 -92.7035
6.826405 102.228 -93.1483
6.875872 102.283 -93.5928
6.925697 102.337 -94.0363
6.975883 102.390 -94.4782
7.026433 102.442 -94.9184
7.077350 102.493 -95.3565
7.128635 102.543 -95.7921
7.180293 102.591 -96.2246
7.232324 102.639 -96.6531
7.284732 102.686 -97.0769
7.337521 102.732 -97.4957
7.390691 102.778 -97.9093
7.444247 102.823 -98.3175
7.498191 102.867 -98.7203
7.552526 102.911 -99.1176
7.607255 102.955 -99.5092
7.662380 102.998 -99.8950
7.717905 103.042 -100.2750
7.773832 103.085 -100.6493
7.830165 103.129 -101.0182
7.886906 103.173 -101.3823
7.944057 103.217 -101.7423
8.001623 103.262 -102.0985
8.059607 103.307 -102.4517
8.118010 103.353 -102.8021
8.176836 103.399 -103.1505
8.236089 103.446 -103.4975
8.295771 103.493 -103.8442
8.355886 103.541 -104.1914
8.416435 103.590 -104.5401
8.477425 103.639 -104.8909
8.538856 103.689 -105.2442
8.600732 103.739 -105.6007
8.663056 103.790 -105.9611
8.725832 103.841 -106.3258
8.789062 103.891 -106.6956
8.852752 103.942 -107.0706
8.916903 103.993 -107.4511
8.981518 104.043 -107.8369
9.046601 104.093 -108.2278
9.112157 104.143 -108.6239
9.178187 104.191 -109.0248
9.244697 104.239 -109.4302
9.311687 104.286 -109.8396
9.379164 104.332 -110.2523
9.447129 104.377 -110.6674
9.515587 104.421 -111.0841
9.584540 104.463 -111.5017
9.653994 104.505 -111.9196
9.723950 104.545 -112.3367
9.794415 104.584 -112.7522
9.865389 104.622 -113.1652
9.936877 104.659 -113.5749
10.008884 104.695 -113.9808
10.081413 104.731 -114.3822
10.154468 104.765 -114.7789
10.228051 104.799 -115.1702
10.302168 104.832 -115.5560
10.376822 104.865 -115.9361
10.452016 104.898 -116.3107
10.527756 104.931 -116.6800
10.604044 104.963 -117.0442
10.680885 104.996 -117.4038
10.758284 105.029 -117.7591
10.836243 105.062 -118.1108
10.914766 105.096 -118.4595
10.993859 105.129 -118.8058
11.073525 105.163 -119.1504
11.153769 105.197 -119.4937
11.234593 105.232 -119.8364
11.316004 105.267 -120.1788
11.398005 105.301 -120.5215
11.480599 105.336 -120.8647
11.563792 105.371 -121.2085
11.647588 105.406 -121.5531
11.731991 105.441 -121.8985
11.817006 105.475 -122.2447
11.902637 105.510 -122.5915
11.988889 105.544 -122.9388
12.075766 105.578 -123.2864
12.163272 105.611 -123.6341
12.251412 105.645 -123.9818
12.340191 105.678 -124.3295
12.429613 105.710 -124.6771
12.519683 105.743 -125.0246
12.610406 105.776 -125.3721
12.701786 105.808 -125.7198
12.793828 105.840 -126.0679
12.886538 105.872 -126.4167
12.979918 105.904 -126.7664
13.073977 105.935 -127.1172
13.168715 105.966 -127.4694
13.264141 105.997 -127.8229
13.360258 106.027 -128.1778
13.457072 106.057 -128.5340
13.554587 106.086 -128.8911
13.652809 106.114 -129.2487
13.751743 106.142 -129.6063
13.851394 106.169 -129.9631
13.951767 106.194 -130.3183
14.052867 106.219 -130.6711
14.154700 106.243 -131.0207
14.257271 106.267 -131.3663
14.360585 106.290 -131.7071
14.464648 106.312 -132.0427
14.569465 106.334 -132.3728
14.675041 106.356 -132.6973
14.781383 106.378 -133.0163
14.888494 106.400 -133.3305
14.996383 106.422 -133.6404
15.105053 106.445 -133.9472
15.214510 106.469 -134.2519
15.324760 106.493 -134.5557
15.435810 106.518 -134.8600
15.547665 106.544 -135.1659
15.660330 106.569 -135.4745
15.773811 106.595 -135.7867
15.888115 106.621 -136.1029
16.003246 106.647 -136.4236
16.119213 106.673 -136.7486
16.236019 106.698 -137.0776
16.353672 106.723 -137.4100
16.472178 106.746 -137.7449
16.591541 106.769 -138.0814
16.711771 106.791 -138.4185
16.832870 106.812 -138.7551
16.954849 106.832 -139.0904
17.077711 106.852 -139.4235
17.201464 106.871 -139.7539
17.326113 106.889 -140.0812
17.451664 106.906 -140.4053
17.578125 106.924 -140.7260
17.705503 106.941 -141.0434
17.833805 106.957 -141.3577
17.963036 106.974 -141.6689
18.093203 106.990 -141.9771
18.224314 107.006 -142.2820
18.356375 107.021 -142.5836
18.489393 107.036 -142.8816
18.623375 107.051 -143.1754
18.758327 107.066 -143.4648
18.894258 107.081 -143.7494
19.031174 107.095 -144.0291
19.169081 107.110 -144.3040
19.307987 107.125 -144.5743
19.447901 107.140 -144.8406
19.588829 107.156 -145.1037
19.730778 107.172 -145.3645
19.873755 107.189 -145.6239
20.017769 107.206 -145.8828
20.162827 107.223 -146.1420
20.308935 107.241 -146.4017
20.456102 107.258 -146.6621
20.604336 107.275 -146.9229
20.753643 107.293 -147.1836
20.904032 107.309 -147.4435
21.055511 107.326 -147.7020
21.208088 107.343 -147.9584
21.361771 107.359 -148.2126
21.516567 107.375 -148.4649
21.672485 107.392 -148.7159
21.829533 107.409 -148.9667
21.987719 107.427 -149.2186
22.147051 107.444 -149.4732
22.307537 107.462 -149.7317
22.469187 107.479 -149.9949
22.632008 107.496 -150.2630
22.796009 107.512 -150.5354
22.961199 107.527 -150.8108
23.127584 107.541 -151.0872
23.295176 107.553 -151.3623
23.463982 107.564 -151.6335
23.634012 107.573 -151.8987
23.805275 107.582 -152.1565
23.977777 107.591 -152.4060
24.151531 107.600 -152.6479
24.326544 107.609 -152.8833
24.502825 107.619 -153.1146
24.680382 107.630 -153.3442
24.859226 107.642 -153.5747
25.039366 107.655 -153.8085
25.220812 107.669 -154.0471
25.403572 107.683 -154.2914
25.587656 107.696 -154.5415
25.773075 107.710 -154.7971
25.959837 107.723 -155.0573
26.147953 107.736 -155.3215
26.337431 107.748 -155.5889
26.528282 107.760 -155.8595
26.720516 107.772 -156.1330
26.914145 107.783 -156.4093
27.109175 107.793 -156.6879
27.305618 107.803 -156.9678
27.503487 107.811 -157.2474
27.702787 107.819 -157.5242
27.903534 107.826 -157.7960
28.105734 107.833 -158.0604
28.309401 107.839 -158.3162
28.514542 107.846 -158.5635
28.721170 107.854 -158.8040
28.929296 107.864 -159.0408
29.138929 107.876 -159.2778
29.350082 107.889 -159.5189
29.562765 107.903 -159.7673
29.776989 107.917 -160.0243
29.992765 107.931 -160.2892
30.210106 107.944 -160.5594
30.429020 107.955 -160.8313
30.649521 107.966 -161.1011
30.871620 107.976 -161.3659
31.095329 107.986 -161.6245
31.320660 107.997 -161.8780
31.547623 108.008 -162.1290
31.776230 108.019 -162.3811
32.006493 108.032 -162.6373
32.238426 108.044 -162.8994
32.472038 108.055 -163.1667
32.707344 108.064 -163.4368
32.944355 108.072 -163.7059
33.183083 108.079 -163.9700
33.423542 108.084 -164.2262
33.665741 108.089 -164.4736
33.909698 108.094 -164.7131
34.155422 108.099 -164.9468
34.402927 108.105 -165.1770
34.652225 108.110 -165.4054
34.903328 108.115 -165.6319
35.156250 108.120 -165.8553
35.411007 108.124 -166.0739
35.667610 108.128 -166.2863
35.926071 108.133 -166.4930
36.186405 108.138 -166.6962
36.448627 108.144 -166.8992
36.712749 108.151 -167.1053
36.978786 108.158 -167.3163
37.246750 108.164 -167.5318
37.516655 108.169 -167.7493
37.788517 108.173 -167.9652
38.062347 108.175 -168.1760
38.338161 108.178 -168.3804
38.615974 108.181 -168.5789
38.895802 108.184 -168.7741
39.177658 108.188 -168.9689
39.461555 108.193 -169.1661
39.747509 108.197 -169.3668
40.035538 108.202 -169.5712
40.325653 108.206 -169.7792
40.617870 108.210 -169.9908
40.912205 108.213 -170.2065
41.208672 108.217 -170.4267
41.507286 108.219 -170.6510
41.808064 108.221 -170.8777
42.111023 108.223 -171.1049
42.416176 108.224 -171.3315
42.723541 108.226 -171.5591
43.033134 108.228 -171.7917
43.344971 108.232 -172.0337
43.659065 108.234 -172.2867
43.975437 108.236 -172.5467
44.294102 108.235 -172.8044
44.615074 108.234 -173.0491
44.938374 108.234 -173.2758
45.264015 108.238 -173.4913
45.592018 108.248 -173.7146
45.922398 108.264 -173.9707
46.255169 108.280 -174.2784
46.590351 108.292 -174.6389
46.927963 108.296 -175.0303
47.268024 108.287 -175.4134
47.610550 108.269 -175.7448
47.955555 108.246 -175.9950
48.303062 108.226 -176.1596
48.653088 108.213 -176.2602
49.005650 108.211 -176.3334
49.360764 108.218 -176.4128
49.718452 108.229 -176.5168
50.078732 108.242 -176.6455
50.441624 108.254 -176.7881
50.807144 108.265 -176.9340
51.175312 108.275 -177.0806
51.546150 108.287 -177.2328
51.919674 108.297 -177.3973
52.295906 108.306 -177.5765
52.674862 108.311 -177.7649
53.056564 108.312 -177.9515
53.441032 108.311 -178.1258
53.828289 108.308 -178.2827
54.218349 108.306 -178.4258
54.611237 108.307 -178.5654
55.006973 108.311 -178.7151
55.405575 108.318 -178.8868
55.807068 108.325 -179.0868
56.211468 108.332 -179.3150
56.618801 108.338 -179.5661
57.029083 108.342 -179.8320
57.442341 108.343 179.8954
57.858593 108.344 179.6233
58.277859 108.343 179.3573
58.700165 108.342 179.1016
59.125530 108.341 178.8584
59.553978 108.342 178.6276
59.985531 108.343 178.4077
60.420212 108.346 178.1976
60.858040 108.349 177.9965
61.299042 108.353 177.8029
61.743240 108.358 177.6129
62.190659 108.364 177.4196
62.641319 108.370 177.2151
63.095245 108.374 176.9945
63.552460 108.375 176.7583
64.012985 108.372 176.5123
64.476852 108.366 176.2646
64.944077 108.356 176.0219
65.414688 108.345 175.7876
65.888710 108.333 175.5607
66.366165 108.323 175.3381
66.847084 108.315 175.1168
67.331482 108.308 174.8965
67.819397 108.304 174.6799
68.310844 108.302 174.4703
68.805855 108.302 174.2691
69.304451 108.306 174.0760
69.806656 108.310 173.8908
70.312500 108.315 173.7150
70.822014 108.319 173.5497
71.335220 108.321 173.3937
71.852142 108.319 173.2447
72.372810 108.311 173.1041
72.897255 108.296 172.9791
73.425499 108.272 172.8832
73.957573 108.241 172.8358
74.493500 108.206 172.8578
75.033310 108.175 172.9569
75.577034 108.158 173.1051
76.124695 108.159 173.2324
76.676323 108.179 173.2567
77.231949 108.209 173.1298
77.791603 108.238 172.8594
78.355316 108.262 172.4910
78.923111 108.280 172.0721
79.495018 108.294 171.6325
80.071075 108.305 171.1866
80.651306 108.312 170.7457
81.235741 108.315 170.3263
81.824409 108.314 169.9458
82.417343 108.310 169.6144
83.014572 108.305 169.3298
83.616127 108.300 169.0833
84.222046 108.296 168.8668
84.832352 108.294 168.6700
85.447083 108.294 168.4757
86.066269 108.294 168.2639
86.689941 108.293 168.0288
87.318130 108.286 167.7858
87.950874 108.274 167.5621
88.588203 108.259 167.3788
89.230148 108.244 167.2426
89.876747 108.231 167.1478
90.528030 108.221 167.0820
91.184036 108.215 167.0308
91.844795 108.214 166.9776
92.510338 108.216 166.9008
93.180702 108.220 166.7800
93.855927 108.223 166.6114
94.536049 108.223 166.4095
95.221100 108.222 166.1858
95.911110 108.222 165.9324
96.606125 108.223 165.6375
97.306175 108.220 165.3093
98.011299 108.214 164.9723
98.721527 108.205 164.6459
99.436905 108.197 164.3364
100.157463 108.190 164.0431
100.883247 108.184 163.7646
101.614288 108.180 163.5011
102.350624 108.177 163.2541
103.092300 108.177 163.0264
103.839348 108.178 162.8197
104.591812 108.180 162.6337
105.349724 108.183 162.4637
106.113129 108.187 162.2998
106.882065 108.188 162.1302
107.656578 108.186 161.9470
108.436699 108.181 161.7463
109.222473 108.173 161.5260
110.013947 108.165 161.2838
110.811150 108.160 161.0179
111.614136 108.158 160.7331
112.422935 108.160 160.4468
113.237602 108.166 160.1912
114.058167 108.174 160.0052
114.884682 108.184 159.9227
115.717186 108.197 159.9613
116.555717 108.213 160.1089
117.400330 108.233 160.3148
118.251060 108.255 160.4935
119.107956 108.276 160.5396
119.971062 108.285 160.3751
120.840424 108.271 160.0069
121.716080 108.234 159.5202
122.598083 108.185 159.0063
123.486481 108.138 158.5127
124.381317 108.104 158.0505
125.282639 108.084 157.6244
126.190491 108.075 157.2538
127.104919 108.073 156.9643
128.025970 108.075 156.7619
128.953705 108.076 156.6227
129.888153 108.076 156.5077
130.829376 108.070 156.3839
131.777420 108.059 156.2326
132.732330 108.046 156.0442
133.694168 108.031 155.8120
134.662964 108.017 155.5378
135.638794 108.004 155.2382
136.621689 107.993 154.9363
137.611710 107.983 154.6519
138.608902 107.974 154.3972
139.613312 107.968 154.1741
140.625000 107.963 153.9747
141.644028 107.959 153.7870
142.670441 107.957 153.5968
143.704285 107.955 153.3853
144.745621 107.952 153.1368
145.794510 107.945 152.8496
146.850998 107.934 152.5370
147.915146 107.920 152.2172
148.987000 107.904 151.9069
150.066620 107.887 151.6177
151.154068 107.870 151.3570
152.249390 107.855 151.1284
153.352646 107.841 150.9294
154.463898 107.829 150.7503
155.583206 107.819 150.5788
156.710632 107.810 150.4062
157.846222 107.801 150.2269
158.990036 107.793 150.0364
160.142151 107.785 149.8311
161.302612 107.777 149.6076
162.471481 107.770 149.3647
163.648819 107.763 149.1064
164.834686 107.757 148.8402
166.029144 107.754 148.5775
167.232254 107.753 148.3342
168.444092 107.755 148.1260
169.664703 107.756 147.9575
170.894165 107.756 147.8188
172.132538 107.751 147.6951
173.379883 107.738 147.5730
174.636261 107.721 147.4393
175.901749 107.700 147.2824
177.176407 107.679 147.0975
178.460297 107.660 146.8882
179.753494 107.646 146.6620
181.056061 107.636 146.4216
182.368073 107.627 146.1668
183.689590 107.618 145.8981
185.020676 107.608 145.6187
186.361404 107.595 145.3347
187.711853 107.582 145.0541
189.072098 107.569 144.7823
190.442200 107.557 144.5204
191.822220 107.545 144.2674
193.212250 107.535 144.0206
194.612350 107.524 143.7775
196.022598 107.514 143.5366
197.443054 107.504 143.2987
198.873810 107.494 143.0669
200.314926 107.484 142.8448
201.766495 107.474 142.6344
203.228577 107.463 142.4332
204.701248 107.451 142.2335
206.184601 107.439 142.0249
207.678696 107.426 141.7990
209.183624 107.411 141.5540
210.699448 107.396 141.2943
212.226257 107.380 141.0271
213.764130 107.365 140.7605
