* Measurement data measured by REW V5.31
* Source: EXCL: Microphone (USB Sound Device        ), MICROPHONE (Master Volume), L, volume: 0.390
* Format: 256k Log Swept Sine, 1 sweep at -10.0 dBFS with no timing reference
* Dated: Sep 2, 2024 12:55:47 AM
* REW Settings:
*  C-weighting compensation: Off
*  Target level: 75.0 dB
* Note: 
* Measurement: L Tagry X08
* Smoothing: 1/12 octave
* Frequency Step: 96 ppo
* Start Frequency: 0.36621094 Hz
*
* Freq(Hz) SPL(dB) Phase(degrees)
0.366211 77.593 157.4811
0.368865 77.586 157.4576
0.371538 77.576 157.4223
0.374230 77.564 157.3780
0.376942 77.551 157.3269
0.379673 77.537 157.2707
0.382424 77.522 157.2105
0.385196 77.506 157.1470
0.387987 77.490 157.0805
0.390798 77.474 157.0113
0.393630 77.458 156.9395
0.396483 77.442 156.8650
0.399356 77.426 156.7880
0.402250 77.409 156.7083
0.405165 77.393 156.6261
0.408101 77.376 156.5412
0.411058 77.359 156.4536
0.414037 77.342 156.3633
0.417037 77.325 156.2703
0.420059 77.308 156.1745
0.423103 77.291 156.0759
0.426169 77.273 155.9746
0.429257 77.256 155.8704
0.432368 77.238 155.7634
0.435501 77.220 155.6534
0.438656 77.202 155.5406
0.441835 77.184 155.4248
0.445037 77.166 155.3061
0.448262 77.147 155.1844
0.451510 77.129 155.0597
0.454782 77.110 154.9319
0.458077 77.091 154.8012
0.461397 77.073 154.6673
0.464740 77.053 154.5303
0.468108 77.034 154.3903
0.471500 77.015 154.2471
0.474917 76.996 154.1008
0.478358 76.976 153.9512
0.481825 76.956 153.7986
0.485316 76.936 153.6427
0.488833 76.916 153.4836
0.492375 76.896 153.3212
0.495943 76.876 153.1557
0.499537 76.855 152.9869
0.503157 76.835 152.8148
0.506803 76.814 152.6395
0.510475 76.793 152.4609
0.514175 76.772 152.2790
0.517900 76.751 152.0939
0.521653 76.729 151.9055
0.525434 76.708 151.7138
0.529241 76.686 151.5189
0.533076 76.664 151.3207
0.536939 76.642 151.1192
0.540830 76.620 150.9145
0.544749 76.598 150.7066
0.548696 76.575 150.4955
0.552673 76.553 150.2812
0.556677 76.530 150.0637
0.560711 76.507 149.8431
0.564774 76.484 149.6194
0.568867 76.460 149.3926
0.572989 76.437 149.1628
0.577141 76.413 148.9300
0.581324 76.390 148.6942
0.585536 76.366 148.4556
0.589779 76.341 148.2141
0.594053 76.317 147.9698
0.598358 76.293 147.7228
0.602694 76.268 147.4731
0.607061 76.243 147.2209
0.611460 76.218 146.9661
0.615891 76.193 146.7090
0.620354 76.167 146.4496
0.624849 76.142 146.1879
0.629377 76.116 145.9241
0.633938 76.090 145.6583
0.638532 76.064 145.3907
0.643159 76.037 145.1212
0.647819 76.011 144.8502
0.652514 75.984 144.5777
0.657242 75.957 144.3039
0.662005 75.930 144.0289
0.666802 75.903 143.7530
0.671634 75.875 143.4762
0.676501 75.848 143.1988
0.681403 75.820 142.9210
0.686341 75.791 142.6429
0.691314 75.763 142.3649
0.696324 75.734 142.0870
0.701370 75.705 141.8095
0.706452 75.676 141.5326
0.711571 75.646 141.2563
0.716728 75.615 140.9805
0.721921 75.583 140.7050
0.727153 75.549 140.4293
0.732422 75.513 140.1526
0.737729 75.474 139.8738
0.743075 75.433 139.5918
0.748460 75.390 139.3055
0.753883 75.345 139.0141
0.759346 75.300 138.7172
0.764849 75.253 138.4143
0.770391 75.206 138.1051
0.775974 75.158 137.7895
0.781597 75.110 137.4672
0.787261 75.061 137.1383
0.792966 75.011 136.8025
0.798712 74.961 136.4597
0.804500 74.910 136.1099
0.810329 74.859 135.7531
0.816201 74.806 135.3890
0.822116 74.753 135.0176
0.828073 74.699 134.6388
0.834074 74.645 134.2527
0.840118 74.589 133.8590
0.846206 74.533 133.4578
0.852338 74.476 133.0490
0.858514 74.417 132.6325
0.864735 74.358 132.2083
0.871001 74.298 131.7764
0.877313 74.236 131.3368
0.883670 74.173 130.8894
0.890074 74.109 130.4342
0.896524 74.044 129.9713
0.903020 73.978 129.5007
0.909564 73.910 129.0225
0.916155 73.841 128.5367
0.922794 73.770 128.0433
0.929481 73.698 127.5425
0.936216 73.624 127.0344
0.943000 73.548 126.5192
0.949834 73.471 125.9970
0.956717 73.392 125.4680
0.963649 73.311 124.9325
0.970632 73.228 124.3907
0.977666 73.143 123.8429
0.984750 73.056 123.2894
0.991886 72.967 122.7306
0.999074 72.876 122.1669
1.006314 72.782 121.5988
1.013606 72.686 121.0268
1.020951 72.587 120.4513
1.028349 72.486 119.8731
1.035801 72.382 119.2927
1.043307 72.275 118.7109
1.050867 72.165 118.1283
1.058482 72.052 117.5457
1.066152 71.936 116.9639
1.073878 71.817 116.3833
1.081660 71.693 115.8045
1.089498 71.566 115.2276
1.097393 71.434 114.6523
1.105345 71.298 114.0777
1.113355 71.155 113.5028
1.121423 71.007 112.9263
1.129549 70.852 112.3472
1.137734 70.691 111.7643
1.145979 70.524 111.1767
1.154283 70.350 110.5834
1.162647 70.171 109.9835
1.171072 69.985 109.3761
1.179558 69.794 108.7602
1.188106 69.597 108.1348
1.196715 69.396 107.4989
1.205387 69.189 106.8514
1.214122 68.978 106.1909
1.222920 68.763 105.5163
1.231782 68.544 104.8261
1.240708 68.321 104.1189
1.249699 68.095 103.3930
1.258754 67.867 102.6467
1.267876 67.636 101.8781
1.277063 67.403 101.0853
1.286318 67.170 100.2660
1.295639 66.935 99.4179
1.305027 66.700 98.5386
1.314484 66.465 97.6253
1.324009 66.230 96.6752
1.333604 65.997 95.6851
1.343268 65.766 94.6518
1.353002 65.538 93.5716
1.362806 65.312 92.4410
1.372681 65.091 91.2559
1.382628 64.874 90.0123
1.392647 64.663 88.7060
1.402739 64.458 87.3325
1.412904 64.259 85.8874
1.423142 64.068 84.3662
1.433455 63.885 82.7643
1.443843 63.711 81.0768
1.454305 63.544 79.2982
1.464844 63.386 77.4219
1.475459 63.235 75.4394
1.486150 63.090 73.3401
1.496920 62.951 71.1111
1.507767 62.817 68.7377
1.518693 62.688 66.2033
1.529698 62.562 63.4897
1.540783 62.442 60.5776
1.551948 62.326 57.4475
1.563194 62.215 54.0798
1.574521 62.108 50.4565
1.585931 62.007 46.5631
1.597423 61.911 42.3906
1.608999 61.821 37.9387
1.620658 61.737 33.2184
1.632402 61.659 28.2550
1.644232 61.588 23.0895
1.656146 61.524 17.7788
1.668147 61.466 12.3921
1.680235 61.417 7.0066
1.692411 61.375 1.7003
1.704675 61.341 -3.4551
1.717028 61.316 -8.4000
1.729470 61.300 -13.0894
1.742003 61.294 -17.4952
1.754626 61.297 -21.6038
1.767341 61.311 -25.4146
1.780147 61.336 -28.9371
1.793047 61.373 -32.1884
1.806040 61.424 -35.1917
1.819128 61.489 -37.9739
1.832310 61.571 -40.5649
1.845587 61.671 -42.9942
1.858961 61.790 -45.2887
1.872432 61.930 -47.4699
1.886001 62.090 -49.5538
1.899667 62.269 -51.5519
1.913433 62.467 -53.4722
1.927299 62.682 -55.3202
1.941265 62.913 -57.0999
1.955332 63.157 -58.8141
1.969501 63.413 -60.4649
1.983773 63.679 -62.0538
1.998148 63.953 -63.5818
2.012627 64.233 -65.0497
2.027212 64.516 -66.4581
2.041902 64.800 -67.8071
2.056698 65.083 -69.0970
2.071602 65.363 -70.3279
2.086614 65.637 -71.4997
2.101734 65.903 -72.6126
2.116964 66.158 -73.6669
2.132304 66.401 -74.6635
2.147756 66.630 -75.6040
2.163320 66.843 -76.4916
2.178996 67.040 -77.3311
2.194786 67.221 -78.1294
2.210690 67.386 -78.8948
2.226710 67.537 -79.6360
2.242845 67.677 -80.3599
2.259098 67.804 -81.0713
2.275468 67.922 -81.7729
2.291957 68.030 -82.4657
2.308566 68.129 -83.1494
2.325295 68.220 -83.8230
2.342145 68.304 -84.4849
2.359117 68.380 -85.1330
2.376212 68.451 -85.7651
2.393431 68.515 -86.3786
2.410775 68.575 -86.9705
2.428244 68.629 -87.5381
2.445840 68.681 -88.0780
2.463564 68.729 -88.5873
2.481416 68.774 -89.0628
2.499397 68.817 -89.5018
2.517509 68.859 -89.9020
2.535752 68.898 -90.2625
2.554127 68.935 -90.5832
2.572635 68.969 -90.8659
2.591277 69.000 -91.1130
2.610055 69.025 -91.3275
2.628968 69.045 -91.5117
2.648019 69.060 -91.6671
2.667208 69.070 -91.7947
2.686535 69.076 -91.8948
2.706003 69.077 -91.9673
2.725612 69.075 -92.0118
2.745363 69.071 -92.0278
2.765257 69.064 -92.0144
2.785295 69.057 -91.9707
2.805478 69.050 -91.8958
2.825808 69.044 -91.7885
2.846285 69.040 -91.6476
2.866910 69.038 -91.4716
2.887685 69.039 -91.2590
2.908611 69.043 -91.0078
2.929688 69.050 -90.7157
2.950917 69.060 -90.3806
2.972301 69.072 -90.0010
2.993839 69.085 -89.5765
3.015534 69.100 -89.1082
3.037386 69.116 -88.5983
3.059396 69.134 -88.0499
3.081565 69.153 -87.4671
3.103896 69.176 -86.8544
3.126388 69.202 -86.2170
3.149043 69.232 -85.5603
3.171862 69.266 -84.8897
3.194847 69.306 -84.2106
3.217998 69.351 -83.5280
3.241317 69.404 -82.8456
3.264805 69.464 -82.1657
3.288463 69.531 -81.4886
3.312293 69.607 -80.8132
3.336295 69.692 -80.1379
3.360471 69.784 -79.4622
3.384822 69.884 -78.7875
3.409350 69.992 -78.1173
3.434056 70.106 -77.4564
3.458940 70.225 -76.8104
3.484005 70.349 -76.1853
3.509252 70.477 -75.5870
3.534681 70.607 -75.0212
3.560295 70.739 -74.4929
3.586094 70.872 -74.0062
3.612081 71.006 -73.5643
3.638255 71.141 -73.1685
3.664620 71.276 -72.8187
3.691175 71.412 -72.5131
3.717923 71.550 -72.2493
3.744864 71.689 -72.0246
3.772001 71.830 -71.8364
3.799335 71.971 -71.6825
3.826866 72.113 -71.5609
3.854597 72.254 -71.4699
3.882529 72.395 -71.4080
3.910664 72.533 -71.3739
3.939002 72.668 -71.3668
3.967546 72.800 -71.3862
3.996296 72.928 -71.4319
4.025255 73.051 -71.5044
4.054423 73.171 -71.6041
4.083804 73.286 -71.7307
4.113396 73.397 -71.8832
4.143204 73.505 -72.0594
4.173227 73.608 -72.2560
4.203468 73.708 -72.4694
4.233928 73.804 -72.6958
4.264609 73.897 -72.9314
4.295512 73.985 -73.1731
4.326639 74.069 -73.4184
4.357992 74.149 -73.6661
4.389572 74.224 -73.9161
4.421380 74.294 -74.1694
4.453419 74.360 -74.4270
4.485691 74.421 -74.6891
4.518196 74.477 -74.9547
4.550936 74.529 -75.2213
4.583914 74.577 -75.4857
4.617131 74.622 -75.7443
4.650589 74.663 -75.9932
4.684289 74.702 -76.2291
4.718233 74.738 -76.4492
4.752424 74.770 -76.6522
4.786862 74.801 -76.8375
4.821549 74.828 -77.0058
4.856488 74.852 -77.1576
4.891680 74.873 -77.2934
4.927127 74.893 -77.4131
4.962831 74.911 -77.5162
4.998794 74.928 -77.6019
5.035017 74.945 -77.6692
5.071503 74.962 -77.7167
5.108253 74.980 -77.7434
5.145270 74.998 -77.7485
5.182555 75.018 -77.7316
5.220110 75.038 -77.6938
5.257937 75.059 -77.6367
5.296038 75.082 -77.5631
5.334415 75.106 -77.4760
5.373071 75.132 -77.3786
5.412006 75.161 -77.2738
5.451224 75.194 -77.1637
5.490725 75.229 -77.0495
5.530514 75.268 -76.9318
5.570590 75.311 -76.8114
5.610957 75.357 -76.6898
5.651616 75.407 -76.5697
5.692570 75.459 -76.4547
5.733821 75.514 -76.3488
5.775370 75.572 -76.2558
5.817221 75.632 -76.1788
5.859375 75.694 -76.1197
5.901834 75.759 -76.0794
5.944602 75.826 -76.0582
5.987679 75.895 -76.0562
6.031068 75.965 -76.0737
6.074771 76.036 -76.1115
6.118792 76.108 -76.1705
6.163131 76.180 -76.2516
6.207792 76.252 -76.3557
6.252776 76.322 -76.4829
6.298086 76.392 -76.6329
6.343725 76.461 -76.8044
6.389694 76.529 -76.9954
6.435996 76.596 -77.2036
6.482634 76.660 -77.4265
6.529610 76.723 -77.6623
6.576926 76.784 -77.9096
6.624585 76.842 -78.1673
6.672590 76.899 -78.4347
6.720942 76.952 -78.7102
6.769645 77.004 -78.9918
6.818700 77.054 -79.2766
6.868111 77.101 -79.5618
6.917881 77.147 -79.8450
6.968010 77.192 -80.1245
7.018504 77.234 -80.3994
7.069362 77.275 -80.6690
7.120590 77.316 -80.9326
7.172189 77.355 -81.1892
7.224161 77.394 -81.4377
7.276511 77.433 -81.6768
7.329239 77.473 -81.9058
7.382350 77.513 -82.1244
7.435845 77.554 -82.3330
7.489729 77.595 -82.5326
7.544002 77.639 -82.7244
7.598669 77.683 -82.9097
7.653732 77.730 -83.0897
7.709194 77.779 -83.2653
7.765058 77.831 -83.4376
7.821327 77.884 -83.6077
7.878004 77.940 -83.7776
7.935091 77.999 -83.9493
7.992592 78.059 -84.1249
8.050510 78.122 -84.3062
8.108847 78.187 -84.4944
8.167607 78.253 -84.6901
8.226793 78.322 -84.8942
8.286408 78.392 -85.1073
8.346454 78.463 -85.3303
8.406936 78.535 -85.5637
8.467856 78.608 -85.8077
8.529218 78.681 -86.0620
8.591024 78.755 -86.3259
8.653278 78.828 -86.5982
8.715983 78.901 -86.8778
8.779143 78.974 -87.1637
8.842760 79.046 -87.4547
8.906839 79.117 -87.7498
8.971381 79.188 -88.0473
9.036392 79.257 -88.3455
9.101873 79.326 -88.6425
9.167829 79.394 -88.9367
9.234263 79.462 -89.2271
9.301178 79.528 -89.5126
9.368578 79.594 -89.7920
9.436467 79.660 -90.0644
9.504847 79.725 -90.3288
9.573723 79.790 -90.5845
9.643099 79.855 -90.8315
9.712976 79.919 -91.0696
9.783361 79.982 -91.2992
9.854255 80.043 -91.5204
9.925663 80.103 -91.7337
9.997588 80.161 -91.9397
10.070035 80.218 -92.1389
10.143007 80.274 -92.3324
10.216507 80.329 -92.5210
10.290540 80.384 -92.7056
10.365109 80.438 -92.8869
10.440219 80.491 -93.0654
10.515873 80.545 -93.2419
10.592076 80.599 -93.4169
10.668830 80.652 -93.5909
10.746141 80.706 -93.7640
10.824012 80.760 -93.9363
10.902447 80.814 -94.1079
10.981451 80.867 -94.2785
11.061027 80.920 -94.4482
11.141180 80.973 -94.6167
11.221913 81.025 -94.7836
11.303232 81.077 -94.9487
11.385140 81.128 -95.1118
11.467641 81.178 -95.2725
11.550741 81.229 -95.4308
11.634442 81.278 -95.5865
11.718750 81.328 -95.7395
11.803669 81.378 -95.8899
11.889203 81.427 -96.0378
11.975357 81.476 -96.1832
12.062136 81.525 -96.3264
12.149543 81.574 -96.4675
12.237583 81.623 -96.6067
12.326262 81.671 -96.7441
12.415583 81.719 -96.8800
12.505552 81.766 -97.0146
12.596172 81.813 -97.1478
12.687449 81.859 -97.2797
12.779387 81.904 -97.4105
12.871992 81.949 -97.5402
12.965268 81.993 -97.6688
13.059220 82.037 -97.7965
13.153852 82.080 -97.9234
13.249170 82.124 -98.0498
13.345179 82.167 -98.1759
13.441884 82.210 -98.3022
13.539289 82.254 -98.4291
13.637401 82.297 -98.5572
13.736223 82.340 -98.6870
13.835761 82.383 -98.8191
13.936021 82.427 -98.9543
14.037007 82.469 -99.0931
14.138725 82.512 -99.2359
14.241180 82.554 -99.3832
14.344377 82.596 -99.5350
14.448323 82.637 -99.6916
14.553021 82.677 -99.8528
14.658478 82.717 -100.0183
14.764700 82.757 -100.1877
14.871691 82.796 -100.3604
14.979457 82.834 -100.5359
15.088005 82.872 -100.7134
15.197339 82.910 -100.8925
15.307465 82.948 -101.0725
15.418389 82.985 -101.2532
15.530117 83.023 -101.4343
15.642655 83.060 -101.6158
15.756008 83.098 -101.7979
15.870182 83.136 -101.9807
15.985184 83.174 -102.1650
16.101019 83.213 -102.3511
16.217694 83.253 -102.5397
16.335214 83.293 -102.7312
16.453586 83.334 -102.9263
16.572815 83.375 -103.1250
16.692909 83.418 -103.3276
16.813872 83.460 -103.5338
16.935713 83.504 -103.7434
17.058436 83.548 -103.9557
17.182048 83.592 -104.1702
17.306556 83.636 -104.3858
17.431967 83.681 -104.6017
17.558286 83.725 -104.8171
17.685521 83.770 -105.0311
17.813677 83.815 -105.2429
17.942762 83.860 -105.4521
18.072783 83.905 -105.6581
18.203746 83.951 -105.8608
18.335658 83.997 -106.0601
18.468526 84.044 -106.2560
18.602356 84.092 -106.4487
18.737156 84.140 -106.6385
18.872934 84.188 -106.8254
19.009695 84.238 -107.0098
19.147447 84.288 -107.1918
19.286197 84.338 -107.3716
19.425953 84.389 -107.5492
19.566721 84.440 -107.7245
19.708510 84.491 -107.8975
19.851326 84.542 -108.0682
19.995177 84.593 -108.2364
20.140070 84.644 -108.4021
20.286013 84.694 -108.5651
20.433014 84.744 -108.7254
20.581080 84.795 -108.8830
20.730219 84.844 -109.0380
20.880439 84.894 -109.1907
21.031747 84.944 -109.3413
21.184152 84.994 -109.4901
21.337661 85.043 -109.6376
21.492282 85.093 -109.7843
21.648024 85.143 -109.9306
21.804895 85.192 -110.0770
21.962902 85.241 -110.2238
22.122054 85.290 -110.3713
22.282360 85.338 -110.5197
22.443827 85.386 -110.6689
22.606464 85.433 -110.8189
22.770280 85.479 -110.9695
22.935283 85.525 -111.1205
23.101481 85.571 -111.2719
23.268884 85.616 -111.4236
23.437500 85.661 -111.5759
23.607338 85.706 -111.7290
23.778406 85.751 -111.8834
23.950714 85.796 -112.0398
24.124271 85.841 -112.1987
24.299086 85.885 -112.3607
24.475167 85.930 -112.5261
24.652524 85.975 -112.6950
24.831166 86.020 -112.8675
25.011103 86.065 -113.0430
25.192344 86.110 -113.2212
25.374898 86.155 -113.4014
25.558775 86.200 -113.5830
25.743984 86.245 -113.7654
25.930536 86.291 -113.9482
26.118439 86.337 -114.1312
26.307704 86.384 -114.3145
26.498341 86.431 -114.4980
26.690359 86.478 -114.6822
26.883768 86.527 -114.8673
27.078579 86.575 -115.0534
27.274801 86.625 -115.2408
27.472446 86.674 -115.4294
27.671522 86.724 -115.6191
27.872042 86.774 -115.8098
28.074014 86.824 -116.0012
28.277450 86.874 -116.1929
28.482360 86.925 -116.3846
28.688755 86.975 -116.5761
28.896645 87.025 -116.7672
29.106042 87.075 -116.9578
29.316957 87.125 -117.1480
29.529400 87.174 -117.3377
29.743382 87.224 -117.5274
29.958915 87.274 -117.7173
30.176009 87.324 -117.9077
30.394677 87.375 -118.0989
30.614929 87.425 -118.2914
30.836778 87.475 -118.4854
31.060234 87.525 -118.6814
31.285309 87.574 -118.8797
31.512015 87.624 -119.0807
31.740364 87.674 -119.2850
31.970368 87.723 -119.4927
32.202039 87.772 -119.7043
32.435388 87.821 -119.9196
32.670428 87.870 -120.1388
32.907171 87.919 -120.3615
33.145630 87.967 -120.5877
33.385817 88.015 -120.8173
33.627745 88.064 -121.0502
33.871425 88.112 -121.2869
34.116871 88.161 -121.5276
34.364096 88.210 -121.7726
34.613113 88.259 -122.0223
34.863934 88.307 -122.2765
35.116572 88.356 -122.5348
35.371041 88.404 -122.7966
35.627354 88.452 -123.0613
35.885525 88.500 -123.3282
36.145566 88.548 -123.5969
36.407492 88.595 -123.8676
36.671316 88.643 -124.1402
36.937051 88.691 -124.4154
37.204712 88.738 -124.6936
37.474313 88.785 -124.9751
37.745867 88.832 -125.2601
38.019389 88.879 -125.5486
38.294893 88.925 -125.8405
38.572394 88.971 -126.1356
38.851905 89.017 -126.4339
39.133442 89.062 -126.7353
39.417019 89.106 -127.0398
39.702651 89.150 -127.3476
39.990353 89.193 -127.6590
40.280140 89.236 -127.9741
40.572026 89.278 -128.2932
40.866028 89.320 -128.6164
41.162160 89.361 -128.9436
41.460438 89.401 -129.2747
41.760877 89.441 -129.6096
42.063494 89.480 -129.9481
42.368303 89.518 -130.2903
42.675322 89.556 -130.6363
42.984565 89.592 -130.9860
43.296048 89.628 -131.3394
43.609789 89.663 -131.6962
43.925804 89.698 -132.0557
44.244108 89.731 -132.4173
44.564719 89.763 -132.7805
44.887654 89.795 -133.1449
45.212928 89.826 -133.5107
45.540560 89.856 -133.8780
45.870565 89.886 -134.2474
46.202962 89.915 -134.6190
46.537768 89.943 -134.9931
46.875000 89.971 -135.3696
47.214676 89.998 -135.7484
47.556813 90.024 -136.1295
47.901429 90.050 -136.5128
48.248542 90.075 -136.8981
48.598171 90.099 -137.2853
48.950334 90.122 -137.6741
49.305048 90.145 -138.0642
49.662333 90.166 -138.4555
50.022206 90.187 -138.8481
50.384688 90.207 -139.2424
50.749796 90.227 -139.6385
51.117550 90.245 -140.0364
51.487969 90.263 -140.4360
51.861072 90.279 -140.8366
52.236879 90.294 -141.2375
52.615409 90.308 -141.6381
52.996681 90.322 -142.0382
53.380717 90.334 -142.4377
53.767536 90.345 -142.8368
54.157158 90.356 -143.2357
54.549603 90.366 -143.6348
54.944892 90.375 -144.0341
55.343045 90.382 -144.4336
55.744084 90.389 -144.8332
56.148028 90.395 -145.2327
56.554900 90.399 -145.6318
56.964720 90.403 -146.0299
57.377510 90.405 -146.4264
57.793291 90.407 -146.8206
58.212085 90.407 -147.2117
58.633914 90.407 -147.5994
59.058799 90.405 -147.9835
59.486764 90.403 -148.3644
59.917829 90.401 -148.7428
60.352019 90.397 -149.1192
60.789354 90.393 -149.4937
61.229859 90.388 -149.8660
61.673556 90.382 -150.2353
62.120468 90.374 -150.6009
62.570618 90.366 -150.9623
63.024031 90.357 -151.3195
63.480729 90.347 -151.6727
63.940736 90.337 -152.0218
64.404077 90.326 -152.3670
64.870776 90.314 -152.7080
65.340856 90.301 -153.0448
65.814343 90.287 -153.3774
66.291261 90.273 -153.7061
66.771635 90.259 -154.0310
67.255489 90.243 -154.3521
67.742850 90.227 -154.6689
68.233743 90.211 -154.9812
68.728193 90.194 -155.2885
69.226226 90.176 -155.5907
69.727867 90.158 -155.8884
70.233144 90.140 -156.1818
70.742083 90.121 -156.4712
71.254709 90.102 -156.7563
71.771050 90.083 -157.0369
