* Measurement data measured by REW V5.31
* Source: Microphone (USB Sound Device        ), MICROPHONE (Master Volume), L, volume: 0.250
* Format: 256k Log Swept Sine, 1 sweep at -5.0 dBFS with no timing reference
* Dated: Jun 4, 2024 1:01:37 AM
* REW Settings:
*  C-weighting compensation: Off
*  Target level: 75.0 dB
* Note: Tanchjim 4U Pop R
* Measurement: R Tanchjim 4U Pop
* Smoothing: 1/12 octave
* Frequency Step: 96 ppo
* Start Frequency: 0.36621094 Hz
*
* Freq(Hz) SPL(dB) Phase(degrees)
0.366211 84.026 156.4109
0.368865 84.020 156.3865
0.371538 84.011 156.3499
0.374230 84.001 156.3040
0.376942 83.989 156.2510
0.379673 83.976 156.1927
0.382424 83.963 156.1303
0.385196 83.949 156.0645
0.387987 83.935 155.9957
0.390798 83.921 155.9240
0.393630 83.906 155.8497
0.396483 83.892 155.7726
0.399356 83.877 155.6929
0.402250 83.862 155.6105
0.405165 83.848 155.5255
0.408101 83.833 155.4377
0.411058 83.818 155.3472
0.414037 83.803 155.2539
0.417037 83.787 155.1578
0.420059 83.772 155.0589
0.423103 83.757 154.9572
0.426169 83.741 154.8526
0.429257 83.725 154.7450
0.432368 83.710 154.6346
0.435501 83.694 154.5212
0.438656 83.678 154.4049
0.441835 83.661 154.2855
0.445037 83.645 154.1632
0.448262 83.629 154.0378
0.451510 83.612 153.9093
0.454782 83.596 153.7778
0.458077 83.579 153.6431
0.461397 83.562 153.5054
0.464740 83.545 153.3644
0.468108 83.528 153.2204
0.471500 83.511 153.0731
0.474917 83.494 152.9227
0.478358 83.476 152.7690
0.481825 83.458 152.6121
0.485316 83.441 152.4520
0.488833 83.423 152.2886
0.492375 83.405 152.1220
0.495943 83.387 151.9521
0.499537 83.369 151.7789
0.503157 83.350 151.6025
0.506803 83.332 151.4227
0.510475 83.313 151.2397
0.514175 83.294 151.0534
0.517900 83.275 150.8638
0.521653 83.256 150.6710
0.525434 83.237 150.4748
0.529241 83.218 150.2754
0.533076 83.198 150.0728
0.536939 83.179 149.8669
0.540830 83.159 149.6578
0.544749 83.139 149.4454
0.548696 83.119 149.2299
0.552673 83.099 149.0113
0.556677 83.078 148.7895
0.560711 83.058 148.5646
0.564774 83.037 148.3367
0.568867 83.017 148.1058
0.572989 82.996 147.8719
0.577141 82.975 147.6351
0.581324 82.953 147.3954
0.585536 82.932 147.1528
0.589779 82.910 146.9076
0.594053 82.889 146.6597
0.598358 82.867 146.4091
0.602694 82.845 146.1560
0.607061 82.823 145.9005
0.611460 82.800 145.6426
0.615891 82.778 145.3825
0.620354 82.755 145.1201
0.624849 82.732 144.8558
0.629377 82.709 144.5895
0.633938 82.686 144.3214
0.638532 82.663 144.0516
0.643159 82.639 143.7802
0.647819 82.616 143.5075
0.652514 82.592 143.2335
0.657242 82.568 142.9584
0.662005 82.544 142.6824
0.666802 82.519 142.4056
0.671634 82.495 142.1283
0.676501 82.470 141.8507
0.681403 82.445 141.5729
0.686341 82.420 141.2952
0.691314 82.395 141.0178
0.696324 82.369 140.7409
0.701370 82.343 140.4647
0.706452 82.317 140.1893
0.711571 82.290 139.9150
0.716728 82.263 139.6415
0.721921 82.234 139.3687
0.727153 82.204 139.0961
0.732422 82.172 138.8229
0.737729 82.138 138.5481
0.743075 82.102 138.2705
0.748460 82.065 137.9891
0.753883 82.026 137.7033
0.759346 81.986 137.4126
0.764849 81.945 137.1164
0.770391 81.904 136.8147
0.775974 81.862 136.5072
0.781597 81.820 136.1938
0.787261 81.777 135.8745
0.792966 81.733 135.5491
0.798712 81.689 135.2176
0.804500 81.644 134.8800
0.810329 81.599 134.5362
0.816201 81.553 134.1862
0.822116 81.506 133.8299
0.828073 81.459 133.4673
0.834074 81.411 133.0983
0.840118 81.362 132.7230
0.846206 81.312 132.3414
0.852338 81.262 131.9535
0.858514 81.211 131.5592
0.864735 81.159 131.1585
0.871001 81.106 130.7516
0.877313 81.052 130.3385
0.883670 80.997 129.9192
0.890074 80.941 129.4937
0.896524 80.884 129.0622
0.903020 80.826 128.6248
0.909564 80.767 128.1816
0.916155 80.707 127.7327
0.922794 80.646 127.2783
0.929481 80.583 126.8185
0.936216 80.519 126.3536
0.943000 80.454 125.8838
0.949834 80.387 125.4093
0.956717 80.319 124.9304
0.963649 80.249 124.4475
0.970632 80.178 123.9608
0.977666 80.106 123.4708
0.984750 80.031 122.9778
0.991886 79.955 122.4824
0.999074 79.877 121.9849
1.006314 79.798 121.4860
1.013606 79.716 120.9862
1.020951 79.632 120.4861
1.028349 79.547 119.9865
1.035801 79.459 119.4880
1.043307 79.370 118.9914
1.050867 79.278 118.4975
1.058482 79.184 118.0071
1.066152 79.088 117.5210
1.073878 78.990 117.0401
1.081660 78.890 116.5648
1.089498 78.789 116.0955
1.097393 78.687 115.6323
1.105345 78.585 115.1748
1.113355 78.484 114.7225
1.121423 78.385 114.2747
1.129549 78.287 113.8307
1.137734 78.192 113.3900
1.145979 78.099 112.9521
1.154283 78.008 112.5167
1.162647 77.918 112.0834
1.171072 77.829 111.6518
1.179558 77.741 111.2216
1.188106 77.653 110.7925
1.196715 77.565 110.3642
1.205387 77.476 109.9364
1.214122 77.386 109.5086
1.222920 77.293 109.0806
1.231782 77.199 108.6521
1.240708 77.101 108.2225
1.249699 76.999 107.7916
1.258754 76.893 107.3590
1.267876 76.782 106.9242
1.277063 76.664 106.4869
1.286318 76.541 106.0466
1.295639 76.410 105.6029
1.305027 76.270 105.1554
1.314484 76.122 104.7036
1.324009 75.964 104.2470
1.333604 75.795 103.7853
1.343268 75.615 103.3179
1.353002 75.422 102.8445
1.362806 75.216 102.3645
1.372681 74.995 101.8777
1.382628 74.758 101.3836
1.392647 74.506 100.8821
1.402739 74.235 100.3729
1.412904 73.945 99.8561
1.423142 73.635 99.3319
1.433455 73.303 98.8010
1.443843 72.946 98.2646
1.454305 72.562 97.7244
1.464844 72.146 97.1829
1.475459 71.696 96.6429
1.486150 71.206 96.1074
1.496920 70.674 95.5790
1.507767 70.098 95.0595
1.518693 69.478 94.5505
1.529698 68.814 94.0531
1.540783 68.107 93.5682
1.551948 67.360 93.0967
1.563194 66.575 92.6393
1.574521 65.755 92.1971
1.585931 64.903 91.7711
1.597423 64.022 91.3625
1.608999 63.118 90.9729
1.620658 62.193 90.6040
1.632402 61.252 90.2582
1.644232 60.299 89.9382
1.656146 59.340 89.6475
1.668147 58.381 89.3904
1.680235 57.426 89.1724
1.692411 56.484 89.0009
1.704675 55.560 88.8851
1.717028 54.664 88.8376
1.729470 53.802 88.8754
1.742003 52.986 89.0227
1.754626 52.225 89.3140
1.767341 51.532 89.8016
1.780147 50.919 90.5677
1.793047 50.399 91.7483
1.806040 49.986 93.5826
1.819128 49.693 96.5212
1.832310 49.529 101.4823
1.845587 49.502 110.5009
1.858961 49.611 128.0969
1.872432 49.854 159.3423
1.886001 50.223 -168.1240
1.899667 50.708 -149.1283
1.913433 51.296 -139.4939
1.927299 51.976 -134.3395
1.941265 52.734 -131.4228
1.955332 53.556 -129.7327
1.969501 54.432 -128.7700
1.983773 55.347 -128.2651
1.998148 56.292 -128.0610
2.012627 57.253 -128.0610
2.027212 58.220 -128.2021
2.041902 59.184 -128.4420
2.056698 60.133 -128.7511
2.071602 61.058 -129.1084
2.086614 61.949 -129.4988
2.101734 62.799 -129.9113
2.116964 63.600 -130.3387
2.132304 64.344 -130.7767
2.147756 65.027 -131.2243
2.163320 65.644 -131.6842
2.178996 66.197 -132.1631
2.194786 66.686 -132.6714
2.210690 67.118 -133.2218
2.226710 67.498 -133.8257
2.242845 67.832 -134.4906
2.259098 68.125 -135.2186
2.275468 68.381 -136.0077
2.291957 68.602 -136.8530
2.308566 68.792 -137.7478
2.325295 68.952 -138.6845
2.342145 69.084 -139.6553
2.359117 69.192 -140.6521
2.376212 69.276 -141.6673
2.393431 69.340 -142.6932
2.410775 69.386 -143.7224
2.428244 69.417 -144.7480
2.445840 69.435 -145.7634
2.463564 69.444 -146.7627
2.481416 69.446 -147.7411
2.499397 69.443 -148.6956
2.517509 69.438 -149.6259
2.535752 69.432 -150.5354
2.554127 69.425 -151.4323
2.572635 69.418 -152.3293
2.591277 69.407 -153.2413
2.610055 69.392 -154.1826
2.628968 69.370 -155.1634
2.648019 69.338 -156.1902
2.667208 69.297 -157.2659
2.686535 69.243 -158.3903
2.706003 69.176 -159.5611
2.725612 69.094 -160.7745
2.745363 68.997 -162.0249
2.765257 68.883 -163.3057
2.785295 68.751 -164.6088
2.805478 68.600 -165.9251
2.825808 68.427 -167.2449
2.846285 68.232 -168.5581
2.866910 68.011 -169.8557
2.887685 67.763 -171.1311
2.908611 67.484 -172.3826
2.929688 67.169 -173.6149
2.950917 66.815 -174.8398
2.972301 66.418 -176.0737
2.993839 65.976 -177.3343
3.015534 65.491 -178.6382
3.037386 64.964 179.9995
3.059396 64.402 178.5652
3.081565 63.811 177.0462
3.103896 63.199 175.4298
3.126388 62.575 173.7036
3.149043 61.950 171.8541
3.171862 61.336 169.8668
3.194847 60.746 167.7247
3.217998 60.193 165.4060
3.241317 59.692 162.8794
3.264805 59.254 160.0944
3.288463 58.890 156.9637
3.312293 58.604 153.3318
3.336295 58.397 148.9208
3.360471 58.265 143.2295
3.384822 58.203 135.3212
3.409350 58.206 123.4092
3.434056 58.266 104.5012
3.458940 58.377 77.1055
3.484005 58.534 49.0201
3.509252 58.732 29.1262
3.534681 58.965 16.6611
3.560295 59.230 8.5389
3.586094 59.524 2.8280
3.612081 59.848 -1.4940
3.638255 60.204 -4.9832
3.664620 60.594 -7.9603
3.691175 61.021 -10.6170
3.717923 61.487 -13.0651
3.744864 61.989 -15.3645
3.772001 62.519 -17.5432
3.799335 63.069 -19.6112
3.826866 63.629 -21.5700
3.854597 64.187 -23.4181
3.882529 64.732 -25.1536
3.910664 65.255 -26.7771
3.939002 65.746 -28.2925
3.967546 66.199 -29.7083
3.996296 66.609 -31.0385
4.025255 66.975 -32.3024
4.054423 67.296 -33.5216
4.083804 67.575 -34.7154
4.113396 67.816 -35.8954
4.143204 68.023 -37.0646
4.173227 68.199 -38.2183
4.203468 68.348 -39.3469
4.233928 68.474 -40.4378
4.264609 68.579 -41.4774
4.295512 68.667 -42.4529
4.326639 68.741 -43.3546
4.357992 68.800 -44.1770
4.389572 68.846 -44.9207
4.421380 68.878 -45.5911
4.453419 68.894 -46.1962
4.485691 68.894 -46.7416
4.518196 68.879 -47.2288
4.550936 68.850 -47.6544
4.583914 68.809 -48.0106
4.617131 68.758 -48.2865
4.650589 68.700 -48.4687
4.684289 68.637 -48.5429
4.718233 68.571 -48.4954
4.752424 68.501 -48.3139
4.786862 68.428 -47.9899
4.821549 68.351 -47.5186
4.856488 68.271 -46.8992
4.891680 68.191 -46.1350
4.927127 68.112 -45.2324
4.962831 68.040 -44.2008
4.998794 67.979 -43.0522
5.035017 67.935 -41.7997
5.071503 67.913 -40.4565
5.108253 67.916 -39.0342
5.145270 67.945 -37.5434
5.182555 68.003 -35.9953
5.220110 68.087 -34.4068
5.257937 68.195 -32.8025
5.296038 68.325 -31.2132
5.334415 68.473 -29.6725
5.373071 68.638 -28.2128
5.412006 68.816 -26.8619
5.451224 69.006 -25.6393
5.490725 69.209 -24.5555
5.530514 69.423 -23.6123
5.570590 69.647 -22.8058
5.610957 69.880 -22.1303
5.651616 70.119 -21.5801
5.692570 70.360 -21.1502
5.733821 70.600 -20.8366
5.775370 70.833 -20.6356
5.817221 71.058 -20.5440
5.859375 71.273 -20.5582
5.901834 71.477 -20.6730
5.944602 71.670 -20.8808
5.987679 71.851 -21.1711
6.031068 72.022 -21.5314
6.074771 72.181 -21.9487
6.118792 72.329 -22.4113
6.163131 72.464 -22.9104
6.207792 72.586 -23.4404
6.252776 72.695 -23.9990
6.298086 72.792 -24.5843
6.343725 72.875 -25.1926
6.389694 72.945 -25.8165
6.435996 73.005 -26.4459
6.482634 73.053 -27.0698
6.529610 73.091 -27.6780
6.576926 73.119 -28.2631
6.624585 73.138 -28.8212
6.672590 73.148 -29.3512
6.720942 73.149 -29.8520
6.769645 73.143 -30.3215
6.818700 73.132 -30.7559
6.868111 73.116 -31.1503
6.917881 73.098 -31.4999
6.968010 73.078 -31.8008
7.018504 73.058 -32.0518
7.069362 73.037 -32.2544
7.120590 73.018 -32.4127
7.172189 73.002 -32.5323
7.224161 72.990 -32.6195
7.276511 72.985 -32.6797
7.329239 72.986 -32.7175
7.382350 72.997 -32.7373
7.435845 73.015 -32.7451
7.489729 73.043 -32.7498
7.544002 73.078 -32.7627
7.598669 73.122 -32.7960
7.653732 73.175 -32.8605
7.709194 73.236 -32.9641
7.765058 73.304 -33.1117
7.821327 73.380 -33.3072
7.878004 73.461 -33.5544
7.935091 73.547 -33.8573
7.992592 73.637 -34.2199
8.050510 73.728 -34.6450
8.108847 73.820 -35.1331
8.167607 73.912 -35.6824
8.226793 74.004 -36.2887
8.286408 74.094 -36.9472
8.346454 74.182 -37.6527
8.406936 74.267 -38.4010
8.467856 74.348 -39.1882
8.529218 74.425 -40.0098
8.591024 74.498 -40.8598
8.653278 74.567 -41.7306
8.715983 74.632 -42.6141
8.779143 74.694 -43.5037
8.842760 74.752 -44.3943
8.906839 74.807 -45.2815
8.971381 74.859 -46.1610
9.036392 74.910 -47.0274
9.101873 74.960 -47.8755
9.167829 75.009 -48.7010
9.234263 75.059 -49.5015
9.301178 75.111 -50.2759
9.368578 75.165 -51.0240
9.436467 75.222 -51.7458
9.504847 75.282 -52.4419
9.573723 75.347 -53.1129
9.643099 75.417 -53.7608
9.712976 75.493 -54.3887
9.783361 75.574 -55.0006
9.854255 75.660 -55.6004
9.925663 75.752 -56.1915
9.997588 75.850 -56.7769
10.070035 75.953 -57.3596
10.143007 76.060 -57.9429
10.216507 76.171 -58.5297
10.290540 76.286 -59.1221
10.365109 76.403 -59.7212
10.440219 76.522 -60.3270
10.515873 76.643 -60.9392
10.592076 76.764 -61.5572
10.668830 76.885 -62.1799
10.746141 77.005 -62.8056
10.824012 77.124 -63.4320
10.902447 77.241 -64.0562
10.981451 77.357 -64.6755
11.061027 77.470 -65.2875
11.141180 77.582 -65.8896
11.221913 77.691 -66.4795
11.303232 77.798 -67.0545
11.385140 77.902 -67.6128
11.467641 78.005 -68.1527
11.550741 78.106 -68.6734
11.634442 78.206 -69.1740
11.718750 78.304 -69.6542
11.803669 78.400 -70.1139
11.889203 78.496 -70.5538
11.975357 78.591 -70.9747
12.062136 78.686 -71.3779
12.149543 78.780 -71.7647
12.237583 78.873 -72.1367
12.326262 78.966 -72.4958
12.415583 79.059 -72.8439
12.505552 79.151 -73.1831
12.596172 79.244 -73.5154
12.687449 79.335 -73.8427
12.779387 79.426 -74.1673
12.871992 79.517 -74.4911
12.965268 79.606 -74.8160
13.059220 79.695 -75.1439
13.153852 79.782 -75.4764
13.249170 79.868 -75.8151
13.345179 79.952 -76.1611
13.441884 80.034 -76.5153
13.539289 80.114 -76.8783
13.637401 80.192 -77.2502
13.736223 80.266 -77.6307
13.835761 80.337 -78.0189
13.936021 80.405 -78.4136
14.037007 80.469 -78.8132
14.138725 80.530 -79.2156
14.241180 80.587 -79.6186
14.344377 80.641 -80.0196
14.448323 80.692 -80.4166
14.553021 80.740 -80.8075
14.658478 80.786 -81.1908
14.764700 80.830 -81.5657
14.871691 80.874 -81.9323
14.979457 80.918 -82.2917
15.088005 80.963 -82.6460
15.197339 81.009 -82.9985
15.307465 81.057 -83.3533
15.418389 81.107 -83.7155
15.530117 81.160 -84.0900
15.642655 81.215 -84.4823
15.756008 81.272 -84.8972
15.870182 81.331 -85.3387
15.985184 81.391 -85.8096
16.101019 81.451 -86.3112
16.217694 81.509 -86.8429
16.335214 81.566 -87.4026
16.453586 81.621 -87.9863
16.572815 81.672 -88.5884
16.692909 81.720 -89.2027
16.813872 81.764 -89.8217
16.935713 81.805 -90.4379
17.058436 81.843 -91.0446
17.182048 81.879 -91.6354
17.306556 81.915 -92.2056
17.431967 81.951 -92.7525
17.558286 81.988 -93.2753
17.685521 82.029 -93.7754
17.813677 82.073 -94.2561
17.942762 82.122 -94.7225
18.072783 82.177 -95.1810
18.203746 82.236 -95.6381
18.335658 82.299 -96.1003
18.468526 82.367 -96.5731
18.602356 82.438 -97.0607
18.737156 82.510 -97.5651
18.872934 82.583 -98.0867
19.009695 82.655 -98.6236
19.147447 82.726 -99.1724
19.286197 82.795 -99.7284
19.425953 82.860 -100.2861
19.566721 82.923 -100.8399
19.708510 82.982 -101.3843
19.851326 83.039 -101.9146
19.995177 83.093 -102.4272
20.140070 83.146 -102.9199
20.286013 83.197 -103.3917
20.433014 83.247 -103.8428
20.581080 83.297 -104.2746
20.730219 83.346 -104.6892
20.880439 83.396 -105.0894
21.031747 83.446 -105.4781
21.184152 83.496 -105.8582
21.337661 83.546 -106.2325
21.492282 83.596 -106.6038
21.648024 83.645 -106.9741
21.804895 83.695 -107.3457
21.962902 83.743 -107.7203
22.122054 83.791 -108.0995
22.282360 83.838 -108.4846
22.443827 83.883 -108.8767
22.606464 83.927 -109.2764
22.770280 83.970 -109.6844
22.935283 84.011 -110.1006
23.101481 84.050 -110.5249
23.268884 84.088 -110.9568
23.437500 84.124 -111.3956
23.607338 84.158 -111.8405
23.778406 84.190 -112.2907
23.950714 84.221 -112.7453
24.124271 84.251 -113.2037
24.299086 84.280 -113.6651
24.475167 84.309 -114.1290
24.652524 84.337 -114.5948
24.831166 84.364 -115.0620
25.011103 84.392 -115.5303
25.192344 84.419 -115.9990
25.374898 84.447 -116.4679
25.558775 84.476 -116.9366
25.743984 84.505 -117.4051
25.930536 84.535 -117.8733
26.118439 84.566 -118.3412
26.307704 84.598 -118.8087
26.498341 84.631 -119.2758
26.690359 84.665 -119.7422
26.883768 84.699 -120.2073
27.078579 84.734 -120.6704
27.274801 84.769 -121.1307
27.472446 84.804 -121.5873
27.671522 84.840 -122.0393
27.872042 84.876 -122.4860
28.074014 84.912 -122.9271
28.277450 84.948 -123.3624
28.482360 84.984 -123.7922
28.688755 85.020 -124.2169
28.896645 85.055 -124.6371
29.106042 85.091 -125.0537
29.316957 85.125 -125.4672
29.529400 85.159 -125.8785
29.743382 85.192 -126.2881
29.958915 85.224 -126.6965
30.176009 85.255 -127.1039
30.394677 85.285 -127.5102
30.614929 85.313 -127.9152
30.836778 85.339 -128.3187
31.060234 85.365 -128.7207
31.285309 85.389 -129.1215
31.512015 85.413 -129.5217
31.740364 85.436 -129.9228
31.970368 85.459 -130.3264
32.202039 85.481 -130.7342
32.435388 85.503 -131.1476
32.670428 85.524 -131.5674
32.907171 85.545 -131.9935
33.145630 85.564 -132.4249
33.385817 85.583 -132.8601
33.627745 85.601 -133.2975
33.871425 85.619 -133.7358
34.116871 85.636 -134.1743
34.364096 85.653 -134.6132
34.613113 85.671 -135.0528
34.863934 85.688 -135.4940
35.116572 85.706 -135.9367
35.371041 85.723 -136.3804
35.627354 85.740 -136.8234
35.885525 85.756 -137.2637
36.145566 85.771 -137.6987
36.407492 85.786 -138.1265
36.671316 85.800 -138.5462
36.937051 85.815 -138.9579
37.204712 85.830 -139.3631
37.474313 85.846 -139.7641
37.745867 85.862 -140.1631
38.019389 85.878 -140.5623
38.294893 85.894 -140.9629
38.572394 85.909 -141.3652
38.851905 85.923 -141.7685
39.133442 85.937 -142.1719
39.417019 85.949 -142.5742
39.702651 85.961 -142.9747
39.990353 85.972 -143.3733
40.280140 85.983 -143.7704
40.572026 85.993 -144.1664
40.866028 86.003 -144.5618
41.162160 86.012 -144.9565
41.460438 86.021 -145.3502
41.760877 86.030 -145.7424
42.063494 86.038 -146.1329
42.368303 86.047 -146.5216
42.675322 86.055 -146.9092
42.984565 86.064 -147.2960
43.296048 86.072 -147.6821
43.609789 86.079 -148.0669
43.925804 86.086 -148.4491
44.244108 86.092 -148.8271
44.564719 86.098 -149.1994
44.887654 86.103 -149.5657
45.212928 86.109 -149.9268
45.540560 86.114 -150.2847
45.870565 86.119 -150.6414
46.202962 86.125 -150.9988
46.537768 86.129 -151.3574
46.875000 86.133 -151.7166
47.214676 86.136 -152.0750
47.556813 86.138 -152.4313
47.901429 86.139 -152.7853
48.248542 86.141 -153.1376
48.598171 86.142 -153.4895
48.950334 86.143 -153.8421
49.305048 86.144 -154.1960
49.662333 86.145 -154.5505
50.022206 86.145 -154.9048
50.384688 86.145 -155.2582
50.749796 86.145 -155.6102
51.117550 86.144 -155.9605
51.487969 86.143 -156.3084
51.861072 86.142 -156.6529
52.236879 86.140 -156.9927
52.615409 86.138 -157.3272
52.996681 86.136 -157.6568
53.380717 86.134 -157.9828
53.767536 86.132 -158.3066
54.157158 86.130 -158.6293
54.549603 86.127 -158.9512
54.944892 86.125 -159.2719
55.343045 86.122 -159.5916
55.744084 86.119 -159.9112
56.148028 86.117 -160.2324
56.554900 86.114 -160.5572
56.964720 86.112 -160.8871
57.377510 86.109 -161.2220
57.793291 86.105 -161.5604
58.212085 86.101 -161.8999
58.633914 86.096 -162.2385
59.058799 86.091 -162.5750
59.486764 86.085 -162.9094
59.917829 86.079 -163.2421
60.352019 86.073 -163.5730
60.789354 86.066 -163.9013
61.229859 86.058 -164.2254
61.673556 86.049 -164.5443
62.120468 86.040 -164.8577
62.570618 86.031 -165.1660
63.024031 86.020 -165.4700
63.480729 86.010 -165.7700
63.940736 85.998 -166.0665
64.404077 85.987 -166.3600
64.870776 85.975 -166.6517
65.340856 85.962 -166.9428
65.814343 85.950 -167.2347
66.291261 85.937 -167.5279
66.771635 85.923 -167.8223
67.255489 85.909 -168.1165
67.742850 85.894 -168.4080
68.233743 85.879 -168.6934
68.728193 85.863 -168.9697
69.226226 85.848 -169.2364
69.727867 85.835 -169.4960
70.233144 85.822 -169.7521
70.742083 85.810 -170.0070
71.254709 85.798 -170.2603
