* Measurement data measured by REW V5.31
* Source: Microphone (USB Sound Device        ), MICROPHONE (Master Volume), L, volume: 0.250
* Format: 256k Log Swept Sine, 1 sweep at -5.0 dBFS with no timing reference
* Dated: Jun 4, 2024 1:00:26 AM
* REW Settings:
*  C-weighting compensation: Off
*  Target level: 75.0 dB
* Note: Tanchjim 4U Pop
* Measurement: L Tanchjim 4U Pop
* Smoothing: 1/12 octave
* Frequency Step: 96 ppo
* Start Frequency: 0.36621094 Hz
*
* Freq(Hz) SPL(dB) Phase(degrees)
0.366211 83.930 156.5734
0.368865 83.924 156.5491
0.371538 83.916 156.5128
0.374230 83.905 156.4671
0.376942 83.893 156.4145
0.379673 83.881 156.3567
0.382424 83.867 156.2948
0.385196 83.854 156.2294
0.387987 83.840 156.1611
0.390798 83.826 156.0900
0.393630 83.811 156.0161
0.396483 83.797 155.9397
0.399356 83.783 155.8605
0.402250 83.768 155.7788
0.405165 83.753 155.6944
0.408101 83.738 155.6072
0.411058 83.724 155.5174
0.414037 83.709 155.4248
0.417037 83.693 155.3295
0.420059 83.678 155.2313
0.423103 83.663 155.1304
0.426169 83.647 155.0266
0.429257 83.632 154.9199
0.432368 83.616 154.8103
0.435501 83.600 154.6978
0.438656 83.584 154.5824
0.441835 83.568 154.4639
0.445037 83.552 154.3426
0.448262 83.536 154.2181
0.451510 83.520 154.0907
0.454782 83.503 153.9602
0.458077 83.486 153.8266
0.461397 83.470 153.6900
0.464740 83.453 153.5502
0.468108 83.436 153.4073
0.471500 83.419 153.2612
0.474917 83.402 153.1120
0.478358 83.384 152.9595
0.481825 83.367 152.8040
0.485316 83.349 152.6451
0.488833 83.331 152.4831
0.492375 83.314 152.3178
0.495943 83.296 152.1494
0.499537 83.277 151.9776
0.503157 83.259 151.8026
0.506803 83.241 151.6244
0.510475 83.222 151.4429
0.514175 83.204 151.2582
0.517900 83.185 151.0702
0.521653 83.166 150.8789
0.525434 83.147 150.6845
0.529241 83.128 150.4868
0.533076 83.108 150.2858
0.536939 83.089 150.0817
0.540830 83.069 149.8744
0.544749 83.049 149.6639
0.548696 83.030 149.4502
0.552673 83.010 149.2335
0.556677 82.989 149.0136
0.560711 82.969 148.7907
0.564774 82.949 148.5648
0.568867 82.928 148.3359
0.572989 82.907 148.1041
0.577141 82.886 147.8693
0.581324 82.865 147.6318
0.585536 82.844 147.3914
0.589779 82.822 147.1483
0.594053 82.801 146.9026
0.598358 82.779 146.6543
0.602694 82.757 146.4035
0.607061 82.735 146.1503
0.611460 82.713 145.8948
0.615891 82.691 145.6370
0.620354 82.668 145.3771
0.624849 82.646 145.1151
0.629377 82.623 144.8513
0.633938 82.600 144.5856
0.638532 82.577 144.3183
0.643159 82.553 144.0495
0.647819 82.530 143.7793
0.652514 82.506 143.5078
0.657242 82.482 143.2353
0.662005 82.458 142.9619
0.666802 82.434 142.6878
0.671634 82.410 142.4131
0.676501 82.385 142.1381
0.681403 82.361 141.8630
0.686341 82.336 141.5879
0.691314 82.310 141.3132
0.696324 82.285 141.0390
0.701370 82.259 140.7654
0.706452 82.233 140.4928
0.711571 82.207 140.2211
0.716728 82.180 139.9503
0.721921 82.151 139.6802
0.727153 82.121 139.4104
0.732422 82.090 139.1399
0.737729 82.056 138.8678
0.743075 82.020 138.5930
0.748460 81.983 138.3146
0.753883 81.944 138.0317
0.759346 81.905 137.7440
0.764849 81.864 137.4510
0.770391 81.823 137.1524
0.775974 81.782 136.8482
0.781597 81.739 136.5382
0.787261 81.697 136.2224
0.792966 81.653 135.9006
0.798712 81.610 135.5728
0.804500 81.565 135.2389
0.810329 81.520 134.8990
0.816201 81.474 134.5530
0.822116 81.428 134.2008
0.828073 81.381 133.8424
0.834074 81.333 133.4778
0.840118 81.285 133.1069
0.846206 81.236 132.7299
0.852338 81.186 132.3466
0.858514 81.135 131.9571
0.864735 81.083 131.5614
0.871001 81.031 131.1596
0.877313 80.977 130.7517
0.883670 80.923 130.3377
0.890074 80.867 129.9177
0.896524 80.811 129.4918
0.903020 80.753 129.0602
0.909564 80.695 128.6228
0.916155 80.635 128.1799
0.922794 80.574 127.7316
0.929481 80.512 127.2782
0.936216 80.448 126.8197
0.943000 80.383 126.3564
0.949834 80.317 125.8886
0.956717 80.250 125.4166
0.963649 80.181 124.9406
0.970632 80.110 124.4611
0.977666 80.038 123.9783
0.984750 79.964 123.4927
0.991886 79.889 123.0047
0.999074 79.812 122.5149
1.006314 79.733 122.0237
1.013606 79.652 121.5317
1.020951 79.569 121.0396
1.028349 79.485 120.5479
1.035801 79.398 120.0575
1.043307 79.309 119.5691
1.050867 79.218 119.0835
1.058482 79.125 118.6015
1.066152 79.030 118.1238
1.073878 78.933 117.6513
1.081660 78.834 117.1845
1.089498 78.733 116.7238
1.097393 78.632 116.2692
1.105345 78.530 115.8205
1.113355 78.429 115.3771
1.121423 78.329 114.9383
1.129549 78.230 114.5035
1.137734 78.133 114.0723
1.145979 78.037 113.6442
1.154283 77.942 113.2188
1.162647 77.848 112.7957
1.171072 77.754 112.3747
1.179558 77.661 111.9555
1.188106 77.568 111.5378
1.196715 77.474 111.1212
1.205387 77.379 110.7056
1.214122 77.283 110.2904
1.222920 77.184 109.8755
1.231782 77.083 109.4606
1.240708 76.979 109.0452
1.249699 76.872 108.6291
1.258754 76.760 108.2118
1.267876 76.643 107.7931
1.277063 76.521 107.3725
1.286318 76.394 106.9498
1.295639 76.259 106.5244
1.305027 76.117 106.0960
1.314484 75.967 105.6642
1.324009 75.809 105.2286
1.333604 75.640 104.7887
1.343268 75.462 104.3443
1.353002 75.273 103.8949
1.362806 75.071 103.4402
1.372681 74.857 102.9798
1.382628 74.629 102.5133
1.392647 74.387 102.0407
1.402739 74.129 101.5618
1.412904 73.855 101.0765
1.423142 73.562 100.5854
1.433455 73.250 100.0889
1.443843 72.916 99.5884
1.454305 72.558 99.0857
1.464844 72.173 98.5832
1.475459 71.756 98.0841
1.486150 71.305 97.5915
1.496920 70.816 97.1080
1.507767 70.287 96.6361
1.518693 69.720 96.1774
1.529698 69.113 95.7333
1.540783 68.469 95.3053
1.551948 67.790 94.8944
1.563194 67.077 94.5021
1.574521 66.333 94.1298
1.585931 65.562 93.7792
1.597423 64.766 93.4522
1.608999 63.949 93.1512
1.620658 63.115 92.8789
1.632402 62.267 92.6389
1.644232 61.410 92.4351
1.656146 60.549 92.2726
1.668147 59.689 92.1578
1.680235 58.834 92.0985
1.692411 57.991 92.1045
1.704675 57.165 92.1888
1.717028 56.365 92.3677
1.729470 55.597 92.6635
1.742003 54.870 93.1059
1.754626 54.193 93.7366
1.767341 53.576 94.6152
1.780147 53.028 95.8301
1.793047 52.562 97.5182
1.806040 52.188 99.8990
1.819128 51.917 103.3397
1.832310 51.756 108.4718
1.845587 51.710 116.3825
1.858961 51.780 128.7578
1.872432 51.964 147.0921
1.886001 52.256 169.3299
1.899667 52.647 -170.9597
1.913433 53.129 -157.2236
1.927299 53.691 -148.4522
1.941265 54.322 -142.8660
1.955332 55.014 -139.2372
1.969501 55.754 -136.8380
1.983773 56.532 -135.2399
1.998148 57.340 -134.1822
2.012627 58.166 -133.5003
2.027212 59.001 -133.0861
2.041902 59.836 -132.8663
2.056698 60.662 -132.7897
2.071602 61.470 -132.8194
2.086614 62.251 -132.9290
2.101734 62.998 -133.0987
2.116964 63.704 -133.3148
2.132304 64.362 -133.5678
2.147756 64.967 -133.8526
2.163320 65.517 -134.1686
2.178996 66.011 -134.5195
2.194786 66.450 -134.9132
2.210690 66.840 -135.3603
2.226710 67.187 -135.8702
2.242845 67.495 -136.4488
2.259098 67.769 -137.0968
2.275468 68.012 -137.8113
2.291957 68.227 -138.5864
2.308566 68.415 -139.4149
2.325295 68.579 -140.2885
2.342145 68.720 -141.1991
2.359117 68.840 -142.1384
2.376212 68.941 -143.0984
2.393431 69.024 -144.0713
2.410775 69.092 -145.0496
2.428244 69.146 -146.0264
2.445840 69.188 -146.9950
2.463564 69.220 -147.9495
2.481416 69.245 -148.8853
2.499397 69.264 -149.7994
2.517509 69.278 -150.6914
2.535752 69.290 -151.5648
2.554127 69.298 -152.4276
2.572635 69.302 -153.2922
2.591277 69.302 -154.1733
2.610055 69.295 -155.0845
2.628968 69.279 -156.0359
2.648019 69.254 -157.0334
2.667208 69.218 -158.0794
2.686535 69.170 -159.1736
2.706003 69.109 -160.3134
2.725612 69.033 -161.4944
2.745363 68.942 -162.7113
2.765257 68.836 -163.9570
2.785295 68.711 -165.2234
2.805478 68.569 -166.5015
2.825808 68.406 -167.7816
2.846285 68.222 -169.0536
2.866910 68.016 -170.3089
2.887685 67.784 -171.5410
2.908611 67.523 -172.7480
2.929688 67.231 -173.9346
2.950917 66.903 -175.1118
2.972301 66.538 -176.2951
2.993839 66.132 -177.5010
3.015534 65.688 -178.7445
3.037386 65.207 179.9612
3.059396 64.694 178.6046
3.081565 64.155 177.1757
3.103896 63.597 175.6652
3.126388 63.026 174.0646
3.149043 62.452 172.3655
3.171862 61.884 170.5598
3.194847 61.332 168.6391
3.217998 60.807 166.5927
3.241317 60.318 164.4056
3.264805 59.875 162.0514
3.288463 59.483 159.4814
3.312293 59.145 156.6065
3.336295 58.858 153.2673
3.360471 58.622 149.1841
3.384822 58.433 143.8496
3.409350 58.288 136.2860
3.434056 58.186 124.4975
3.458940 58.125 104.7162
3.484005 58.107 74.4202
3.509252 58.131 43.9252
3.534681 58.198 23.8944
3.560295 58.311 11.9852
3.586094 58.473 4.3795
3.612081 58.687 -0.9640
3.638255 58.960 -5.0508
3.664620 59.294 -8.4056
3.691175 59.694 -11.3182
3.717923 60.157 -13.9499
3.744864 60.678 -16.3863
3.772001 61.245 -18.6692
3.799335 61.844 -20.8170
3.826866 62.460 -22.8362
3.854597 63.078 -24.7290
3.882529 63.684 -26.4968
3.910664 64.265 -28.1423
3.939002 64.810 -29.6718
3.967546 65.311 -31.0959
3.996296 65.761 -32.4306
4.025255 66.158 -33.6970
4.054423 66.505 -34.9186
4.083804 66.804 -36.1156
4.113396 67.060 -37.3002
4.143204 67.278 -38.4754
4.173227 67.462 -39.6361
4.203468 67.616 -40.7718
4.233928 67.744 -41.8692
4.264609 67.850 -42.9138
4.295512 67.938 -43.8922
4.326639 68.009 -44.7940
4.357992 68.066 -45.6138
4.389572 68.108 -46.3521
4.421380 68.136 -47.0148
4.453419 68.147 -47.6102
4.485691 68.141 -48.1441
4.518196 68.119 -48.6178
4.550936 68.081 -49.0271
4.583914 68.031 -49.3633
4.617131 67.970 -49.6140
4.650589 67.902 -49.7642
4.684289 67.827 -49.7980
4.718233 67.749 -49.6998
4.752424 67.667 -49.4558
4.786862 67.582 -49.0558
4.821549 67.492 -48.4939
4.856488 67.399 -47.7684
4.891680 67.304 -46.8817
4.927127 67.212 -45.8400
4.962831 67.128 -44.6531
4.998794 67.057 -43.3339
5.035017 67.005 -41.8972
5.071503 66.978 -40.3589
5.108253 66.979 -38.7334
5.145270 67.013 -37.0345
5.182555 67.078 -35.2770
5.220110 67.174 -33.4820
5.257937 67.297 -31.6787
5.296038 67.445 -29.9027
5.334415 67.613 -28.1920
5.373071 67.799 -26.5824
5.412006 67.999 -25.1037
5.451224 68.211 -23.7762
5.490725 68.436 -22.6098
5.530514 68.671 -21.6050
5.570590 68.917 -20.7556
5.610957 69.171 -20.0535
5.651616 69.430 -19.4905
5.692570 69.691 -19.0594
5.733821 69.949 -18.7536
5.775370 70.199 -18.5679
5.817221 70.440 -18.4976
5.859375 70.668 -18.5378
5.901834 70.884 -18.6828
5.944602 71.087 -18.9242
5.987679 71.277 -19.2505
6.031068 71.455 -19.6482
6.074771 71.620 -20.1034
6.118792 71.773 -20.6035
6.163131 71.912 -21.1390
6.207792 72.037 -21.7040
6.252776 72.148 -22.2962
6.298086 72.246 -22.9138
6.343725 72.329 -23.5531
6.389694 72.399 -24.2067
6.435996 72.457 -24.8639
6.482634 72.504 -25.5134
6.529610 72.539 -26.1443
6.576926 72.565 -26.7491
6.624585 72.580 -27.3237
6.672590 72.585 -27.8667
6.720942 72.582 -28.3773
6.769645 72.570 -28.8532
6.818700 72.553 -29.2906
6.868111 72.531 -29.6842
6.917881 72.507 -30.0289
6.968010 72.481 -30.3207
7.018504 72.454 -30.5580
7.069362 72.427 -30.7424
7.120590 72.402 -30.8781
7.172189 72.379 -30.9713
7.224161 72.362 -31.0285
7.276511 72.350 -31.0556
7.329239 72.347 -31.0577
7.382350 72.353 -31.0395
7.435845 72.368 -31.0073
7.489729 72.391 -30.9709
7.544002 72.424 -30.9425
7.598669 72.466 -30.9352
7.653732 72.517 -30.9605
7.709194 72.576 -31.0271
7.765058 72.644 -31.1405
7.821327 72.720 -31.3046
7.878004 72.802 -31.5236
7.935091 72.888 -31.8018
7.992592 72.978 -32.1435
8.050510 73.069 -32.5514
8.108847 73.162 -33.0263
8.167607 73.255 -33.5661
8.226793 73.348 -34.1664
8.286408 73.439 -34.8221
8.346454 73.527 -35.5279
8.406936 73.612 -36.2792
8.467856 73.693 -37.0720
8.529218 73.771 -37.9017
8.591024 73.844 -38.7620
8.653278 73.913 -39.6451
8.715983 73.978 -40.5428
8.779143 74.039 -41.4483
8.842760 74.097 -42.3562
8.906839 74.152 -43.2624
8.971381 74.204 -44.1622
9.036392 74.254 -45.0505
9.101873 74.304 -45.9221
9.167829 74.354 -46.7726
9.234263 74.404 -47.5995
9.301178 74.456 -48.4019
9.368578 74.510 -49.1795
9.436467 74.567 -49.9325
9.504847 74.629 -50.6613
9.573723 74.694 -51.3666
9.643099 74.765 -52.0502
9.712976 74.841 -52.7150
9.783361 74.922 -53.3646
9.854255 75.009 -54.0026
9.925663 75.101 -54.6322
9.997588 75.198 -55.2559
10.070035 75.300 -55.8762
10.143007 75.407 -56.4956
10.216507 75.517 -57.1165
10.290540 75.630 -57.7405
10.365109 75.745 -58.3681
10.440219 75.863 -58.9989
10.515873 75.981 -59.6322
10.592076 76.101 -60.2667
10.668830 76.220 -60.9013
10.746141 76.338 -61.5342
10.824012 76.456 -62.1629
10.902447 76.573 -62.7850
10.981451 76.688 -63.3980
11.061027 76.802 -63.9998
11.141180 76.915 -64.5887
11.221913 77.026 -65.1631
11.303232 77.136 -65.7214
11.385140 77.245 -66.2626
11.467641 77.353 -66.7864
11.550741 77.460 -67.2929
11.634442 77.566 -67.7826
11.718750 77.671 -68.2562
11.803669 77.775 -68.7145
11.889203 77.879 -69.1589
11.975357 77.982 -69.5907
12.062136 78.084 -70.0112
12.149543 78.185 -70.4217
12.237583 78.284 -70.8231
12.326262 78.382 -71.2164
12.415583 78.479 -71.6021
12.505552 78.574 -71.9806
12.596172 78.667 -72.3521
12.687449 78.757 -72.7167
12.779387 78.846 -73.0740
12.871992 78.933 -73.4239
12.965268 79.017 -73.7665
13.059220 79.100 -74.1018
13.153852 79.180 -74.4302
13.249170 79.260 -74.7522
13.345179 79.337 -75.0687
13.441884 79.414 -75.3811
13.539289 79.489 -75.6910
13.637401 79.563 -76.0003
13.736223 79.636 -76.3108
13.835761 79.708 -76.6248
13.936021 79.780 -76.9444
14.037007 79.850 -77.2714
14.138725 79.918 -77.6073
14.241180 79.986 -77.9534
14.344377 80.051 -78.3106
14.448323 80.115 -78.6792
14.553021 80.176 -79.0591
14.658478 80.236 -79.4498
14.764700 80.293 -79.8504
14.871691 80.347 -80.2601
14.979457 80.400 -80.6778
15.088005 80.451 -81.1023
15.197339 80.499 -81.5329
15.307465 80.547 -81.9690
15.418389 80.593 -82.4103
15.530117 80.638 -82.8569
15.642655 80.683 -83.3092
15.756008 80.727 -83.7679
15.870182 80.771 -84.2337
15.985184 80.816 -84.7073
16.101019 80.860 -85.1895
16.217694 80.904 -85.6807
16.335214 80.949 -86.1808
16.453586 80.993 -86.6894
16.572815 81.038 -87.2055
16.692909 81.082 -87.7278
16.813872 81.126 -88.2547
16.935713 81.171 -88.7841
17.058436 81.215 -89.3142
17.182048 81.261 -89.8433
17.306556 81.307 -90.3698
17.431967 81.354 -90.8927
17.558286 81.403 -91.4115
17.685521 81.454 -91.9264
17.813677 81.507 -92.4381
17.942762 81.563 -92.9475
18.072783 81.621 -93.4560
18.203746 81.681 -93.9649
18.335658 81.743 -94.4756
18.468526 81.807 -94.9888
18.602356 81.872 -95.5051
18.737156 81.939 -96.0244
18.872934 82.005 -96.5460
19.009695 82.072 -97.0688
19.147447 82.139 -97.5914
19.286197 82.206 -98.1121
19.425953 82.272 -98.6292
19.566721 82.337 -99.1413
19.708510 82.401 -99.6469
19.851326 82.465 -100.1453
19.995177 82.527 -100.6356
20.140070 82.589 -101.1177
20.286013 82.649 -101.5915
20.433014 82.708 -102.0570
20.581080 82.766 -102.5145
20.730219 82.823 -102.9639
20.880439 82.878 -103.4055
21.031747 82.932 -103.8394
21.184152 82.984 -104.2655
21.337661 83.035 -104.6842
21.492282 83.084 -105.0958
21.648024 83.132 -105.5011
21.804895 83.178 -105.9010
21.962902 83.223 -106.2969
22.122054 83.268 -106.6901
22.282360 83.311 -107.0823
22.443827 83.353 -107.4750
22.606464 83.394 -107.8695
22.770280 83.434 -108.2671
22.935283 83.472 -108.6684
23.101481 83.510 -109.0739
23.268884 83.546 -109.4839
23.437500 83.581 -109.8982
23.607338 83.616 -110.3169
23.778406 83.649 -110.7398
23.950714 83.682 -111.1671
24.124271 83.714 -111.5989
24.299086 83.746 -112.0357
24.475167 83.779 -112.4780
24.652524 83.811 -112.9265
24.831166 83.844 -113.3815
25.011103 83.877 -113.8438
25.192344 83.911 -114.3135
25.374898 83.944 -114.7906
25.558775 83.978 -115.2748
25.743984 84.013 -115.7652
25.930536 84.047 -116.2607
26.118439 84.081 -116.7596
26.307704 84.114 -117.2597
26.498341 84.148 -117.7586
26.690359 84.181 -118.2538
26.883768 84.214 -118.7431
27.078579 84.246 -119.2247
27.274801 84.280 -119.6973
27.472446 84.313 -120.1606
27.671522 84.348 -120.6153
27.872042 84.383 -121.0625
28.074014 84.419 -121.5037
28.277450 84.455 -121.9404
28.482360 84.491 -122.3737
28.688755 84.527 -122.8039
28.896645 84.563 -123.2305
29.106042 84.597 -123.6527
29.316957 84.630 -124.0690
29.529400 84.662 -124.4785
29.743382 84.693 -124.8807
29.958915 84.724 -125.2762
30.176009 84.754 -125.6663
30.394677 84.783 -126.0533
30.614929 84.812 -126.4397
30.836778 84.841 -126.8278
31.060234 84.869 -127.2193
31.285309 84.895 -127.6151
31.512015 84.921 -128.0152
31.740364 84.945 -128.4190
31.970368 84.968 -128.8257
32.202039 84.990 -129.2345
32.435388 85.011 -129.6451
32.670428 85.031 -130.0575
32.907171 85.052 -130.4724
33.145630 85.071 -130.8903
33.385817 85.091 -131.3117
33.627745 85.111 -131.7370
33.871425 85.130 -132.1658
34.116871 85.150 -132.5976
34.364096 85.169 -133.0318
34.613113 85.188 -133.4677
34.863934 85.208 -133.9045
35.116572 85.227 -134.3416
35.371041 85.246 -134.7784
35.627354 85.265 -135.2140
35.885525 85.283 -135.6473
36.145566 85.301 -136.0771
36.407492 85.319 -136.5020
36.671316 85.336 -136.9209
36.937051 85.353 -137.3331
37.204712 85.369 -137.7382
37.474313 85.385 -138.1367
37.745867 85.402 -138.5295
38.019389 85.417 -138.9174
38.294893 85.433 -139.3013
38.572394 85.448 -139.6817
38.851905 85.462 -140.0590
39.133442 85.477 -140.4336
39.417019 85.490 -140.8061
39.702651 85.504 -141.1777
39.990353 85.516 -141.5494
40.280140 85.529 -141.9225
40.572026 85.541 -142.2979
40.866028 85.553 -142.6755
41.162160 85.564 -143.0549
41.460438 85.574 -143.4358
41.760877 85.584 -143.8175
42.063494 85.593 -144.2003
42.368303 85.602 -144.5845
42.675322 85.611 -144.9701
42.984565 85.619 -145.3567
43.296048 85.627 -145.7429
43.609789 85.634 -146.1270
43.925804 85.640 -146.5072
44.244108 85.647 -146.8827
44.564719 85.653 -147.2540
44.887654 85.660 -147.6225
45.212928 85.667 -147.9896
45.540560 85.674 -148.3559
45.870565 85.680 -148.7210
46.202962 85.686 -149.0834
46.537768 85.691 -149.4417
46.875000 85.696 -149.7950
47.214676 85.701 -150.1436
47.556813 85.705 -150.4883
47.901429 85.710 -150.8301
48.248542 85.714 -151.1692
48.598171 85.718 -151.5050
48.950334 85.722 -151.8368
49.305048 85.726 -152.1646
49.662333 85.730 -152.4902
50.022206 85.735 -152.8166
50.384688 85.741 -153.1473
50.749796 85.747 -153.4848
51.117550 85.751 -153.8300
51.487969 85.755 -154.1812
51.861072 85.757 -154.5356
52.236879 85.757 -154.8895
52.615409 85.756 -155.2397
52.996681 85.754 -155.5842
53.380717 85.751 -155.9220
53.767536 85.748 -156.2534
54.157158 85.746 -156.5797
54.549603 85.744 -156.9028
54.944892 85.742 -157.2249
55.343045 85.741 -157.5474
55.744084 85.741 -157.8709
56.148028 85.740 -158.1946
56.554900 85.740 -158.5180
56.964720 85.741 -158.8416
57.377510 85.742 -159.1672
57.793291 85.744 -159.4980
58.212085 85.745 -159.8363
58.633914 85.746 -160.1820
59.058799 85.745 -160.5323
59.486764 85.741 -160.8824
59.917829 85.735 -161.2278
60.352019 85.728 -161.5658
60.789354 85.719 -161.8961
61.229859 85.710 -162.2199
61.673556 85.699 -162.5379
62.120468 85.688 -162.8504
62.570618 85.676 -163.1574
63.024031 85.664 -163.4598
63.480729 85.653 -163.7599
63.940736 85.642 -164.0604
64.404077 85.631 -164.3633
64.870776 85.621 -164.6683
65.340856 85.609 -164.9727
65.814343 85.597 -165.2724
66.291261 85.585 -165.5636
66.771635 85.573 -165.8444
67.255489 85.562 -166.1159
67.742850 85.551 -166.3811
68.233743 85.540 -166.6437
68.728193 85.529 -166.9066
69.226226 85.517 -167.1712
69.727867 85.504 -167.4361
70.233144 85.488 -167.6971
70.742083 85.469 -167.9480
71.254709 85.449 -168.1835
