* Measurement data measured by REW V5.30 beta 5
* Source: EXCL: Microphone (Realtek(R) Audio), MICROPHONE (Master Volume), L, volume: 0.250
* Format: 256k Log Swept Sine, 1 sweep at -13.0 dBFS with no timing reference
* Dated: Dec 14, 2023 12:50:22 PM
* REW Settings:
*  C-weighting compensation: Off
*  Target level: 75.0 dB
* Note: 
* Measurement: L LM RED
* Smoothing: 1/24 octave
* Frequency Step: 96 ppo
* Start Frequency: 0.36621094 Hz
*
* Freq(Hz) SPL(dB) Phase(degrees)
0.366211 54.585 23.7672
0.368865 54.618 23.7557
0.371538 54.665 23.7400
0.374230 54.718 23.7234
0.376942 54.774 23.7074
0.379673 54.830 23.6927
0.382424 54.887 23.6793
0.385196 54.945 23.6673
0.387987 55.003 23.6567
0.390798 55.061 23.6474
0.393630 55.120 23.6393
0.396483 55.179 23.6326
0.399356 55.238 23.6270
0.402250 55.298 23.6226
0.405165 55.359 23.6194
0.408101 55.420 23.6172
0.411058 55.481 23.6162
0.414037 55.543 23.6161
0.417037 55.605 23.6169
0.420059 55.668 23.6187
0.423103 55.731 23.6214
0.426169 55.795 23.6248
0.429257 55.859 23.6290
0.432367 55.923 23.6339
0.435501 55.988 23.6394
0.438656 56.054 23.6455
0.441835 56.120 23.6522
0.445037 56.186 23.6593
0.448262 56.253 23.6668
0.451510 56.320 23.6746
0.454782 56.388 23.6828
0.458077 56.457 23.6911
0.461397 56.525 23.6996
0.464740 56.595 23.7081
0.468108 56.665 23.7167
0.471500 56.735 23.7252
0.474917 56.806 23.7335
0.478358 56.877 23.7417
0.481825 56.949 23.7496
0.485316 57.022 23.7571
0.488833 57.095 23.7642
0.492375 57.168 23.7707
0.495943 57.242 23.7767
0.499537 57.317 23.7821
0.503157 57.392 23.7867
0.506803 57.467 23.7904
0.510475 57.544 23.7933
0.514174 57.620 23.7952
0.517900 57.698 23.7961
0.521653 57.776 23.7958
0.525433 57.854 23.7943
0.529241 57.933 23.7915
0.533076 58.012 23.7873
0.536939 58.093 23.7817
0.540830 58.173 23.7745
0.544749 58.255 23.7657
0.548696 58.337 23.7551
0.552673 58.419 23.7428
0.556677 58.502 23.7286
0.560711 58.586 23.7124
0.564774 58.670 23.6942
0.568867 58.755 23.6739
0.572989 58.841 23.6513
0.577141 58.927 23.6265
0.581324 59.013 23.5993
0.585536 59.101 23.5696
0.589779 59.189 23.5374
0.594053 59.278 23.5026
0.598358 59.367 23.4650
0.602694 59.457 23.4247
0.607061 59.547 23.3816
0.611460 59.639 23.3355
0.615891 59.731 23.2864
0.620354 59.823 23.2342
0.624849 59.916 23.1788
0.629377 60.010 23.1201
0.633938 60.105 23.0582
0.638532 60.200 22.9928
0.643159 60.296 22.9240
0.647819 60.393 22.8516
0.652514 60.490 22.7756
0.657242 60.589 22.6960
0.662005 60.687 22.6125
0.666802 60.787 22.5252
0.671634 60.887 22.4340
0.676501 60.988 22.3389
0.681403 61.090 22.2397
0.686341 61.192 22.1364
0.691314 61.295 22.0289
0.696324 61.399 21.9172
0.701369 61.504 21.8012
0.706452 61.610 21.6809
0.711571 61.716 21.5562
0.716727 61.823 21.4270
0.721921 61.930 21.2936
0.727153 62.037 21.1563
0.732422 62.143 21.0160
0.737729 62.247 20.8748
0.743075 62.350 20.7343
0.748460 62.452 20.5955
0.753883 62.555 20.4588
0.759346 62.658 20.3239
0.764849 62.761 20.1909
0.770391 62.865 20.0596
0.775974 62.970 19.9298
0.781597 63.075 19.8013
0.787261 63.180 19.6739
0.792965 63.286 19.5475
0.798712 63.393 19.4220
0.804499 63.499 19.2970
0.810329 63.607 19.1726
0.816201 63.715 19.0484
0.822116 63.823 18.9242
0.828073 63.932 18.8001
0.834073 64.041 18.6756
0.840118 64.150 18.5508
0.846205 64.261 18.4253
0.852337 64.371 18.2991
0.858514 64.482 18.1719
0.864735 64.594 18.0436
0.871001 64.706 17.9140
0.877313 64.818 17.7830
0.883670 64.931 17.6503
0.890074 65.044 17.5159
0.896523 65.158 17.3794
0.903020 65.272 17.2409
0.909564 65.386 17.1000
0.916155 65.501 16.9567
0.922793 65.617 16.8108
0.929480 65.732 16.6620
0.936216 65.849 16.5103
0.943000 65.965 16.3555
0.949833 66.082 16.1974
0.956716 66.200 16.0359
0.963649 66.317 15.8708
0.970632 66.436 15.7020
0.977666 66.554 15.5292
0.984750 66.673 15.3524
0.991886 66.792 15.1713
0.999074 66.912 14.9859
1.006313 67.032 14.7959
1.013605 67.152 14.6013
1.020950 67.273 14.4017
1.028349 67.394 14.1973
1.035801 67.515 13.9876
1.043306 67.637 13.7727
1.050867 67.759 13.5522
1.058482 67.881 13.3262
1.066152 68.004 13.0945
1.073878 68.127 12.8569
1.081659 68.250 12.6134
1.089498 68.373 12.3643
1.097393 68.497 12.1104
1.105345 68.621 11.8532
1.113355 68.745 11.5948
1.121422 68.869 11.3360
1.129549 68.993 11.0774
1.137734 69.118 10.8190
1.145978 69.242 10.5607
1.154283 69.367 10.3024
1.162647 69.492 10.0441
1.171072 69.618 9.7855
1.179558 69.743 9.5266
1.188106 69.868 9.2673
1.196715 69.994 9.0073
1.205387 70.120 8.7467
1.214122 70.246 8.4852
1.222920 70.372 8.2227
1.231781 70.499 7.9591
1.240708 70.625 7.6942
1.249698 70.752 7.4279
1.258754 70.878 7.1600
1.267875 71.005 6.8905
1.277063 71.132 6.6190
1.286317 71.260 6.3455
1.295638 71.387 6.0699
1.305027 71.515 5.7919
1.314484 71.642 5.5115
1.324009 71.770 5.2283
1.333603 71.898 4.9424
1.343267 72.026 4.6534
1.353001 72.155 4.3613
1.362805 72.283 4.0659
1.372681 72.412 3.7669
1.382628 72.541 3.4643
1.392647 72.670 3.1578
1.402739 72.799 2.8473
1.412904 72.928 2.5325
1.423142 73.058 2.2133
1.433455 73.188 1.8896
1.443842 73.317 1.5613
1.454305 73.448 1.2285
1.464843 73.578 0.8920
1.475458 73.708 0.5532
1.486150 73.838 0.2136
1.496919 73.968 -0.1261
1.507766 74.098 -0.4658
1.518692 74.228 -0.8055
1.529697 74.357 -1.1453
1.540782 74.487 -1.4855
1.551947 74.616 -1.8262
1.563193 74.745 -2.1677
1.574521 74.874 -2.5102
1.585931 75.003 -2.8538
1.597423 75.132 -3.1989
1.608998 75.260 -3.5456
1.620658 75.389 -3.8942
1.632402 75.517 -4.2449
1.644231 75.645 -4.5980
1.656146 75.773 -4.9537
1.668147 75.901 -5.3124
1.680235 76.029 -5.6742
1.692410 76.157 -6.0394
1.704674 76.284 -6.4084
1.717027 76.412 -6.7813
1.729469 76.539 -7.1585
1.742002 76.667 -7.5403
1.754625 76.794 -7.9269
1.767340 76.921 -8.3187
1.780147 77.049 -8.7159
1.793046 77.176 -9.1189
1.806040 77.303 -9.5279
1.819127 77.430 -9.9430
1.832309 77.557 -10.3641
1.845587 77.684 -10.7904
1.858961 77.811 -11.2213
1.872431 77.937 -11.6561
1.886000 78.062 -12.0944
1.899666 78.187 -12.5360
1.913432 78.312 -12.9805
1.927298 78.436 -13.4277
1.941264 78.560 -13.8775
1.955331 78.683 -14.3296
1.969500 78.806 -14.7840
1.983772 78.929 -15.2404
1.998147 79.051 -15.6988
2.012626 79.173 -16.1591
2.027211 79.294 -16.6213
2.041901 79.415 -17.0853
2.056697 79.536 -17.5510
2.071601 79.656 -18.0186
2.086613 79.776 -18.4880
2.101733 79.896 -18.9593
2.116963 80.015 -19.4326
2.132303 80.134 -19.9079
2.147755 80.253 -20.3855
2.163318 80.371 -20.8655
2.178995 80.489 -21.3483
2.194785 80.607 -21.8344
2.210689 80.725 -22.3245
2.226709 80.842 -22.8192
2.242844 80.958 -23.3187
2.259097 81.073 -23.8226
2.275467 81.188 -24.3306
2.291956 81.302 -24.8420
2.308565 81.415 -25.3565
2.325294 81.528 -25.8735
2.342144 81.640 -26.3927
2.359116 81.751 -26.9136
2.376211 81.861 -27.4359
2.393430 81.971 -27.9591
2.410774 82.081 -28.4831
2.428243 82.189 -29.0075
2.445839 82.298 -29.5319
2.463562 82.405 -30.0563
2.481415 82.513 -30.5803
2.499396 82.619 -31.1038
2.517508 82.726 -31.6267
2.535750 82.831 -32.1492
2.554126 82.937 -32.6719
2.572634 83.041 -33.1960
2.591276 83.145 -33.7235
2.610054 83.248 -34.2552
2.628967 83.350 -34.7913
2.648018 83.452 -35.3312
2.667206 83.552 -35.8743
2.686534 83.651 -36.4199
2.706002 83.749 -36.9674
2.725610 83.847 -37.5161
2.745361 83.944 -38.0652
2.765255 84.039 -38.6142
2.785294 84.135 -39.1624
2.805477 84.229 -39.7092
2.825807 84.323 -40.2539
2.846284 84.416 -40.7960
2.866909 84.509 -41.3351
2.887684 84.601 -41.8707
2.908609 84.693 -42.4029
2.929686 84.784 -42.9326
2.950916 84.874 -43.4620
2.972299 84.964 -43.9930
2.993838 85.052 -44.5264
3.015532 85.139 -45.0620
3.037384 85.225 -45.5992
3.059394 85.310 -46.1373
3.081564 85.395 -46.6756
3.103894 85.478 -47.2133
3.126386 85.561 -47.7495
3.149041 85.643 -48.2835
3.171861 85.724 -48.8145
3.194845 85.805 -49.3416
3.217996 85.885 -49.8640
3.241315 85.965 -50.3811
3.264803 86.044 -50.8924
3.288461 86.123 -51.3981
3.312291 86.202 -51.8994
3.336293 86.279 -52.3984
3.360469 86.356 -52.8960
3.384820 86.432 -53.3926
3.409348 86.507 -53.8878
3.434054 86.581 -54.3814
3.458938 86.654 -54.8729
3.484003 86.727 -55.3616
3.509250 86.799 -55.8471
3.534679 86.871 -56.3288
3.560293 86.943 -56.8060
3.586092 87.014 -57.2781
3.612079 87.086 -57.7446
3.638253 87.157 -58.2051
3.664618 87.229 -58.6596
3.691173 87.300 -59.1087
3.717921 87.370 -59.5534
3.744862 87.441 -59.9940
3.771999 87.510 -60.4309
3.799332 87.580 -60.8643
3.826864 87.649 -61.2943
3.854595 87.717 -61.7208
3.882527 87.786 -62.1441
3.910661 87.855 -62.5640
3.938999 87.924 -62.9805
3.967543 87.994 -63.3935
3.996294 88.063 -63.8029
4.025252 88.134 -64.2083
4.054421 88.204 -64.6092
4.083801 88.275 -65.0055
4.113394 88.346 -65.3973
4.143201 88.417 -65.7852
4.173225 88.488 -66.1698
4.203466 88.559 -66.5519
4.233926 88.630 -66.9322
4.264606 88.702 -67.3114
4.295509 88.775 -67.6903
4.326636 88.847 -68.0695
4.357989 88.920 -68.4493
4.389569 88.994 -68.8297
4.421378 89.068 -69.2099
4.453417 89.143 -69.5889
4.485688 89.219 -69.9666
4.518193 89.294 -70.3433
4.550934 89.370 -70.7199
4.583912 89.447 -71.0972
4.617129 89.524 -71.4760
4.650587 89.601 -71.8574
4.684287 89.678 -72.2421
4.718231 89.756 -72.6310
4.752421 89.833 -73.0244
4.786859 89.911 -73.4220
4.821547 89.989 -73.8230
4.856485 90.068 -74.2270
4.891677 90.146 -74.6340
4.927125 90.225 -75.0442
4.962829 90.304 -75.4578
4.998791 90.382 -75.8751
5.035015 90.461 -76.2967
5.071500 90.539 -76.7228
5.108251 90.616 -77.1542
5.145267 90.693 -77.5911
5.182552 90.770 -78.0340
5.220107 90.846 -78.4826
5.257934 90.922 -78.9364
5.296035 90.998 -79.3946
5.334412 91.073 -79.8565
5.373067 91.147 -80.3214
5.412003 91.220 -80.7887
5.451221 91.292 -81.2583
5.490722 91.364 -81.7305
5.530510 91.434 -82.2064
5.570587 91.503 -82.6872
5.610953 91.571 -83.1724
5.651613 91.638 -83.6610
5.692567 91.704 -84.1515
5.733818 91.769 -84.6423
5.775367 91.833 -85.1320
5.817218 91.896 -85.6197
5.859372 91.958 -86.1052
5.901831 92.018 -86.5899
5.944598 92.077 -87.0751
5.987675 92.134 -87.5608
6.031065 92.191 -88.0458
6.074768 92.246 -88.5287
6.118788 92.300 -89.0076
6.163127 92.353 -89.4812
6.207788 92.406 -89.9485
6.252772 92.457 -90.4097
6.298082 92.508 -90.8660
6.343721 92.557 -91.3179
6.389690 92.605 -91.7654
6.435992 92.653 -92.2078
6.482630 92.700 -92.6442
6.529606 92.747 -93.0737
6.576922 92.793 -93.4955
6.624581 92.840 -93.9093
6.672585 92.886 -94.3155
6.720938 92.931 -94.7147
6.769640 92.977 -95.1074
6.818696 93.022 -95.4943
6.868107 93.068 -95.8759
6.917876 93.114 -96.2523
6.968006 93.161 -96.6234
7.018499 93.208 -96.9883
7.069358 93.256 -97.3472
7.120586 93.304 -97.7011
7.172184 93.353 -98.0515
7.224157 93.402 -98.3998
7.276506 93.452 -98.7476
7.329235 93.503 -99.0951
7.382345 93.555 -99.4419
7.435841 93.607 -99.7874
7.489724 93.661 -100.1324
7.543997 93.715 -100.4784
7.598664 93.769 -100.8270
7.653728 93.824 -101.1797
7.709189 93.880 -101.5370
7.765053 93.936 -101.8987
7.821322 93.993 -102.2642
7.877998 94.050 -102.6339
7.935086 94.107 -103.0084
7.992587 94.164 -103.3885
8.050504 94.221 -103.7748
8.108841 94.278 -104.1678
8.167601 94.334 -104.5671
8.226787 94.391 -104.9724
8.286402 94.447 -105.3830
8.346449 94.502 -105.7983
8.406931 94.557 -106.2183
8.467851 94.611 -106.6433
8.529212 94.664 -107.0735
8.591018 94.716 -107.5084
8.653272 94.768 -107.9467
8.715977 94.818 -108.3873
8.779137 94.868 -108.8293
8.842754 94.916 -109.2727
8.906833 94.964 -109.7181
8.971375 95.010 -110.1649
9.036386 95.056 -110.6121
9.101867 95.100 -111.0584
9.167823 95.144 -111.5031
9.234257 95.187 -111.9466
9.301172 95.229 -112.3888
9.368572 95.270 -112.8298
9.436460 95.311 -113.2688
9.504841 95.351 -113.7055
9.573717 95.391 -114.1396
9.643092 95.430 -114.5713
9.712970 95.468 -115.0010
9.783354 95.507 -115.4288
9.854248 95.545 -115.8548
9.925656 95.582 -116.2790
9.997581 95.620 -116.7016
10.070028 95.657 -117.1228
10.143000 95.694 -117.5430
10.216500 95.731 -117.9625
10.290533 95.768 -118.3817
10.365103 95.804 -118.8005
10.440212 95.840 -119.2190
10.515866 95.876 -119.6374
10.592069 95.912 -120.0558
10.668823 95.947 -120.4743
10.746134 95.982 -120.8929
10.824005 96.016 -121.3116
10.902440 96.050 -121.7298
10.981443 96.084 -122.1475
11.061020 96.117 -122.5646
11.141172 96.150 -122.9811
11.221906 96.182 -123.3965
11.303225 96.213 -123.8104
11.385133 96.245 -124.2224
11.467634 96.275 -124.6326
11.550734 96.306 -125.0408
11.634435 96.336 -125.4468
11.718742 96.365 -125.8502
11.803661 96.395 -126.2511
11.889195 96.424 -126.6495
11.975349 96.453 -127.0456
12.062128 96.482 -127.4395
12.149535 96.511 -127.8313
12.237576 96.540 -128.2210
12.326254 96.569 -128.6091
12.415575 96.598 -128.9961
12.505544 96.627 -129.3821
12.596164 96.656 -129.7673
12.687441 96.684 -130.1520
12.779379 96.713 -130.5365
12.871984 96.742 -130.9211
12.965260 96.771 -131.3059
13.059211 96.799 -131.6909
13.153843 96.827 -132.0760
13.249161 96.855 -132.4613
13.345170 96.883 -132.8467
13.441875 96.910 -133.2320
13.539280 96.937 -133.6168
13.637391 96.963 -134.0010
13.736214 96.989 -134.3844
13.835752 97.015 -134.7667
13.936011 97.040 -135.1475
14.036998 97.065 -135.5267
14.138716 97.089 -135.9043
14.241171 97.114 -136.2801
14.344368 97.138 -136.6541
14.448313 97.161 -137.0263
14.553011 97.185 -137.3970
14.658468 97.208 -137.7663
14.764689 97.231 -138.1344
14.871680 97.254 -138.5015
14.979446 97.277 -138.8681
15.087994 97.300 -139.2342
15.197328 97.322 -139.6001
15.307454 97.344 -139.9659
15.418378 97.366 -140.3317
15.530106 97.387 -140.6975
15.642643 97.408 -141.0631
15.755996 97.429 -141.4284
15.870171 97.449 -141.7931
15.985172 97.468 -142.1570
16.101007 97.487 -142.5198
16.217682 97.506 -142.8811
16.335201 97.524 -143.2409
16.453573 97.541 -143.5988
16.572803 97.558 -143.9548
16.692898 97.575 -144.3090
16.813862 97.592 -144.6615
16.935701 97.608 -145.0126
17.058424 97.625 -145.3626
17.182035 97.641 -145.7120
17.306543 97.657 -146.0612
17.431953 97.673 -146.4106
17.558273 97.688 -146.7607
17.685509 97.704 -147.1117
17.813665 97.719 -147.4638
17.942751 97.733 -147.8170
18.072771 97.747 -148.1712
18.203733 97.761 -148.5261
18.335646 97.774 -148.8813
18.468513 97.787 -149.2364
18.602345 97.799 -149.5910
18.737144 97.810 -149.9445
18.872921 97.821 -150.2967
19.009682 97.832 -150.6475
19.147434 97.842 -150.9967
19.286184 97.852 -151.3447
19.425940 97.862 -151.6917
19.566708 97.872 -152.0383
19.708496 97.882 -152.3849
19.851313 97.892 -152.7322
19.995163 97.901 -153.0805
20.140057 97.911 -153.4301
20.285999 97.920 -153.7810
20.433001 97.929 -154.1331
20.581066 97.937 -154.4859
20.730206 97.944 -154.8387
20.880424 97.951 -155.1907
21.031733 97.958 -155.5410
21.184137 97.964 -155.8888
21.337646 97.969 -156.2334
21.492268 97.975 -156.5745
21.648010 97.980 -156.9121
21.804880 97.986 -157.2464
21.962887 97.991 -157.5780
22.122040 97.997 -157.9079
22.282345 98.004 -158.2370
22.443811 98.010 -158.5664
22.606449 98.017 -158.8968
22.770266 98.024 -159.2288
22.935268 98.031 -159.5628
23.101467 98.037 -159.8983
23.268869 98.043 -160.2351
23.437485 98.049 -160.5722
23.607323 98.054 -160.9087
23.778391 98.058 -161.2435
23.950699 98.062 -161.5758
24.124256 98.065 -161.9051
24.299070 98.069 -162.2311
24.475151 98.072 -162.5540
24.652508 98.075 -162.8743
24.831150 98.078 -163.1928
25.011087 98.081 -163.5105
25.192327 98.085 -163.8282
25.374882 98.088 -164.1465
25.558758 98.091 -164.4658
25.743967 98.093 -164.7859
25.930519 98.095 -165.1066
26.118422 98.096 -165.4268
26.307686 98.096 -165.7457
26.498322 98.096 -166.0624
26.690340 98.095 -166.3762
26.883749 98.094 -166.6866
27.078560 98.093 -166.9939
27.274782 98.091 -167.2986
27.472427 98.090 -167.6017
27.671503 98.088 -167.9043
27.872023 98.087 -168.2077
28.073996 98.085 -168.5126
28.277431 98.083 -168.8193
28.482342 98.081 -169.1275
28.688736 98.077 -169.4362
28.896626 98.073 -169.7440
29.106022 98.069 -170.0491
29.316936 98.063 -170.3503
29.529379 98.058 -170.6465
29.743361 98.052 -170.9381
29.958893 98.047 -171.2259
30.175987 98.043 -171.5119
30.394655 98.039 -171.7984
30.614908 98.036 -172.0879
30.836756 98.033 -172.3820
31.060211 98.030 -172.6815
31.285286 98.027 -172.9859
31.511992 98.022 -173.2937
31.740341 98.017 -173.6025
31.970345 98.011 -173.9094
32.202015 98.003 -174.2124
32.435364 97.995 -174.5097
32.670403 97.988 -174.8012
32.907146 97.980 -175.0876
33.145607 97.973 -175.3707
33.385796 97.966 -175.6528
33.627724 97.960 -175.9360
33.871403 97.954 -176.2220
34.116848 97.947 -176.5118
34.364071 97.941 -176.8053
34.613087 97.933 -177.1013
34.863907 97.925 -177.3979
35.116547 97.915 -177.6931
35.371017 97.905 -177.9846
35.627331 97.893 -178.2711
35.885502 97.882 -178.5526
36.145542 97.871 -178.8303
36.407467 97.860 -179.1066
36.671291 97.850 -179.3843
36.937027 97.839 -179.6654
37.204689 97.828 -179.9506
37.474289 97.816 179.7617
37.745842 97.803 179.4742
38.019363 97.789 179.1906
38.294868 97.775 178.9127
38.572369 97.760 178.6406
38.851879 97.746 178.3713
39.133415 97.732 178.1010
39.416992 97.719 177.8263
39.702625 97.705 177.5471
39.990326 97.689 177.2672
40.280113 97.672 176.9930
40.571999 97.653 176.7313
40.866001 97.635 176.4849
41.162132 97.618 176.2511
41.460411 97.604 176.0220
41.760849 97.591 175.7876
42.063465 97.580 175.5399
42.368275 97.569 175.2776
42.675293 97.555 175.0067
42.984535 97.538 174.7372
43.296021 97.519 174.4789
43.609760 97.500 174.2358
43.925774 97.482 174.0051
44.244080 97.466 173.7773
44.564690 97.451 173.5423
44.887623 97.437 173.2940
45.212898 97.421 173.0328
45.540531 97.402 172.7652
45.870537 97.381 172.5004
46.202934 97.358 172.2467
46.537739 97.333 172.0089
46.874969 97.309 171.7874
47.214645 97.286 171.5789
47.556782 97.266 171.3781
47.901398 97.247 171.1785
48.248512 97.231 170.9733
48.598141 97.216 170.7560
48.950302 97.202 170.5220
49.305016 97.187 170.2701
49.662300 97.170 170.0045
50.022175 97.149 169.7350
50.384655 97.125 169.4751
50.749763 97.098 169.2379
51.117516 97.071 169.0297
51.487934 97.046 168.8455
51.861038 97.025 168.6685
52.236843 97.008 168.4773
52.615372 96.991 168.2575
52.996643 96.971 168.0119
53.380680 96.945 167.7607
53.767498 96.913 167.5310
54.157120 96.879 167.3408
54.549564 96.847 167.1882
54.944855 96.820 167.0546
55.343006 96.797 166.9186
55.744045 96.777 166.7697
56.147991 96.758 166.6095
56.554863 96.741 166.4421
56.964684 96.727 166.2613
57.377472 96.715 166.0520
57.793251 96.703 165.8029
58.212044 96.687 165.5201
58.633873 96.664 165.2278
59.058758 96.636 164.9532
59.486721 96.605 164.7110
59.917786 96.575 164.4973
60.351974 96.547 164.2990
60.789310 96.520 164.1065
61.229816 96.493 163.9194
61.673512 96.466 163.7408
62.120422 96.441 163.5692
62.570572 96.416 163.3961
63.023983 96.392 163.2122
63.480682 96.367 163.0161
63.940689 96.339 162.8169
64.404030 96.309 162.6249
64.870728 96.279 162.4381
65.340805 96.250 162.2396
65.814293 96.218 162.0161
66.291214 96.180 161.7838
66.771591 96.134 161.5900
67.255447 96.086 161.4760
67.742805 96.047 161.4300
68.233696 96.022 161.3827
68.728142 96.006 161.2627
69.226173 95.987 161.0589
69.727814 95.958 160.8236
70.233093 95.920 160.6179
70.742035 95.880 160.4602
71.254662 95.844 160.3268
71.771004 95.811 160.1877
72.291084 95.778 160.0306
72.814934 95.744 159.8569
73.342583 95.707 159.6742
73.874054 95.668 159.4962
74.409378 95.627 159.3354
74.948578 95.588 159.1869
75.491684 95.550 159.0328
76.038727 95.509 158.8718
76.589737 95.465 158.7291
77.144737 95.418 158.6234
77.703758 95.372 158.5424
78.266830 95.325 158.4725
78.833984 95.273 158.4341
79.405251 95.219 158.4549
79.980652 95.171 158.5134
80.560226 95.129 158.5499
81.143997 95.087 158.5342
81.732002 95.039 158.4867
82.324265 94.985 158.4334
82.920822 94.927 158.3938
83.521698 94.865 158.4165
84.126930 94.808 158.5612
84.736549 94.774 158.8199
85.350586 94.772 159.1024
85.969070 94.800 159.3080
86.592041 94.848 159.3795
87.219521 94.902 159.2978
87.851547 94.952 159.0892
88.488159 94.987 158.8221
89.129379 95.011 158.5475
89.775246 95.026 158.2612
90.425797 95.027 157.9531
91.081062 95.014 157.6483
91.741074 94.991 157.3681
92.405869 94.962 157.1012
93.075478 94.927 156.8401
93.749939 94.888 156.5987
