* Measurement data measured by REW V5.30 beta 5
* Source: EXCL: Microphone (Realtek(R) Audio), MICROPHONE (Master Volume), L, volume: 0.250
* Format: 256k Log Swept Sine, 1 sweep at -13.0 dBFS with no timing reference
* Dated: Dec 14, 2023 12:47:01 PM
* REW Settings:
*  C-weighting compensation: Off
*  Target level: 75.0 dB
* Note: 
* Measurement: L LM DIY
* Smoothing: 1/24 octave
* Frequency Step: 96 ppo
* Start Frequency: 0.36621094 Hz
*
* Freq(Hz) SPL(dB) Phase(degrees)
0.366211 51.647 34.7825
0.368865 51.688 34.7310
0.371538 51.746 34.6579
0.374230 51.812 34.5768
0.376942 51.881 34.4941
0.379673 51.951 34.4118
0.382424 52.021 34.3307
0.385196 52.093 34.2508
0.387987 52.165 34.1724
0.390798 52.237 34.0952
0.393630 52.310 34.0193
0.396483 52.383 33.9446
0.399356 52.457 33.8712
0.402250 52.532 33.7988
0.405165 52.607 33.7276
0.408101 52.682 33.6574
0.411058 52.758 33.5883
0.414037 52.835 33.5201
0.417037 52.912 33.4527
0.420059 52.990 33.3863
0.423103 53.068 33.3206
0.426169 53.147 33.2556
0.429257 53.227 33.1913
0.432367 53.307 33.1276
0.435501 53.387 33.0645
0.438656 53.469 33.0018
0.441835 53.550 32.9395
0.445037 53.633 32.8776
0.448262 53.716 32.8160
0.451510 53.799 32.7546
0.454782 53.884 32.6933
0.458077 53.969 32.6321
0.461397 54.054 32.5709
0.464740 54.140 32.5096
0.468108 54.227 32.4482
0.471500 54.314 32.3866
0.474917 54.402 32.3246
0.478358 54.491 32.2623
0.481825 54.580 32.1996
0.485316 54.670 32.1363
0.488833 54.760 32.0724
0.492375 54.851 32.0079
0.495943 54.943 31.9426
0.499537 55.036 31.8765
0.503157 55.129 31.8094
0.506803 55.223 31.7414
0.510475 55.317 31.6723
0.514174 55.412 31.6021
0.517900 55.508 31.5306
0.521653 55.605 31.4578
0.525433 55.702 31.3836
0.529241 55.800 31.3080
0.533076 55.899 31.2308
0.536939 55.998 31.1520
0.540830 56.098 31.0714
0.544749 56.199 30.9891
0.548696 56.301 30.9050
0.552673 56.403 30.8189
0.556677 56.506 30.7307
0.560711 56.610 30.6405
0.564774 56.715 30.5481
0.568867 56.820 30.4534
0.572989 56.926 30.3564
0.577141 57.033 30.2570
0.581324 57.141 30.1552
0.585536 57.249 30.0507
0.589779 57.358 29.9437
0.594053 57.468 29.8339
0.598358 57.579 29.7213
0.602694 57.691 29.6059
0.607061 57.803 29.4876
0.611460 57.917 29.3662
0.615891 58.031 29.2418
0.620354 58.145 29.1143
0.624849 58.261 28.9835
0.629377 58.378 28.8495
0.633938 58.495 28.7121
0.638532 58.613 28.5713
0.643159 58.732 28.4271
0.647819 58.852 28.2792
0.652514 58.973 28.1278
0.657242 59.095 27.9727
0.662005 59.218 27.8139
0.666802 59.341 27.6513
0.671634 59.465 27.4848
0.676501 59.591 27.3144
0.681403 59.717 27.1400
0.686341 59.844 26.9616
0.691314 59.972 26.7791
0.696324 60.101 26.5924
0.701369 60.231 26.4016
0.706452 60.362 26.2065
0.711571 60.493 26.0071
0.716727 60.626 25.8035
0.721921 60.759 25.5957
0.727153 60.891 25.3842
0.732422 61.020 25.1701
0.737729 61.143 24.9557
0.743075 61.264 24.7429
0.748460 61.383 24.5328
0.753883 61.502 24.3257
0.759346 61.621 24.1216
0.764849 61.741 23.9203
0.770391 61.860 23.7218
0.775974 61.979 23.5257
0.781597 62.099 23.3319
0.787261 62.219 23.1402
0.792965 62.339 22.9504
0.798712 62.459 22.7624
0.804499 62.579 22.5759
0.810329 62.700 22.3908
0.816201 62.821 22.2068
0.822116 62.941 22.0237
0.828073 63.062 21.8414
0.834073 63.183 21.6597
0.840118 63.305 21.4784
0.846205 63.426 21.2973
0.852337 63.548 21.1161
0.858514 63.670 20.9348
0.864735 63.792 20.7531
0.871001 63.914 20.5708
0.877313 64.036 20.3877
0.883670 64.159 20.2037
0.890074 64.282 20.0186
0.896523 64.405 19.8322
0.903020 64.528 19.6443
0.909564 64.651 19.4547
0.916155 64.775 19.2633
0.922793 64.899 19.0698
0.929480 65.023 18.8741
0.936216 65.147 18.6760
0.943000 65.272 18.4754
0.949833 65.396 18.2721
0.956716 65.522 18.0658
0.963649 65.647 17.8564
0.970632 65.772 17.6438
0.977666 65.898 17.4278
0.984750 66.024 17.2081
0.991886 66.151 16.9847
0.999074 66.277 16.7574
1.006313 66.405 16.5259
1.013605 66.532 16.2902
1.020950 66.660 16.0501
1.028349 66.788 15.8053
1.035801 66.916 15.5558
1.043306 67.045 15.3013
1.050867 67.174 15.0417
1.058482 67.304 14.7769
1.066152 67.434 14.5066
1.073878 67.565 14.2308
1.081659 67.696 13.9494
1.089498 67.827 13.6627
1.097393 67.959 13.3715
1.105345 68.091 13.0773
1.113355 68.224 12.7821
1.121422 68.356 12.4871
1.129549 68.488 12.1925
1.137734 68.620 11.8985
1.145978 68.753 11.6050
1.154283 68.885 11.3120
1.162647 69.017 11.0194
1.171072 69.149 10.7270
1.179558 69.281 10.4347
1.188106 69.413 10.1425
1.196715 69.545 9.8502
1.205387 69.677 9.5577
1.214122 69.809 9.2648
1.222920 69.941 8.9714
1.231781 70.072 8.6775
1.240708 70.204 8.3828
1.249698 70.336 8.0872
1.258754 70.468 7.7906
1.267875 70.600 7.4928
1.277063 70.732 7.1937
1.286317 70.864 6.8931
1.295638 70.996 6.5909
1.305027 71.127 6.2869
1.314484 71.259 5.9810
1.324009 71.391 5.6730
1.333603 71.524 5.3627
1.343267 71.656 5.0499
1.353001 71.788 4.7345
1.362805 71.920 4.4164
1.372681 72.053 4.0952
1.382628 72.186 3.7710
1.392647 72.318 3.4434
1.402739 72.451 3.1123
1.412904 72.584 2.7775
1.423142 72.718 2.4388
1.433455 72.851 2.0960
1.443842 72.985 1.7492
1.454305 73.119 1.3984
1.464843 73.253 1.0443
1.475458 73.387 0.6881
1.486150 73.521 0.3313
1.496919 73.655 -0.0256
1.507766 73.788 -0.3822
1.518692 73.921 -0.7388
1.529697 74.054 -1.0953
1.540782 74.187 -1.4520
1.551947 74.319 -1.8090
1.563193 74.451 -2.1665
1.574521 74.582 -2.5247
1.585931 74.714 -2.8838
1.597423 74.845 -3.2440
1.608998 74.976 -3.6055
1.620658 75.106 -3.9685
1.632402 75.237 -4.3333
1.644231 75.367 -4.7000
1.656146 75.497 -5.0689
1.668147 75.627 -5.4403
1.680235 75.756 -5.8143
1.692410 75.886 -6.1913
1.704674 76.015 -6.5714
1.717027 76.144 -6.9550
1.729469 76.273 -7.3423
1.742002 76.402 -7.7336
1.754625 76.531 -8.1292
1.767340 76.659 -8.5293
1.780147 76.788 -8.9343
1.793046 76.917 -9.3444
1.806040 77.045 -9.7599
1.819127 77.174 -10.1808
1.832309 77.302 -10.6073
1.845587 77.430 -11.0386
1.858961 77.558 -11.4744
1.872431 77.685 -11.9139
1.886000 77.812 -12.3569
1.899666 77.938 -12.8030
1.913432 78.063 -13.2519
1.927298 78.188 -13.7034
1.941264 78.313 -14.1572
1.955331 78.437 -14.6131
1.969500 78.560 -15.0710
1.983772 78.683 -15.5306
1.998147 78.806 -15.9919
2.012626 78.928 -16.4547
2.027211 79.049 -16.9189
2.041901 79.170 -17.3844
2.056697 79.291 -17.8513
2.071601 79.411 -18.3194
2.086613 79.531 -18.7888
2.101733 79.651 -19.2595
2.116963 79.770 -19.7315
2.132303 79.889 -20.2049
2.147755 80.008 -20.6799
2.163318 80.127 -21.1565
2.178995 80.245 -21.6350
2.194785 80.363 -22.1161
2.210689 80.480 -22.6006
2.226709 80.597 -23.0892
2.242844 80.713 -23.5821
2.259097 80.829 -24.0789
2.275467 80.943 -24.5794
2.291956 81.057 -25.0830
2.308565 81.170 -25.5894
2.325294 81.282 -26.0979
2.342144 81.394 -26.6082
2.359116 81.505 -27.1199
2.376211 81.615 -27.6327
2.393430 81.724 -28.1460
2.410774 81.833 -28.6598
2.428243 81.942 -29.1735
2.445839 82.050 -29.6870
2.463562 82.157 -30.1999
2.481415 82.264 -30.7120
2.499396 82.370 -31.2232
2.517508 82.477 -31.7334
2.535750 82.582 -32.2425
2.554126 82.687 -32.7511
2.572634 82.792 -33.2605
2.591276 82.896 -33.7724
2.610054 82.999 -34.2878
2.628967 83.101 -34.8066
2.648018 83.202 -35.3285
2.667206 83.302 -35.8531
2.686534 83.402 -36.3797
2.706002 83.500 -36.9076
2.725610 83.598 -37.4364
2.745361 83.695 -37.9654
2.765255 83.791 -38.4941
2.785294 83.887 -39.0219
2.805477 83.981 -39.5482
2.825807 84.076 -40.0725
2.846284 84.170 -40.5943
2.866909 84.263 -41.1131
2.887684 84.356 -41.6287
2.908609 84.449 -42.1409
2.929686 84.541 -42.6506
2.950916 84.632 -43.1596
2.972299 84.723 -43.6693
2.993838 84.812 -44.1807
3.015532 84.901 -44.6934
3.037384 84.989 -45.2073
3.059394 85.076 -45.7216
3.081564 85.162 -46.2359
3.103894 85.247 -46.7495
3.126386 85.332 -47.2618
3.149041 85.416 -47.7723
3.171861 85.499 -48.2803
3.194845 85.582 -48.7851
3.217996 85.665 -49.2863
3.241315 85.747 -49.7831
3.264803 85.830 -50.2753
3.288461 85.912 -50.7631
3.312291 85.993 -51.2472
3.336293 86.074 -51.7293
3.360469 86.154 -52.2100
3.384820 86.233 -52.6897
3.409348 86.312 -53.1682
3.434054 86.390 -53.6454
3.458938 86.467 -54.1209
3.484003 86.544 -54.5945
3.509250 86.621 -55.0658
3.534679 86.697 -55.5344
3.560293 86.773 -56.0001
3.586092 86.849 -56.4624
3.612079 86.925 -56.9210
3.638253 87.001 -57.3757
3.664618 87.076 -57.8266
3.691173 87.152 -58.2740
3.717921 87.227 -58.7185
3.744862 87.302 -59.1605
3.771999 87.377 -59.6002
3.799332 87.451 -60.0378
3.826864 87.525 -60.4734
3.854595 87.598 -60.9069
3.882527 87.672 -61.3385
3.910661 87.746 -61.7683
3.938999 87.819 -62.1962
3.967543 87.893 -62.6223
3.996294 87.967 -63.0465
4.025252 88.040 -63.4687
4.054421 88.115 -63.8888
4.083801 88.189 -64.3068
4.113394 88.263 -64.7227
4.143201 88.337 -65.1368
4.173225 88.410 -65.5495
4.203466 88.484 -65.9610
4.233926 88.558 -66.3717
4.264606 88.632 -66.7819
4.295509 88.706 -67.1920
4.326636 88.780 -67.6024
4.357989 88.854 -68.0131
4.389569 88.928 -68.4245
4.421378 89.002 -68.8362
4.453417 89.076 -69.2481
4.485688 89.151 -69.6600
4.518193 89.225 -70.0721
4.550934 89.299 -70.4844
4.583912 89.374 -70.8972
4.617129 89.448 -71.3107
4.650587 89.522 -71.7250
4.684287 89.595 -72.1404
4.718231 89.669 -72.5571
4.752421 89.743 -72.9755
4.786859 89.816 -73.3956
4.821547 89.889 -73.8176
4.856485 89.962 -74.2413
4.891677 90.035 -74.6666
4.927125 90.107 -75.0932
4.962829 90.180 -75.5210
4.998791 90.252 -75.9498
5.035015 90.323 -76.3792
5.071500 90.394 -76.8094
5.108251 90.465 -77.2403
5.145267 90.535 -77.6724
5.182552 90.605 -78.1063
5.220107 90.675 -78.5420
5.257934 90.743 -78.9794
5.296035 90.812 -79.4179
5.334412 90.880 -79.8570
5.373067 90.947 -80.2962
5.412003 91.014 -80.7349
5.451221 91.081 -81.1728
5.490722 91.147 -81.6099
5.530510 91.212 -82.0467
5.570587 91.277 -82.4840
5.610953 91.341 -82.9217
5.651613 91.405 -83.3596
5.692567 91.468 -83.7972
5.733818 91.531 -84.2339
5.775367 91.593 -84.6691
5.817218 91.655 -85.1024
5.859372 91.716 -85.5337
5.901831 91.778 -85.9634
5.944598 91.838 -86.3918
5.987675 91.898 -86.8192
6.031065 91.958 -87.2456
6.074768 92.017 -87.6708
6.118788 92.076 -88.0945
6.163127 92.135 -88.5166
6.207788 92.194 -88.9369
6.252772 92.252 -89.3553
6.298082 92.310 -89.7720
6.343721 92.368 -90.1873
6.389690 92.426 -90.6014
6.435992 92.484 -91.0145
6.482630 92.541 -91.4268
6.529606 92.598 -91.8384
6.576922 92.655 -92.2493
6.624581 92.712 -92.6597
6.672585 92.769 -93.0694
6.720938 92.826 -93.4787
6.769640 92.883 -93.8876
6.818696 92.940 -94.2965
6.868107 92.996 -94.7056
6.917876 93.053 -95.1153
6.968006 93.109 -95.5256
7.018499 93.165 -95.9367
7.069358 93.220 -96.3485
7.120586 93.276 -96.7610
7.172184 93.331 -97.1742
7.224157 93.387 -97.5880
7.276506 93.441 -98.0026
7.329235 93.496 -98.4180
7.382345 93.550 -98.8346
7.435841 93.603 -99.2523
7.489724 93.657 -99.6711
7.543997 93.710 -100.0904
7.598664 93.762 -100.5100
7.653728 93.814 -100.9296
7.709189 93.866 -101.3493
7.765053 93.917 -101.7693
7.821322 93.967 -102.1898
7.877998 94.017 -102.6104
7.935086 94.067 -103.0307
7.992587 94.116 -103.4501
8.050504 94.165 -103.8684
8.108841 94.213 -104.2858
8.167601 94.261 -104.7024
8.226787 94.308 -105.1182
8.286402 94.355 -105.5331
8.346449 94.401 -105.9468
8.406931 94.447 -106.3589
8.467851 94.493 -106.7695
8.529212 94.539 -107.1788
8.591018 94.584 -107.5869
8.653272 94.629 -107.9939
8.715977 94.674 -108.3999
8.779137 94.719 -108.8049
8.842754 94.763 -109.2089
8.906833 94.808 -109.6120
8.971375 94.852 -110.0145
9.036386 94.896 -110.4165
9.101867 94.940 -110.8184
9.167823 94.983 -111.2203
9.234257 95.027 -111.6222
9.301172 95.071 -112.0243
9.368572 95.114 -112.4267
9.436460 95.157 -112.8295
9.504841 95.200 -113.2328
9.573717 95.242 -113.6370
9.643092 95.285 -114.0419
9.712970 95.327 -114.4476
9.783354 95.369 -114.8539
9.854248 95.410 -115.2608
9.925656 95.451 -115.6683
9.997581 95.492 -116.0766
10.070028 95.532 -116.4855
10.143000 95.572 -116.8947
10.216500 95.612 -117.3040
10.290533 95.651 -117.7134
10.365103 95.690 -118.1230
10.440212 95.728 -118.5325
10.515866 95.766 -118.9419
10.592069 95.803 -119.3508
10.668823 95.840 -119.7592
10.746134 95.877 -120.1671
10.824005 95.913 -120.5745
10.902440 95.949 -120.9813
10.981443 95.984 -121.3873
11.061020 96.019 -121.7925
11.141172 96.054 -122.1971
11.221906 96.089 -122.6010
11.303225 96.123 -123.0041
11.385133 96.157 -123.4065
11.467634 96.190 -123.8083
11.550734 96.224 -124.2094
11.634435 96.257 -124.6099
11.718742 96.289 -125.0097
11.803661 96.322 -125.4090
11.889195 96.354 -125.8078
11.975349 96.386 -126.2060
12.062128 96.417 -126.6038
12.149535 96.448 -127.0010
12.237576 96.479 -127.3977
12.326254 96.510 -127.7939
12.415575 96.540 -128.1897
12.505544 96.570 -128.5850
12.596164 96.600 -128.9798
12.687441 96.629 -129.3742
12.779379 96.658 -129.7681
12.871984 96.687 -130.1615
12.965260 96.716 -130.5545
13.059211 96.744 -130.9469
13.153843 96.771 -131.3387
13.249161 96.799 -131.7299
13.345170 96.826 -132.1206
13.441875 96.853 -132.5105
13.539280 96.879 -132.8996
13.637391 96.905 -133.2878
13.736214 96.931 -133.6752
13.835752 96.956 -134.0616
13.936011 96.982 -134.4470
14.036998 97.006 -134.8313
14.138716 97.031 -135.2145
14.241171 97.055 -135.5968
14.344368 97.079 -135.9781
14.448313 97.103 -136.3585
14.553011 97.126 -136.7382
14.658468 97.150 -137.1173
14.764689 97.173 -137.4961
14.871680 97.196 -137.8745
14.979446 97.219 -138.2529
15.087994 97.241 -138.6313
15.197328 97.263 -139.0099
15.307454 97.285 -139.3886
15.418378 97.306 -139.7673
15.530106 97.327 -140.1461
15.642643 97.348 -140.5247
15.755996 97.368 -140.9027
15.870171 97.387 -141.2801
15.985172 97.406 -141.6564
16.101007 97.425 -142.0313
16.217682 97.443 -142.4044
16.335201 97.461 -142.7757
16.453573 97.478 -143.1449
16.572803 97.495 -143.5119
16.692898 97.512 -143.8769
16.813862 97.529 -144.2402
16.935701 97.546 -144.6020
17.058424 97.563 -144.9628
17.182035 97.580 -145.3232
17.306543 97.596 -145.6836
17.431953 97.613 -146.0446
17.558273 97.630 -146.4066
17.685509 97.646 -146.7701
17.813665 97.663 -147.1350
17.942751 97.678 -147.5014
18.072771 97.694 -147.8692
18.203733 97.709 -148.2380
18.335646 97.723 -148.6070
18.468513 97.736 -148.9760
18.602345 97.749 -149.3441
18.737144 97.761 -149.7106
18.872921 97.773 -150.0751
19.009682 97.784 -150.4372
19.147434 97.795 -150.7966
19.286184 97.806 -151.1531
19.425940 97.816 -151.5071
19.566708 97.827 -151.8587
19.708496 97.837 -152.2084
19.851313 97.847 -152.5567
19.995163 97.857 -152.9041
20.140057 97.868 -153.2508
20.285999 97.878 -153.5972
20.433001 97.888 -153.9435
20.581066 97.897 -154.2896
20.730206 97.907 -154.6355
20.880424 97.916 -154.9808
21.031733 97.925 -155.3255
21.184137 97.934 -155.6694
21.337646 97.942 -156.0122
21.492268 97.950 -156.3541
21.648010 97.959 -156.6953
21.804880 97.967 -157.0359
21.962887 97.974 -157.3763
22.122040 97.982 -157.7169
22.282345 97.990 -158.0579
22.443811 97.997 -158.3995
22.606449 98.004 -158.7416
22.770266 98.010 -159.0840
22.935268 98.016 -159.4262
23.101467 98.021 -159.7676
23.268869 98.025 -160.1074
23.437485 98.029 -160.4451
23.607323 98.033 -160.7799
23.778391 98.036 -161.1117
23.950699 98.039 -161.4402
24.124256 98.042 -161.7658
24.299070 98.044 -162.0889
24.475151 98.047 -162.4102
24.652508 98.050 -162.7304
24.831150 98.052 -163.0502
25.011087 98.055 -163.3700
25.192327 98.057 -163.6902
25.374882 98.059 -164.0107
25.558758 98.061 -164.3312
25.743967 98.062 -164.6513
25.930519 98.063 -164.9706
26.118422 98.064 -165.2887
26.307686 98.064 -165.6055
26.498322 98.064 -165.9212
26.690340 98.064 -166.2364
26.883749 98.064 -166.5517
27.078560 98.064 -166.8677
27.274782 98.063 -167.1850
27.472427 98.062 -167.5037
27.671503 98.061 -167.8234
27.872023 98.059 -168.1431
28.073996 98.056 -168.4617
28.277431 98.052 -168.7777
28.482342 98.048 -169.0899
28.688736 98.043 -169.3977
28.896626 98.039 -169.7010
29.106022 98.034 -170.0008
29.316936 98.031 -170.2985
29.529379 98.027 -170.5959
29.743361 98.024 -170.8949
29.958893 98.022 -171.1967
30.175987 98.019 -171.5018
30.394655 98.015 -171.8094
30.614908 98.011 -172.1183
30.836756 98.006 -172.4265
31.060211 98.001 -172.7322
31.285286 97.995 -173.0341
31.511992 97.990 -173.3319
31.740341 97.984 -173.6261
31.970345 97.979 -173.9183
32.202015 97.974 -174.2103
32.435364 97.970 -174.5041
32.670403 97.966 -174.8007
32.907146 97.961 -175.1007
33.145607 97.956 -175.4034
33.385796 97.950 -175.7077
33.627724 97.944 -176.0120
33.871403 97.936 -176.3146
34.116848 97.928 -176.6142
34.364071 97.920 -176.9103
34.613087 97.911 -177.2027
34.863907 97.902 -177.4919
35.116547 97.893 -177.7788
35.371017 97.883 -178.0646
35.627331 97.874 -178.3505
35.885502 97.864 -178.6374
36.145542 97.854 -178.9256
36.407467 97.843 -179.2148
36.671291 97.832 -179.5037
36.937027 97.819 -179.7907
37.204689 97.805 179.9259
37.474289 97.791 179.6470
37.745842 97.777 179.3723
38.019363 97.763 179.1007
38.294868 97.749 178.8301
38.572369 97.735 178.5588
38.851879 97.721 178.2859
39.133415 97.706 178.0123
39.416992 97.690 177.7396
39.702625 97.674 177.4695
39.990326 97.658 177.2030
40.280113 97.642 176.9391
40.571999 97.627 176.6755
40.866001 97.612 176.4096
41.162132 97.596 176.1403
41.460411 97.580 175.8693
41.760849 97.563 175.6006
42.063465 97.544 175.3396
42.368275 97.526 175.0899
42.675293 97.508 174.8510
42.984535 97.492 174.6175
43.296021 97.479 174.3812
43.609760 97.466 174.1335
43.925774 97.454 173.8702
44.244080 97.439 173.5936
44.564690 97.422 173.3123
44.887623 97.401 173.0373
45.212898 97.379 172.7767
45.540531 97.356 172.5326
45.870537 97.333 172.3003
46.202934 97.312 172.0718
46.537739 97.290 171.8412
46.874969 97.268 171.6080
47.214645 97.245 171.3771
47.556782 97.221 171.1534
47.901398 97.197 170.9360
48.248512 97.175 170.7163
48.598141 97.153 170.4835
48.950302 97.130 170.2336
49.305016 97.102 169.9761
49.662300 97.069 169.7322
50.022175 97.033 169.5241
50.384655 96.998 169.3616
50.749763 96.968 169.2337
51.117516 96.944 169.1149
51.487934 96.926 168.9800
51.861038 96.910 168.8203
52.236843 96.893 168.6465
52.615372 96.874 168.4790
52.996643 96.856 168.3304
53.380680 96.842 168.1945
53.767498 96.834 168.0498
54.157120 96.830 167.8730
54.549564 96.826 167.6526
54.944855 96.819 167.3943
55.343006 96.807 167.1140
55.744045 96.790 166.8288
56.147991 96.769 166.5504
56.554863 96.745 166.2842
56.964684 96.718 166.0320
57.377472 96.691 165.7939
57.793251 96.665 165.5675
58.212044 96.639 165.3481
58.633873 96.614 165.1301
59.058758 96.590 164.9093
59.486721 96.566 164.6838
59.917786 96.542 164.4536
60.351974 96.517 164.2198
60.789310 96.491 163.9868
61.229816 96.462 163.7643
61.673512 96.432 163.5642
62.120422 96.402 163.3920
62.570572 96.375 163.2383
63.023983 96.351 163.0823
63.480682 96.328 162.9075
63.940689 96.301 162.7149
64.404030 96.270 162.5199
64.870728 96.233 162.3367
65.340805 96.192 162.1728
65.814293 96.148 162.0393
66.291214 96.101 161.9585
66.771591 96.058 161.9411
67.255447 96.029 161.9495
67.742805 96.014 161.8989
68.233696 96.005 161.7207
68.728142 95.986 161.4312
69.226173 95.949 161.1260
69.727814 95.902 160.8962
70.233093 95.859 160.7517
70.742035 95.827 160.6289
71.254662 95.802 160.4679
71.771004 95.776 160.2650
72.291084 95.745 160.0551
72.814934 95.710 159.8684
73.342583 95.673 159.7183
73.874054 95.635 159.6142
74.409378 95.600 159.5586
74.948578 95.572 159.5277
75.491684 95.551 159.4773
76.038727 95.531 159.3817
76.589737 95.507 159.2582
77.144737 95.479 159.1436
77.703758 95.452 159.0499
78.266830 95.430 158.9532
78.833984 95.412 158.8237
79.405251 95.394 158.6566
79.980652 95.372 158.4704
80.560226 95.349 158.2834
81.143997 95.326 158.1000
81.732002 95.302 157.9139
82.324265 95.276 157.7188
82.920822 95.248 157.5200
83.521698 95.215 157.3347
84.126930 95.181 157.1717
84.736549 95.148 157.0085
85.350586 95.114 156.8084
85.969070 95.072 156.5691
86.592041 95.018 156.3410
87.219521 94.957 156.1799
87.851547 94.896 156.0974
88.488159 94.841 156.0611
89.129379 94.793 156.0318
89.775246 94.747 155.9907
90.425797 94.701 155.9440
91.081062 94.652 155.9109
91.741074 94.601 155.9042
92.405869 94.548 155.9277
93.075478 94.495 155.9891
93.749939 94.445 156.0956
