* Measurement data measured by REW V5.30 beta 5
* Source: EXCL: Microphone (Realtek(R) Audio), MICROPHONE (Master Volume), L, volume: 0.250
* Format: 256k Log Swept Sine, 1 sweep at -13.0 dBFS with no timing reference
* Dated: Dec 14, 2023 12:54:22 PM
* REW Settings:
*  C-weighting compensation: Off
*  Target level: 75.0 dB
* Note: 
* Measurement: L LM BLACK
* Smoothing: 1/24 octave
* Frequency Step: 96 ppo
* Start Frequency: 0.36621094 Hz
*
* Freq(Hz) SPL(dB) Phase(degrees)
0.366211 57.652 11.3265
0.368865 57.676 11.3390
0.371538 57.710 11.3576
0.374230 57.749 11.3795
0.376942 57.790 11.4034
0.379673 57.831 11.4291
0.382424 57.872 11.4562
0.385196 57.914 11.4847
0.387987 57.956 11.5146
0.390798 57.999 11.5459
0.393630 58.042 11.5785
0.396483 58.085 11.6125
0.399356 58.128 11.6478
0.402250 58.172 11.6844
0.405165 58.216 11.7222
0.408101 58.261 11.7613
0.411058 58.305 11.8016
0.414037 58.351 11.8431
0.417037 58.396 11.8858
0.420059 58.442 11.9296
0.423103 58.488 11.9745
0.426169 58.534 12.0205
0.429257 58.581 12.0675
0.432367 58.628 12.1156
0.435501 58.675 12.1646
0.438656 58.723 12.2145
0.441835 58.771 12.2654
0.445037 58.819 12.3170
0.448262 58.868 12.3695
0.451510 58.917 12.4228
0.454782 58.967 12.4767
0.458077 59.017 12.5314
0.461397 59.067 12.5866
0.464740 59.118 12.6425
0.468108 59.168 12.6988
0.471500 59.220 12.7557
0.474917 59.271 12.8129
0.478358 59.324 12.8705
0.481825 59.376 12.9285
0.485316 59.429 12.9866
0.488833 59.482 13.0450
0.492375 59.536 13.1035
0.495943 59.590 13.1620
0.499537 59.644 13.2205
0.503157 59.699 13.2790
0.506803 59.754 13.3373
0.510475 59.809 13.3955
0.514174 59.865 13.4533
0.517900 59.922 13.5109
0.521653 59.979 13.5680
0.525433 60.036 13.6246
0.529241 60.093 13.6807
0.533076 60.151 13.7361
0.536939 60.210 13.7908
0.540830 60.269 13.8447
0.544749 60.328 13.8978
0.548696 60.388 13.9499
0.552673 60.448 14.0010
0.556677 60.508 14.0510
0.560711 60.569 14.0998
0.564774 60.631 14.1473
0.568867 60.693 14.1935
0.572989 60.755 14.2382
0.577141 60.818 14.2814
0.581324 60.881 14.3230
0.585536 60.945 14.3629
0.589779 61.009 14.4010
0.594053 61.074 14.4373
0.598358 61.139 14.4716
0.602694 61.205 14.5039
0.607061 61.271 14.5340
0.611460 61.337 14.5620
0.615891 61.404 14.5876
0.620354 61.472 14.6109
0.624849 61.540 14.6317
0.629377 61.608 14.6499
0.633938 61.677 14.6655
0.638532 61.747 14.6783
0.643159 61.817 14.6883
0.647819 61.887 14.6955
0.652514 61.958 14.6996
0.657242 62.030 14.7007
0.662005 62.102 14.6986
0.666802 62.174 14.6933
0.671634 62.248 14.6846
0.676501 62.321 14.6726
0.681403 62.395 14.6571
0.686341 62.470 14.6380
0.691314 62.545 14.6153
0.696324 62.621 14.5889
0.701369 62.697 14.5586
0.706452 62.774 14.5246
0.711571 62.852 14.4866
0.716727 62.930 14.4447
0.721921 63.008 14.3989
0.727153 63.088 14.3495
0.732422 63.168 14.2975
0.737729 63.250 14.2445
0.743075 63.333 14.1921
0.748460 63.417 14.1410
0.753883 63.502 14.0915
0.759346 63.588 14.0435
0.764849 63.674 13.9970
0.770391 63.762 13.9517
0.775974 63.850 13.9074
0.781597 63.939 13.8640
0.787261 64.029 13.8212
0.792965 64.120 13.7790
0.798712 64.212 13.7371
0.804499 64.305 13.6953
0.810329 64.398 13.6535
0.816201 64.493 13.6114
0.822116 64.588 13.5689
0.828073 64.684 13.5257
0.834073 64.781 13.4818
0.840118 64.879 13.4369
0.846205 64.977 13.3909
0.852337 65.076 13.3434
0.858514 65.176 13.2945
0.864735 65.277 13.2438
0.871001 65.379 13.1913
0.877313 65.481 13.1367
0.883670 65.585 13.0799
0.890074 65.688 13.0206
0.896523 65.793 12.9587
0.903020 65.898 12.8941
0.909564 66.004 12.8265
0.916155 66.111 12.7557
0.922793 66.219 12.6817
0.929480 66.327 12.6043
0.936216 66.435 12.5232
0.943000 66.545 12.4382
0.949833 66.654 12.3494
0.956716 66.765 12.2564
0.963649 66.876 12.1591
0.970632 66.987 12.0573
0.977666 67.099 11.9509
0.984750 67.212 11.8397
0.991886 67.325 11.7236
0.999074 67.438 11.6024
1.006313 67.552 11.4759
1.013605 67.666 11.3440
1.020950 67.780 11.2066
1.028349 67.895 11.0634
1.035801 68.010 10.9143
1.043306 68.125 10.7592
1.050867 68.240 10.5979
1.058482 68.356 10.4303
1.066152 68.472 10.2562
1.073878 68.587 10.0755
1.081659 68.703 9.8883
1.089498 68.819 9.6947
1.097393 68.935 9.4957
1.105345 69.051 9.2929
1.113355 69.167 9.0883
1.121422 69.284 8.8830
1.129549 69.401 8.6774
1.137734 69.519 8.4716
1.145978 69.637 8.2654
1.154283 69.756 8.0587
1.162647 69.874 7.8514
1.171072 69.994 7.6434
1.179558 70.114 7.4344
1.188106 70.234 7.2245
1.196715 70.354 7.0133
1.205387 70.475 6.8008
1.214122 70.597 6.5868
1.222920 70.718 6.3712
1.231781 70.841 6.1538
1.240708 70.963 5.9344
1.249698 71.086 5.7129
1.258754 71.209 5.4891
1.267875 71.332 5.2629
1.277063 71.456 5.0340
1.286317 71.580 4.8024
1.295638 71.704 4.5678
1.305027 71.829 4.3302
1.314484 71.954 4.0892
1.324009 72.079 3.8448
1.333603 72.204 3.5967
1.343267 72.330 3.3449
1.353001 72.456 3.0890
1.362805 72.582 2.8290
1.372681 72.708 2.5646
1.382628 72.834 2.2956
1.392647 72.960 2.0219
1.402739 73.087 1.7433
1.412904 73.214 1.4596
1.423142 73.340 1.1705
1.433455 73.467 0.8760
1.443842 73.594 0.5760
1.454305 73.721 0.2706
1.464843 73.848 -0.0394
1.475458 73.975 -0.3525
1.486150 74.102 -0.6672
1.496919 74.229 -0.9828
1.507766 74.355 -1.2990
1.518692 74.482 -1.6159
1.529697 74.609 -1.9336
1.540782 74.736 -2.2522
1.551947 74.862 -2.5720
1.563193 74.989 -2.8932
1.574521 75.115 -3.2159
1.585931 75.242 -3.5403
1.597423 75.368 -3.8666
1.608998 75.495 -4.1951
1.620658 75.621 -4.5259
1.632402 75.747 -4.8593
1.644231 75.873 -5.1955
1.656146 75.999 -5.5348
1.668147 76.125 -5.8774
1.680235 76.251 -6.2235
1.692410 76.377 -6.5734
1.704674 76.503 -6.9273
1.717027 76.628 -7.2855
1.729469 76.754 -7.6483
1.742002 76.880 -8.0159
1.754625 77.005 -8.3887
1.767340 77.130 -8.7668
1.780147 77.256 -9.1507
1.793046 77.381 -9.5406
1.806040 77.506 -9.9366
1.819127 77.631 -10.3390
1.832309 77.756 -10.7476
1.845587 77.881 -11.1618
1.858961 78.005 -11.5810
1.872431 78.129 -12.0044
1.886000 78.253 -12.4318
1.899666 78.376 -12.8628
1.913432 78.498 -13.2971
1.927298 78.621 -13.7345
1.941264 78.743 -14.1748
1.955331 78.864 -14.6177
1.969500 78.985 -15.0631
1.983772 79.106 -15.5108
1.998147 79.226 -15.9608
2.012626 79.346 -16.4128
2.027211 79.465 -16.8668
2.041901 79.584 -17.3228
2.056697 79.703 -17.7807
2.071601 79.822 -18.2405
2.086613 79.940 -18.7021
2.101733 80.057 -19.1658
2.116963 80.175 -19.6313
2.132303 80.292 -20.0990
2.147755 80.409 -20.5688
2.163318 80.526 -21.0410
2.178995 80.642 -21.5159
2.194785 80.758 -21.9939
2.210689 80.874 -22.4759
2.226709 80.989 -22.9626
2.242844 81.103 -23.4541
2.259097 81.217 -23.9502
2.275467 81.330 -24.4503
2.291956 81.442 -24.9540
2.308565 81.554 -25.4608
2.325294 81.664 -25.9702
2.342144 81.775 -26.4819
2.359116 81.884 -26.9954
2.376211 81.993 -27.5103
2.393430 82.101 -28.0263
2.410774 82.209 -28.5429
2.428243 82.316 -29.0600
2.445839 82.423 -29.5771
2.463562 82.529 -30.0941
2.481415 82.635 -30.6107
2.499396 82.740 -31.1266
2.517508 82.845 -31.6419
2.535750 82.949 -32.1566
2.554126 83.053 -32.6713
2.572634 83.157 -33.1870
2.591276 83.259 -33.7058
2.610054 83.361 -34.2285
2.628967 83.462 -34.7552
2.648018 83.562 -35.2854
2.667206 83.661 -35.8186
2.686534 83.759 -36.3542
2.706002 83.857 -36.8916
2.725610 83.953 -37.4300
2.745361 84.049 -37.9690
2.765255 84.144 -38.5078
2.785294 84.239 -39.0459
2.805477 84.333 -39.5827
2.825807 84.426 -40.1177
2.846284 84.519 -40.6503
2.866909 84.611 -41.1800
2.887684 84.703 -41.7064
2.908609 84.794 -42.2297
2.929686 84.885 -42.7505
2.950916 84.976 -43.2708
2.972299 85.065 -43.7922
2.993838 85.154 -44.3155
3.015532 85.241 -44.8405
3.037384 85.328 -45.3669
3.059394 85.413 -45.8940
3.081564 85.498 -46.4213
3.103894 85.582 -46.9480
3.126386 85.666 -47.4736
3.149041 85.749 -47.9973
3.171861 85.831 -48.5186
3.194845 85.913 -49.0367
3.217996 85.995 -49.5510
3.241315 86.076 -50.0609
3.264803 86.157 -50.5661
3.288461 86.237 -51.0666
3.312291 86.318 -51.5635
3.336293 86.397 -52.0583
3.360469 86.476 -52.5520
3.384820 86.554 -53.0448
3.409348 86.631 -53.5365
3.434054 86.708 -54.0269
3.458938 86.784 -54.5156
3.484003 86.859 -55.0024
3.509250 86.935 -55.4868
3.534679 87.009 -55.9685
3.560293 87.084 -56.4470
3.586092 87.158 -56.9219
3.612079 87.233 -57.3928
3.638253 87.307 -57.8594
3.664618 87.382 -58.3219
3.691173 87.456 -58.7807
3.717921 87.530 -59.2365
3.744862 87.603 -59.6896
3.771999 87.676 -60.1402
3.799332 87.749 -60.5885
3.826864 87.822 -61.0347
3.854595 87.894 -61.4786
3.882527 87.966 -61.9205
3.910661 88.038 -62.3604
3.938999 88.110 -62.7981
3.967543 88.183 -63.2338
3.996294 88.255 -63.6674
4.025252 88.328 -64.0988
4.054421 88.401 -64.5278
4.083801 88.473 -64.9543
4.113394 88.546 -65.3784
4.143201 88.619 -65.8006
4.173225 88.692 -66.2211
4.203466 88.764 -66.6402
4.233926 88.837 -67.0584
4.264606 88.910 -67.4760
4.295509 88.983 -67.8934
4.326636 89.056 -68.3110
4.357989 89.129 -68.7289
4.389569 89.202 -69.1472
4.421378 89.275 -69.5659
4.453417 89.348 -69.9846
4.485688 89.422 -70.4032
4.518193 89.495 -70.8217
4.550934 89.569 -71.2404
4.583912 89.642 -71.6595
4.617129 89.716 -72.0793
4.650587 89.789 -72.4999
4.684287 89.862 -72.9216
4.718231 89.935 -73.3448
4.752421 90.008 -73.7697
4.786859 90.081 -74.1964
4.821547 90.153 -74.6251
4.856485 90.226 -75.0557
4.891677 90.298 -75.4878
4.927125 90.370 -75.9214
4.962829 90.442 -76.3560
4.998791 90.513 -76.7916
5.035015 90.584 -77.2280
5.071500 90.654 -77.6651
5.108251 90.725 -78.1029
5.145267 90.794 -78.5420
5.182552 90.863 -78.9830
5.220107 90.932 -79.4260
5.257934 91.000 -79.8707
5.296035 91.068 -80.3166
5.334412 91.135 -80.7629
5.373067 91.201 -81.2092
5.412003 91.268 -81.6548
5.451221 91.333 -82.0992
5.490722 91.398 -82.5426
5.530510 91.463 -82.9855
5.570587 91.526 -83.4286
5.610953 91.589 -83.8722
5.651613 91.652 -84.3157
5.692567 91.713 -84.7585
5.733818 91.775 -85.2000
5.775367 91.836 -85.6395
5.817218 91.896 -86.0764
5.859372 91.956 -86.5107
5.901831 92.016 -86.9426
5.944598 92.075 -87.3728
5.987675 92.134 -87.8015
6.031065 92.192 -88.2285
6.074768 92.249 -88.6537
6.118788 92.307 -89.0768
6.163127 92.364 -89.4975
6.207788 92.421 -89.9156
6.252772 92.478 -90.3311
6.298082 92.535 -90.7440
6.343721 92.591 -91.1546
6.389690 92.648 -91.5634
6.435992 92.704 -91.9705
6.482630 92.760 -92.3762
6.529606 92.816 -92.7809
6.576922 92.872 -93.1845
6.624581 92.928 -93.5870
6.672585 92.985 -93.9883
6.720938 93.041 -94.3885
6.769640 93.097 -94.7880
6.818696 93.153 -95.1873
6.868107 93.209 -95.5869
6.917876 93.265 -95.9872
6.968006 93.321 -96.3885
7.018499 93.377 -96.7907
7.069358 93.433 -97.1937
7.120586 93.489 -97.5975
7.172184 93.545 -98.0024
7.224157 93.600 -98.4085
7.276506 93.655 -98.8161
7.329235 93.710 -99.2255
7.382345 93.765 -99.6368
7.435841 93.819 -100.0501
7.489724 93.873 -100.4651
7.543997 93.927 -100.8815
7.598664 93.980 -101.2990
7.653728 94.033 -101.7174
7.709189 94.085 -102.1369
7.765053 94.137 -102.5577
7.821322 94.188 -102.9799
7.877998 94.238 -103.4031
7.935086 94.288 -103.8265
7.992587 94.337 -104.2497
8.050504 94.386 -104.6721
8.108841 94.434 -105.0941
8.167601 94.482 -105.5159
8.226787 94.528 -105.9374
8.286402 94.575 -106.3580
8.346449 94.620 -106.7773
8.406931 94.666 -107.1948
8.467851 94.710 -107.6104
8.529212 94.755 -108.0244
8.591018 94.799 -108.4369
8.653272 94.842 -108.8479
8.715977 94.885 -109.2571
8.779137 94.928 -109.6645
8.842754 94.971 -110.0700
8.906833 95.013 -110.4738
8.971375 95.055 -110.8760
9.036386 95.097 -111.2770
9.101867 95.139 -111.6770
9.167823 95.181 -112.0762
9.234257 95.222 -112.4746
9.301172 95.264 -112.8723
9.368572 95.305 -113.2695
9.436460 95.346 -113.6667
9.504841 95.387 -114.0641
9.573717 95.428 -114.4619
9.643092 95.469 -114.8602
9.712970 95.510 -115.2590
9.783354 95.550 -115.6584
9.854248 95.590 -116.0586
9.925656 95.630 -116.4597
9.997581 95.670 -116.8618
10.070028 95.709 -117.2648
10.143000 95.748 -117.6686
10.216500 95.787 -118.0730
10.290533 95.825 -118.4779
10.365103 95.862 -118.8835
10.440212 95.900 -119.2896
10.515866 95.936 -119.6960
10.592069 95.973 -120.1022
10.668823 96.009 -120.5083
10.746134 96.044 -120.9143
10.824005 96.079 -121.3200
10.902440 96.114 -121.7252
10.981443 96.148 -122.1297
11.061020 96.182 -122.5334
11.141172 96.215 -122.9363
11.221906 96.248 -123.3384
11.303225 96.281 -123.7396
11.385133 96.313 -124.1397
11.467634 96.345 -124.5389
11.550734 96.377 -124.9372
11.634435 96.408 -125.3345
11.718742 96.439 -125.7309
11.803661 96.470 -126.1265
11.889195 96.501 -126.5211
11.975349 96.531 -126.9150
12.062128 96.561 -127.3081
12.149535 96.591 -127.7005
12.237576 96.621 -128.0922
12.326254 96.650 -128.4833
12.415575 96.679 -128.8737
12.505544 96.708 -129.2635
12.596164 96.737 -129.6528
12.687441 96.765 -130.0415
12.779379 96.793 -130.4297
12.871984 96.821 -130.8174
12.965260 96.849 -131.2047
13.059211 96.876 -131.5915
13.153843 96.904 -131.9780
13.249161 96.931 -132.3640
13.345170 96.957 -132.7498
13.441875 96.984 -133.1353
13.539280 97.010 -133.5205
13.637391 97.036 -133.9054
13.736214 97.061 -134.2902
13.835752 97.086 -134.6746
13.936011 97.111 -135.0587
14.036998 97.136 -135.4426
14.138716 97.160 -135.8260
14.241171 97.184 -136.2090
14.344368 97.207 -136.5913
14.448313 97.230 -136.9730
14.553011 97.253 -137.3539
14.658468 97.275 -137.7338
14.764689 97.297 -138.1127
14.871680 97.318 -138.4903
14.979446 97.339 -138.8666
15.087994 97.360 -139.2414
15.197328 97.381 -139.6147
15.307454 97.401 -139.9864
15.418378 97.420 -140.3566
15.530106 97.440 -140.7251
15.642643 97.459 -141.0922
15.755996 97.478 -141.4579
15.870171 97.497 -141.8223
15.985172 97.516 -142.1857
16.101007 97.534 -142.5482
16.217682 97.553 -142.9101
16.335201 97.571 -143.2716
16.453573 97.589 -143.6328
16.572803 97.607 -143.9940
16.692898 97.624 -144.3552
16.813862 97.641 -144.7165
16.935701 97.658 -145.0780
17.058424 97.675 -145.4396
17.182035 97.691 -145.8011
17.306543 97.707 -146.1624
17.431953 97.722 -146.5232
17.558273 97.737 -146.8834
17.685509 97.751 -147.2426
17.813665 97.765 -147.6007
17.942751 97.779 -147.9575
18.072771 97.792 -148.3128
18.203733 97.805 -148.6666
18.335646 97.818 -149.0191
18.468513 97.830 -149.3702
18.602345 97.843 -149.7202
18.737144 97.855 -150.0694
18.872921 97.867 -150.4180
19.009682 97.879 -150.7663
19.147434 97.890 -151.1145
19.286184 97.902 -151.4627
19.425940 97.913 -151.8110
19.566708 97.924 -152.1593
19.708496 97.934 -152.5074
19.851313 97.944 -152.8552
19.995163 97.954 -153.2023
20.140057 97.963 -153.5486
20.285999 97.972 -153.8936
20.433001 97.981 -154.2373
20.581066 97.989 -154.5795
20.730206 97.997 -154.9203
20.880424 98.005 -155.2598
21.031733 98.013 -155.5981
21.184137 98.020 -155.9353
21.337646 98.027 -156.2717
21.492268 98.035 -156.6073
21.648010 98.041 -156.9422
21.804880 98.048 -157.2763
21.962887 98.054 -157.6094
22.122040 98.060 -157.9412
22.282345 98.066 -158.2715
22.443811 98.071 -158.6002
22.606449 98.076 -158.9270
22.770266 98.081 -159.2521
22.935268 98.086 -159.5755
23.101467 98.091 -159.8977
23.268869 98.096 -160.2190
23.437485 98.101 -160.5399
23.607323 98.105 -160.8608
23.778391 98.110 -161.1821
23.950699 98.114 -161.5040
24.124256 98.118 -161.8262
24.299070 98.121 -162.1487
24.475151 98.124 -162.4710
24.652508 98.126 -162.7924
24.831150 98.127 -163.1124
25.011087 98.129 -163.4304
25.192327 98.129 -163.7460
25.374882 98.130 -164.0587
25.558758 98.129 -164.3684
25.743967 98.129 -164.6751
25.930519 98.129 -164.9790
26.118422 98.129 -165.2805
26.307686 98.128 -165.5801
26.498322 98.128 -165.8784
26.690340 98.128 -166.1762
26.883749 98.128 -166.4744
27.078560 98.128 -166.7736
27.274782 98.128 -167.0745
27.472427 98.128 -167.3773
27.671503 98.128 -167.6821
27.872023 98.127 -167.9885
28.073996 98.126 -168.2958
28.277431 98.124 -168.6028
28.482342 98.122 -168.9086
28.688736 98.119 -169.2124
28.896626 98.116 -169.5137
29.106022 98.113 -169.8128
29.316936 98.110 -170.1104
29.529379 98.107 -170.4078
29.743361 98.104 -170.7065
29.958893 98.102 -171.0079
30.175987 98.099 -171.3126
30.394655 98.096 -171.6203
30.614908 98.092 -171.9300
30.836756 98.087 -172.2394
31.060211 98.081 -172.5460
31.285286 98.074 -172.8473
31.511992 98.066 -173.1416
31.740341 98.059 -173.4283
31.970345 98.052 -173.7084
32.202015 98.045 -173.9839
32.435364 98.040 -174.2576
32.670403 98.035 -174.5324
32.907146 98.031 -174.8106
33.145607 98.026 -175.0932
33.385796 98.022 -175.3801
33.627724 98.017 -175.6702
33.871403 98.011 -175.9619
34.116848 98.004 -176.2539
34.364071 97.996 -176.5456
34.613087 97.988 -176.8368
34.863907 97.980 -177.1278
35.116547 97.971 -177.4186
35.371017 97.960 -177.7084
35.627331 97.949 -177.9957
35.885502 97.937 -178.2788
36.145542 97.925 -178.5562
36.407467 97.912 -178.8277
36.671291 97.899 -179.0945
36.937027 97.887 -179.3590
37.204689 97.875 -179.6237
37.474289 97.863 -179.8900
37.745842 97.851 179.8423
38.019363 97.838 179.5748
38.294868 97.825 179.3097
38.572369 97.811 179.0479
38.851879 97.798 178.7882
39.133415 97.785 178.5283
39.416992 97.773 178.2653
39.702625 97.760 177.9985
39.990326 97.747 177.7304
40.280113 97.732 177.4654
40.571999 97.716 177.2086
40.866001 97.700 176.9615
41.162132 97.686 176.7211
41.460411 97.674 176.4804
41.760849 97.662 176.2318
42.063465 97.650 175.9711
42.368275 97.637 175.7007
42.675293 97.621 175.4282
42.984535 97.603 175.1620
43.296021 97.583 174.9078
43.609760 97.563 174.6655
43.925774 97.544 174.4305
44.244080 97.525 174.1982
44.564690 97.505 173.9670
44.887623 97.485 173.7390
45.212898 97.464 173.5162
45.540531 97.444 173.2969
45.870537 97.425 173.0749
46.202934 97.407 172.8427
46.537739 97.388 172.5973
46.874969 97.367 172.3433
47.214645 97.344 172.0900
47.556782 97.319 171.8449
47.901398 97.294 171.6077
48.248512 97.269 171.3717
48.598141 97.245 171.1314
48.950302 97.220 170.8886
49.305016 97.193 170.6516
49.662300 97.165 170.4272
50.022175 97.139 170.2138
50.384655 97.114 170.0023
50.749763 97.088 169.7887
51.117516 97.060 169.5851
51.487934 97.029 169.4171
51.861038 97.000 169.3042
52.236843 96.980 169.2347
52.615372 96.973 169.1624
52.996643 96.975 169.0314
53.380680 96.977 168.8179
53.767498 96.971 168.5501
54.157120 96.952 168.2900
54.549564 96.929 168.0865
54.944855 96.909 167.9382
55.343006 96.899 167.7957
55.744045 96.894 167.6046
56.147991 96.886 167.3524
56.554863 96.868 167.0771
56.964684 96.843 166.8314
57.377472 96.816 166.6354
57.793251 96.796 166.4606
58.212044 96.781 166.2582
58.633873 96.764 166.0044
59.058758 96.740 165.7209
59.486721 96.707 165.4547
59.917786 96.670 165.2374
60.351974 96.636 165.0620
60.789310 96.607 164.8948
61.229816 96.580 164.7087
61.673512 96.553 164.5028
62.120422 96.522 164.2948
62.570572 96.491 164.0966
63.023983 96.461 163.9048
63.480682 96.431 163.7117
63.940689 96.401 163.5206
64.404030 96.372 163.3423
64.870728 96.346 163.1752
65.340805 96.325 162.9971
65.814293 96.309 162.7831
66.291214 96.291 162.5273
66.771591 96.270 162.2390
67.255447 96.244 161.9221
67.742805 96.210 161.5792
68.233696 96.160 161.2482
68.728142 96.095 161.0181
69.226173 96.025 160.9716
69.727814 95.973 161.0858
70.233093 95.950 161.2128
70.742035 95.945 161.1949
71.254662 95.934 161.0042
71.771004 95.900 160.7461
72.291084 95.850 160.5373
72.814934 95.794 160.4022
73.342583 95.740 160.2952
73.874054 95.683 160.1913
74.409378 95.622 160.1184
74.948578 95.563 160.0980
75.491684 95.512 160.0962
76.038727 95.467 160.0586
76.589737 95.418 159.9851
77.144737 95.358 159.9484
77.703758 95.296 160.0345
78.266830 95.243 160.2675
78.833984 95.211 160.5931
79.405251 95.203 160.9274
79.980652 95.215 161.2084
80.560226 95.239 161.4028
81.143997 95.269 161.4857
81.732002 95.299 161.4464
82.324265 95.318 161.3172
82.920822 95.325 161.1576
83.521698 95.328 160.9853
84.126930 95.328 160.7662
84.736549 95.318 160.5040
85.350586 95.298 160.2786
85.969070 95.285 160.1233
86.592041 95.289 159.9167
87.219521 95.296 159.5285
87.851547 95.279 159.0213
88.488159 95.239 158.5820
89.129379 95.194 158.2766
89.775246 95.156 158.0203
90.425797 95.117 157.7612
91.081062 95.071 157.5478
91.741074 95.026 157.4106
92.405869 94.986 157.3156
93.075478 94.951 157.2267
93.749939 94.919 157.1224
