* Measurement data measured by REW V5.30.9
* Source: EXCL: Microphone (USB Sound Device        ), MICROPHONE (Master Volume), L, volume: 0.560
* Format: 256k Log Swept Sine, 1 sweep at -10.0 dBFS with no timing reference
* Dated: Mar 9, 2024 4:11:55 PM
* REW Settings:
*  C-weighting compensation: Off
*  Target level: 75.0 dB
* Note: Tigerism Helianthus R
* Measurement: R Tigerism Helianthus
* Smoothing: 1/12 octave
* Frequency Step: 96 ppo
* Start Frequency: 0.36621094 Hz
*
* Freq(Hz) SPL(dB) Phase(degrees)
0.366211 81.660 158.7312
0.368865 81.653 158.7084
0.371538 81.644 158.6741
0.374230 81.632 158.6312
0.376942 81.619 158.5816
0.379673 81.604 158.5272
0.382424 81.589 158.4689
0.385196 81.574 158.4075
0.387987 81.559 158.3432
0.390798 81.543 158.2763
0.393630 81.527 158.2068
0.396483 81.511 158.1349
0.399356 81.494 158.0605
0.402250 81.478 157.9837
0.405165 81.462 157.9043
0.408101 81.445 157.8224
0.411058 81.428 157.7379
0.414037 81.411 157.6508
0.417037 81.394 157.5612
0.420059 81.377 157.4689
0.423103 81.360 157.3740
0.426169 81.343 157.2763
0.429257 81.325 157.1760
0.432367 81.308 157.0730
0.435501 81.290 156.9671
0.438656 81.272 156.8585
0.441835 81.254 156.7471
0.445037 81.236 156.6329
0.448262 81.218 156.5158
0.451510 81.199 156.3959
0.454782 81.181 156.2730
0.458077 81.162 156.1472
0.461397 81.144 156.0185
0.464740 81.125 155.8869
0.468108 81.106 155.7522
0.471500 81.086 155.6146
0.474917 81.067 155.4739
0.478358 81.048 155.3302
0.481825 81.028 155.1834
0.485316 81.008 155.0336
0.488833 80.988 154.8807
0.492375 80.968 154.7247
0.495943 80.948 154.5656
0.499537 80.928 154.4033
0.503157 80.907 154.2379
0.506803 80.887 154.0694
0.510475 80.866 153.8978
0.514174 80.845 153.7230
0.517900 80.824 153.5450
0.521653 80.803 153.3639
0.525433 80.781 153.1796
0.529241 80.760 152.9922
0.533076 80.738 152.8016
0.536939 80.716 152.6078
0.540830 80.694 152.4109
0.544749 80.672 152.2109
0.548696 80.650 152.0078
0.552673 80.627 151.8016
0.556677 80.605 151.5922
0.560711 80.582 151.3799
0.564774 80.559 151.1644
0.568867 80.536 150.9460
0.572989 80.512 150.7246
0.577141 80.489 150.5003
0.581324 80.465 150.2730
0.585536 80.442 150.0429
0.589779 80.418 149.8099
0.594053 80.393 149.5742
0.598358 80.369 149.3358
0.602694 80.345 149.0947
0.607061 80.320 148.8510
0.611460 80.295 148.6048
0.615891 80.270 148.3562
0.620354 80.245 148.1051
0.624849 80.219 147.8518
0.629377 80.194 147.5963
0.633938 80.168 147.3387
0.638532 80.142 147.0791
0.643159 80.116 146.8176
0.647819 80.089 146.5544
0.652514 80.063 146.2895
0.657242 80.036 146.0231
0.662005 80.009 145.7554
0.666802 79.982 145.4864
0.671634 79.955 145.2164
0.676501 79.927 144.9454
0.681403 79.899 144.6738
0.686341 79.871 144.4016
0.691314 79.843 144.1291
0.696324 79.815 143.8563
0.701369 79.786 143.5836
0.706452 79.757 143.3109
0.711571 79.727 143.0384
0.716727 79.696 142.7660
0.721921 79.664 142.4935
0.727153 79.630 142.2203
0.732422 79.594 141.9456
0.737729 79.556 141.6685
0.743075 79.515 141.3877
0.748460 79.472 141.1025
0.753883 79.427 140.8119
0.759346 79.381 140.5156
0.764849 79.334 140.2130
0.770391 79.287 139.9039
0.775974 79.238 139.5881
0.781597 79.189 139.2655
0.787261 79.139 138.9359
0.792965 79.088 138.5992
0.798712 79.037 138.2553
0.804499 78.984 137.9041
0.810329 78.931 137.5455
0.816201 78.878 137.1794
0.822116 78.823 136.8056
0.828073 78.767 136.4242
0.834073 78.711 136.0349
0.840118 78.654 135.6378
0.846205 78.596 135.2328
0.852337 78.536 134.8197
0.858514 78.476 134.3985
0.864735 78.415 133.9691
0.871001 78.353 133.5315
0.877313 78.290 133.0856
0.883670 78.225 132.6314
0.890074 78.160 132.1689
0.896523 78.093 131.6980
0.903020 78.025 131.2186
0.909564 77.956 130.7310
0.916155 77.886 130.2349
0.922793 77.814 129.7305
0.929480 77.741 129.2179
0.936216 77.666 128.6970
0.943000 77.590 128.1679
0.949833 77.513 127.6309
0.956716 77.434 127.0859
0.963649 77.353 126.5332
0.970632 77.271 125.9729
0.977666 77.187 125.4052
0.984750 77.101 124.8304
0.991886 77.014 124.2487
0.999074 76.925 123.6604
1.006313 76.834 123.0659
1.013605 76.741 122.4655
1.020950 76.645 121.8597
1.028349 76.548 121.2489
1.035801 76.449 120.6336
1.043306 76.348 120.0143
1.050867 76.244 119.3915
1.058482 76.138 118.7659
1.066152 76.029 118.1379
1.073878 75.918 117.5079
1.081659 75.804 116.8761
1.089498 75.686 116.2423
1.097393 75.564 115.6059
1.105345 75.438 114.9659
1.113355 75.307 114.3208
1.121422 75.170 113.6692
1.129549 75.028 113.0097
1.137734 74.879 112.3409
1.145978 74.724 111.6615
1.154283 74.563 110.9703
1.162647 74.397 110.2662
1.171072 74.225 109.5478
1.179558 74.047 108.8138
1.188106 73.865 108.0629
1.196715 73.678 107.2936
1.205387 73.487 106.5045
1.214122 73.292 105.6937
1.222920 73.093 104.8596
1.231781 72.891 104.0003
1.240708 72.687 103.1137
1.249698 72.480 102.1976
1.258754 72.271 101.2498
1.267875 72.061 100.2678
1.277063 71.850 99.2488
1.286317 71.639 98.1902
1.295638 71.428 97.0889
1.305027 71.218 95.9417
1.314484 71.009 94.7453
1.324009 70.802 93.4963
1.333603 70.598 92.1908
1.343267 70.398 90.8253
1.353001 70.202 89.3957
1.362805 70.010 87.8982
1.372681 69.824 86.3288
1.382628 69.645 84.6837
1.392647 69.473 82.9593
1.402739 69.310 81.1522
1.412904 69.155 79.2593
1.423142 69.011 77.2780
1.433455 68.877 75.2061
1.443842 68.754 73.0414
1.454305 68.643 70.7817
1.464843 68.544 68.4243
1.475458 68.456 65.9654
1.486150 68.380 63.4011
1.496919 68.314 60.7271
1.507766 68.258 57.9403
1.518692 68.212 55.0389
1.529697 68.175 52.0231
1.540782 68.148 48.8955
1.551947 68.129 45.6614
1.563193 68.120 42.3287
1.574521 68.119 38.9084
1.585931 68.126 35.4146
1.597423 68.142 31.8640
1.608998 68.165 28.2755
1.620658 68.196 24.6700
1.632402 68.235 21.0692
1.644231 68.280 17.4949
1.656146 68.333 13.9683
1.668147 68.391 10.5089
1.680235 68.456 7.1343
1.692410 68.527 3.8593
1.704674 68.603 0.6959
1.717027 68.684 -2.3469
1.729469 68.769 -5.2629
1.742002 68.859 -8.0485
1.754625 68.953 -10.7027
1.767340 69.051 -13.2265
1.780147 69.152 -15.6231
1.793046 69.257 -17.8975
1.806040 69.365 -20.0566
1.819127 69.479 -22.1094
1.832309 69.599 -24.0663
1.845587 69.726 -25.9384
1.858961 69.862 -27.7364
1.872431 70.008 -29.4688
1.886000 70.164 -31.1423
1.899666 70.330 -32.7618
1.913432 70.506 -34.3305
1.927298 70.691 -35.8508
1.941264 70.884 -37.3244
1.955331 71.084 -38.7525
1.969500 71.291 -40.1359
1.983772 71.504 -41.4751
1.998147 71.721 -42.7707
2.012626 71.941 -44.0228
2.027211 72.163 -45.2316
2.041901 72.386 -46.3972
2.056697 72.609 -47.5196
2.071601 72.830 -48.5986
2.086613 73.048 -49.6343
2.101733 73.262 -50.6264
2.116963 73.471 -51.5752
2.132303 73.673 -52.4809
2.147755 73.867 -53.3445
2.163318 74.053 -54.1675
2.178995 74.230 -54.9525
2.194785 74.399 -55.7032
2.210689 74.559 -56.4242
2.226709 74.711 -57.1202
2.242844 74.857 -57.7953
2.259097 74.996 -58.4526
2.275467 75.130 -59.0939
2.291956 75.258 -59.7203
2.308565 75.382 -60.3324
2.325294 75.501 -60.9301
2.342144 75.616 -61.5132
2.359116 75.728 -62.0812
2.376211 75.836 -62.6334
2.393430 75.942 -63.1691
2.410774 76.045 -63.6875
2.428243 76.145 -64.1875
2.445839 76.245 -64.6682
2.463562 76.342 -65.1285
2.481415 76.439 -65.5675
2.499396 76.536 -65.9842
2.517508 76.631 -66.3779
2.535750 76.727 -66.7484
2.554126 76.822 -67.0957
2.572634 76.915 -67.4205
2.591276 77.008 -67.7241
2.610054 77.098 -68.0077
2.628967 77.186 -68.2728
2.648018 77.272 -68.5208
2.667206 77.356 -68.7527
2.686534 77.438 -68.9696
2.706002 77.518 -69.1725
2.725610 77.596 -69.3623
2.745361 77.674 -69.5396
2.765255 77.750 -69.7053
2.785294 77.826 -69.8600
2.805477 77.902 -70.0042
2.825807 77.978 -70.1386
2.846284 78.055 -70.2634
2.866909 78.133 -70.3787
2.887684 78.212 -70.4846
2.908609 78.292 -70.5806
2.929686 78.373 -70.6659
2.950916 78.455 -70.7398
2.972299 78.538 -70.8017
2.993838 78.621 -70.8515
3.015532 78.705 -70.8896
3.037384 78.790 -70.9172
3.059394 78.875 -70.9357
3.081564 78.960 -70.9466
3.103894 79.046 -70.9519
3.126386 79.132 -70.9533
3.149041 79.219 -70.9527
3.171861 79.307 -70.9518
3.194845 79.396 -70.9523
3.217996 79.486 -70.9555
3.241315 79.577 -70.9622
3.264803 79.670 -70.9727
3.288461 79.764 -70.9867
3.312291 79.859 -71.0032
3.336293 79.956 -71.0210
3.360469 80.054 -71.0395
3.384820 80.154 -71.0587
3.409348 80.255 -71.0793
3.434054 80.356 -71.1025
3.458938 80.459 -71.1299
3.484003 80.562 -71.1632
3.509250 80.666 -71.2043
3.534679 80.770 -71.2550
3.560293 80.874 -71.3171
3.586092 80.978 -71.3920
3.612079 81.082 -71.4809
3.638253 81.185 -71.5845
3.664618 81.288 -71.7028
3.691173 81.392 -71.8354
3.717921 81.495 -71.9813
3.744862 81.598 -72.1398
3.771999 81.700 -72.3101
3.799332 81.803 -72.4914
3.826864 81.905 -72.6832
3.854595 82.006 -72.8852
3.882527 82.107 -73.0971
3.910661 82.207 -73.3186
3.938999 82.305 -73.5499
3.967543 82.402 -73.7910
3.996294 82.497 -74.0422
4.025252 82.591 -74.3038
4.054421 82.682 -74.5764
4.083801 82.773 -74.8600
4.113394 82.861 -75.1543
4.143201 82.948 -75.4585
4.173225 83.033 -75.7717
4.203466 83.116 -76.0924
4.233926 83.198 -76.4194
4.264606 83.278 -76.7513
4.295509 83.356 -77.0870
4.326636 83.432 -77.4257
4.357989 83.506 -77.7672
4.389569 83.579 -78.1115
4.421378 83.649 -78.4593
4.453417 83.716 -78.8109
4.485688 83.782 -79.1665
4.518193 83.845 -79.5257
4.550934 83.907 -79.8874
4.583912 83.966 -80.2503
4.617129 84.024 -80.6127
4.650587 84.080 -80.9732
4.684287 84.135 -81.3304
4.718231 84.188 -81.6832
4.752421 84.240 -82.0312
4.786859 84.290 -82.3745
4.821547 84.339 -82.7134
4.856485 84.386 -83.0484
4.891677 84.432 -83.3797
4.927125 84.476 -83.7071
4.962829 84.519 -84.0302
4.998791 84.562 -84.3486
5.035015 84.604 -84.6617
5.071500 84.646 -84.9688
5.108251 84.687 -85.2695
5.145267 84.728 -85.5635
5.182552 84.769 -85.8508
5.220107 84.810 -86.1318
5.257934 84.851 -86.4073
5.296035 84.891 -86.6781
5.334412 84.932 -86.9451
5.373067 84.973 -87.2093
5.412003 85.015 -87.4714
5.451221 85.057 -87.7318
5.490722 85.101 -87.9908
5.530510 85.145 -88.2484
5.570587 85.190 -88.5048
5.610953 85.236 -88.7606
5.651613 85.283 -89.0167
5.692567 85.330 -89.2745
5.733818 85.379 -89.5354
5.775367 85.428 -89.8007
5.817218 85.478 -90.0716
5.859372 85.529 -90.3487
5.901831 85.581 -90.6323
5.944598 85.633 -90.9226
5.987675 85.687 -91.2197
6.031065 85.741 -91.5240
6.074768 85.795 -91.8363
6.118788 85.850 -92.1572
6.163127 85.905 -92.4875
6.207788 85.960 -92.8277
6.252772 86.015 -93.1782
6.298082 86.070 -93.5389
6.343721 86.125 -93.9095
6.389690 86.179 -94.2896
6.435992 86.234 -94.6784
6.482630 86.287 -95.0753
6.529606 86.340 -95.4799
6.576922 86.392 -95.8920
6.624581 86.444 -96.3114
6.672585 86.494 -96.7378
6.720938 86.544 -97.1706
6.769640 86.592 -97.6088
6.818696 86.640 -98.0512
6.868107 86.687 -98.4967
6.917876 86.732 -98.9442
6.968006 86.777 -99.3930
7.018499 86.821 -99.8427
7.069358 86.864 -100.2930
7.120586 86.906 -100.7432
7.172184 86.948 -101.1924
7.224157 86.989 -101.6397
7.276506 87.029 -102.0842
7.329235 87.069 -102.5252
7.382345 87.109 -102.9623
7.435841 87.148 -103.3956
7.489724 87.188 -103.8249
7.543997 87.227 -104.2503
7.598664 87.267 -104.6716
7.653728 87.307 -105.0889
7.709189 87.347 -105.5020
7.765053 87.389 -105.9111
7.821322 87.430 -106.3166
7.877998 87.473 -106.7189
7.935086 87.516 -107.1188
7.992587 87.560 -107.5168
8.050504 87.604 -107.9135
8.108841 87.650 -108.3093
8.167601 87.697 -108.7046
8.226787 87.744 -109.0998
8.286402 87.792 -109.4957
8.346449 87.841 -109.8927
8.406931 87.890 -110.2914
8.467851 87.940 -110.6922
8.529212 87.991 -111.0952
8.591018 88.042 -111.5005
8.653272 88.093 -111.9081
8.715977 88.144 -112.3180
8.779137 88.195 -112.7301
8.842754 88.246 -113.1443
8.906833 88.297 -113.5604
8.971375 88.348 -113.9780
9.036386 88.399 -114.3963
9.101867 88.449 -114.8150
9.167823 88.498 -115.2334
9.234257 88.548 -115.6512
9.301172 88.596 -116.0677
9.368572 88.644 -116.4825
9.436460 88.692 -116.8948
9.504841 88.738 -117.3040
9.573717 88.785 -117.7098
9.643092 88.831 -118.1118
9.712970 88.876 -118.5097
9.783354 88.921 -118.9032
9.854248 88.965 -119.2921
9.925656 89.010 -119.6762
9.997581 89.054 -120.0556
10.070028 89.097 -120.4302
10.143000 89.141 -120.8004
10.216500 89.184 -121.1662
10.290533 89.227 -121.5279
10.365103 89.270 -121.8857
10.440212 89.312 -122.2399
10.515866 89.355 -122.5909
10.592069 89.397 -122.9389
10.668823 89.439 -123.2842
10.746134 89.480 -123.6272
10.824005 89.522 -123.9679
10.902440 89.562 -124.3067
10.981443 89.603 -124.6438
11.061020 89.643 -124.9791
11.141172 89.682 -125.3130
11.221906 89.721 -125.6453
11.303225 89.759 -125.9762
11.385133 89.797 -126.3056
11.467634 89.833 -126.6336
11.550734 89.870 -126.9603
11.634435 89.905 -127.2856
11.718742 89.940 -127.6095
11.803661 89.974 -127.9321
11.889195 90.008 -128.2536
11.975349 90.040 -128.5740
12.062128 90.072 -128.8934
12.149535 90.104 -129.2119
12.237576 90.134 -129.5299
12.326254 90.164 -129.8473
12.415575 90.193 -130.1644
12.505544 90.222 -130.4814
12.596164 90.250 -130.7984
12.687441 90.277 -131.1155
12.779379 90.304 -131.4330
12.871984 90.330 -131.7508
12.965260 90.355 -132.0692
13.059211 90.379 -132.3882
13.153843 90.403 -132.7078
13.249161 90.426 -133.0281
13.345170 90.449 -133.3493
13.441875 90.471 -133.6713
13.539280 90.493 -133.9945
13.637391 90.514 -134.3188
13.736214 90.535 -134.6445
13.835752 90.555 -134.9717
13.936011 90.575 -135.3007
14.036998 90.594 -135.6318
14.138716 90.614 -135.9650
14.241171 90.633 -136.3008
14.344368 90.652 -136.6392
14.448313 90.670 -136.9804
14.553011 90.688 -137.3244
14.658468 90.706 -137.6714
14.764689 90.724 -138.0212
14.871680 90.741 -138.3736
14.979446 90.758 -138.7286
15.087994 90.775 -139.0857
15.197328 90.791 -139.4446
15.307454 90.807 -139.8050
15.418378 90.823 -140.1664
15.530106 90.839 -140.5286
15.642643 90.855 -140.8911
15.755996 90.870 -141.2536
15.870171 90.886 -141.6160
15.985172 90.901 -141.9779
16.101007 90.917 -142.3393
16.217682 90.933 -142.7001
16.335201 90.949 -143.0603
16.453573 90.966 -143.4198
16.572803 90.982 -143.7788
16.692898 90.999 -144.1371
16.813862 91.016 -144.4947
16.935701 91.033 -144.8515
17.058424 91.051 -145.2074
17.182035 91.068 -145.5621
17.306543 91.086 -145.9154
17.431953 91.104 -146.2670
17.558273 91.121 -146.6166
17.685509 91.139 -146.9639
17.813665 91.157 -147.3087
17.942751 91.174 -147.6506
18.072771 91.192 -147.9896
18.203733 91.209 -148.3254
18.335646 91.227 -148.6579
18.468513 91.244 -148.9872
18.602345 91.261 -149.3132
18.737144 91.277 -149.6359
18.872921 91.294 -149.9553
19.009682 91.310 -150.2715
19.147434 91.326 -150.5845
19.286184 91.342 -150.8942
19.425940 91.357 -151.2008
19.566708 91.371 -151.5042
19.708496 91.386 -151.8046
19.851313 91.399 -152.1021
19.995163 91.412 -152.3968
20.140057 91.425 -152.6890
20.285999 91.437 -152.9790
20.433001 91.449 -153.2670
20.581066 91.460 -153.5535
20.730206 91.470 -153.8388
20.880424 91.480 -154.1232
21.031733 91.490 -154.4070
21.184137 91.498 -154.6905
21.337646 91.506 -154.9738
21.492268 91.514 -155.2573
21.648010 91.521 -155.5409
21.804880 91.527 -155.8250
21.962887 91.533 -156.1095
22.122040 91.538 -156.3947
22.282345 91.542 -156.6806
22.443811 91.547 -156.9677
22.606449 91.551 -157.2560
22.770266 91.554 -157.5457
22.935268 91.558 -157.8370
23.101467 91.561 -158.1300
23.268869 91.563 -158.4249
23.437485 91.566 -158.7217
23.607323 91.569 -159.0204
23.778391 91.571 -159.3208
23.950699 91.573 -159.6227
24.124256 91.576 -159.9260
24.299070 91.578 -160.2303
24.475151 91.580 -160.5351
24.652508 91.582 -160.8402
24.831150 91.584 -161.1451
25.011087 91.586 -161.4493
25.192327 91.588 -161.7525
25.374882 91.591 -162.0544
25.558758 91.594 -162.3546
25.743967 91.596 -162.6531
25.930519 91.599 -162.9497
26.118422 91.603 -163.2446
26.307686 91.606 -163.5379
26.498322 91.610 -163.8295
26.690340 91.614 -164.1195
26.883749 91.618 -164.4079
27.078560 91.621 -164.6943
27.274782 91.625 -164.9785
27.472427 91.628 -165.2602
27.671503 91.630 -165.5389
27.872023 91.633 -165.8143
28.073996 91.635 -166.0861
28.277431 91.636 -166.3543
28.482342 91.637 -166.6191
28.688736 91.638 -166.8808
28.896626 91.639 -167.1399
29.106022 91.639 -167.3970
29.316936 91.639 -167.6526
29.529379 91.638 -167.9074
29.743361 91.638 -168.1618
29.958893 91.636 -168.4162
30.175987 91.634 -168.6708
30.394655 91.632 -168.9258
30.614908 91.629 -169.1814
30.836756 91.626 -169.4376
31.060211 91.622 -169.6944
31.285286 91.618 -169.9520
31.511992 91.613 -170.2104
31.740341 91.608 -170.4697
31.970345 91.603 -170.7299
32.202015 91.598 -170.9911
32.435364 91.592 -171.2533
32.670403 91.587 -171.5164
32.907146 91.581 -171.7804
33.145607 91.576 -172.0452
33.385796 91.570 -172.3106
33.627724 91.565 -172.5767
33.871403 91.559 -172.8433
34.116848 91.554 -173.1103
34.364071 91.549 -173.3773
34.613087 91.543 -173.6439
34.863907 91.537 -173.9095
35.116547 91.531 -174.1735
35.371017 91.525 -174.4353
35.627331 91.519 -174.6942
35.885502 91.512 -174.9502
36.145542 91.505 -175.2031
36.407467 91.498 -175.4532
36.671291 91.491 -175.7005
36.937027 91.484 -175.9454
37.204689 91.476 -176.1877
37.474289 91.468 -176.4275
37.745842 91.459 -176.6646
38.019363 91.451 -176.8991
38.294868 91.441 -177.1314
38.572369 91.432 -177.3619
38.851879 91.423 -177.5914
39.133415 91.413 -177.8204
39.416992 91.403 -178.0494
39.702625 91.392 -178.2786
39.990326 91.382 -178.5077
40.280113 91.371 -178.7368
40.571999 91.359 -178.9659
40.866001 91.348 -179.1951
41.162132 91.337 -179.4250
41.460411 91.325 -179.6562
41.760849 91.313 -179.8889
42.063465 91.302 179.8766
42.368275 91.289 179.6409
42.675293 91.277 179.4046
42.984535 91.264 179.1686
43.296021 91.251 178.9338
43.609760 91.237 178.7008
43.925774 91.223 178.4702
44.244080 91.209 178.2421
44.564690 91.195 178.0164
44.887623 91.181 177.7930
45.212898 91.167 177.5718
45.540531 91.152 177.3526
45.870537 91.138 177.1356
46.202934 91.123 176.9209
46.537739 91.109 176.7084
46.874969 91.094 176.4977
47.214645 91.079 176.2883
47.556782 91.064 176.0797
47.901398 91.049 175.8719
48.248512 91.034 175.6656
48.598141 91.018 175.4619
48.950302 91.002 175.2613
49.305016 90.986 175.0637
49.662300 90.970 174.8677
50.022175 90.954 174.6708
50.384655 90.938 174.4712
50.749763 90.922 174.2681
51.117516 90.905 174.0629
51.487934 90.886 173.8586
51.861038 90.867 173.6586
52.236843 90.847 173.4650
52.615372 90.827 173.2781
52.996643 90.807 173.0959
53.380680 90.788 172.9159
53.767498 90.770 172.7354
54.157120 90.752 172.5531
54.549564 90.734 172.3687
54.944855 90.717 172.1831
55.343006 90.699 171.9970
55.744045 90.682 171.8109
56.147991 90.665 171.6245
56.554863 90.648 171.4365
56.964684 90.631 171.2458
57.377472 90.615 171.0516
57.793251 90.598 170.8541
58.212044 90.580 170.6549
58.633873 90.561 170.4561
59.058758 90.541 170.2602
59.486721 90.520 170.0687
59.917786 90.498 169.8819
60.351974 90.476 169.6987
60.789310 90.454 169.5175
61.229816 90.432 169.3366
61.673512 90.409 169.1552
62.120422 90.385 168.9735
62.570572 90.361 168.7922
63.023983 90.337 168.6125
63.480682 90.312 168.4349
63.940689 90.287 168.2598
64.404030 90.263 168.0870
64.870728 90.238 167.9162
65.340805 90.213 167.7474
65.814293 90.189 167.5807
66.291214 90.164 167.4167
66.771591 90.139 167.2564
67.255447 90.114 167.1008
67.742805 90.089 166.9506
68.233696 90.064 166.8058
68.728142 90.039 166.6660
69.226173 90.014 166.5305
69.727814 89.989 166.3979
70.233093 89.965 166.2659
70.742035 89.941 166.1310
71.254662 89.918 165.9899
71.771004 89.894 165.8416
72.291084 89.869 165.6882
72.814934 89.843 165.5340
73.342583 89.817 165.3820
73.874054 89.791 165.2324
74.409378 89.765 165.0826
74.948578 89.739 164.9315
75.491684 89.712 164.7808
76.038727 89.684 164.6349
76.589737 89.655 164.4973
77.144737 89.627 164.3678
77.703758 89.599 164.2430
78.266830 89.572 164.1186
78.833984 89.545 163.9910
79.405251 89.518 163.8580
79.980652 89.490 163.7173
80.560226 89.462 163.5677
81.143997 89.433 163.4097
81.732002 89.402 163.2464
82.324265 89.369 163.0821
82.920822 89.334 162.9203
83.521698 89.298 162.7633
84.126930 89.261 162.6124
84.736549 89.223 162.4691
85.350586 89.184 162.3351
85.969070 89.144 162.2126
86.592041 89.104 162.1034
87.219521 89.063 162.0078
