* Measurement data measured by REW V5.30.4
* Source: EXCL: Microphone (Realtek(R) Audio), MICROPHONE (Master Volume), L, volume: 1.000
* Format: 256k Log Swept Sine, 1 sweep at -12.0 dBFS with no timing reference
* Dated: Jan 21, 2024 12:19:24 AM
* REW Settings:
*  C-weighting compensation: Off
*  Target level: 75.0 dB
* Note: TinHiFi T5S R
* Measurement: R Jan 21
* Smoothing: 1/12 octave
* Frequency Step: 96 ppo
* Start Frequency: 0.36621094 Hz
*
* Freq(Hz) SPL(dB) Phase(degrees)
0.366211 95.840 -23.7410
0.368865 95.842 -23.7689
0.371538 95.845 -23.8105
0.374230 95.849 -23.8625
0.376942 95.853 -23.9221
0.379673 95.857 -23.9871
0.382424 95.862 -24.0562
0.385196 95.866 -24.1285
0.387987 95.871 -24.2036
0.390798 95.876 -24.2812
0.393630 95.880 -24.3611
0.396483 95.885 -24.4433
0.399356 95.890 -24.5278
0.402250 95.895 -24.6145
0.405165 95.900 -24.7035
0.408101 95.905 -24.7948
0.411058 95.910 -24.8884
0.414037 95.915 -24.9843
0.417037 95.920 -25.0825
0.420059 95.925 -25.1830
0.423103 95.930 -25.2859
0.426169 95.936 -25.3911
0.429257 95.941 -25.4988
0.432367 95.946 -25.6088
0.435501 95.951 -25.7212
0.438656 95.957 -25.8361
0.441835 95.962 -25.9534
0.445037 95.968 -26.0731
0.448262 95.973 -26.1952
0.451510 95.979 -26.3199
0.454782 95.984 -26.4469
0.458077 95.990 -26.5765
0.461397 95.995 -26.7085
0.464740 96.001 -26.8430
0.468108 96.007 -26.9800
0.471500 96.012 -27.1195
0.474917 96.018 -27.2614
0.478358 96.024 -27.4059
0.481825 96.030 -27.5528
0.485316 96.036 -27.7023
0.488833 96.042 -27.8542
0.492375 96.048 -28.0086
0.495943 96.054 -28.1655
0.499537 96.060 -28.3249
0.503157 96.066 -28.4867
0.506803 96.072 -28.6510
0.510475 96.078 -28.8177
0.514174 96.085 -28.9869
0.517900 96.091 -29.1585
0.521653 96.097 -29.3325
0.525433 96.104 -29.5090
0.529241 96.110 -29.6877
0.533076 96.117 -29.8689
0.536939 96.123 -30.0524
0.540830 96.130 -30.2382
0.544749 96.137 -30.4263
0.548696 96.143 -30.6166
0.552673 96.150 -30.8092
0.556677 96.157 -31.0040
0.560711 96.164 -31.2010
0.564774 96.171 -31.4001
0.568867 96.178 -31.6013
0.572989 96.184 -31.8046
0.577141 96.192 -32.0100
0.581324 96.199 -32.2173
0.585536 96.206 -32.4265
0.589779 96.213 -32.6377
0.594053 96.220 -32.8507
0.598358 96.228 -33.0655
0.602694 96.235 -33.2821
0.607061 96.242 -33.5003
0.611460 96.250 -33.7202
0.615891 96.257 -33.9416
0.620354 96.265 -34.1646
0.624849 96.272 -34.3890
0.629377 96.280 -34.6148
0.633938 96.288 -34.8419
0.638532 96.296 -35.0703
0.643159 96.303 -35.2998
0.647819 96.311 -35.5304
0.652514 96.319 -35.7620
0.657242 96.327 -35.9946
0.662005 96.335 -36.2279
0.666802 96.344 -36.4621
0.671634 96.352 -36.6969
0.676501 96.360 -36.9322
0.681403 96.368 -37.1681
0.686341 96.377 -37.4043
0.691314 96.385 -37.6408
0.696324 96.394 -37.8775
0.701369 96.402 -38.1143
0.706452 96.411 -38.3512
0.711571 96.420 -38.5881
0.716727 96.429 -38.8250
0.721921 96.438 -39.0621
0.727153 96.447 -39.2996
0.732422 96.457 -39.5378
0.737729 96.468 -39.7771
0.743075 96.478 -40.0179
0.748460 96.489 -40.2608
0.753883 96.501 -40.5058
0.759346 96.512 -40.7533
0.764849 96.524 -41.0032
0.770391 96.536 -41.2556
0.775974 96.548 -41.5105
0.781597 96.561 -41.7679
0.787261 96.573 -42.0278
0.792965 96.586 -42.2901
0.798712 96.599 -42.5548
0.804499 96.612 -42.8218
0.810329 96.625 -43.0912
0.816201 96.638 -43.3627
0.822116 96.652 -43.6364
0.828073 96.666 -43.9123
0.834073 96.680 -44.1902
0.840118 96.694 -44.4701
0.846205 96.708 -44.7520
0.852337 96.722 -45.0357
0.858514 96.737 -45.3212
0.864735 96.752 -45.6084
0.871001 96.767 -45.8973
0.877313 96.782 -46.1877
0.883670 96.798 -46.4796
0.890074 96.813 -46.7730
0.896523 96.829 -47.0676
0.903020 96.845 -47.3635
0.909564 96.861 -47.6605
0.916155 96.878 -47.9586
0.922793 96.894 -48.2577
0.929480 96.911 -48.5576
0.936216 96.928 -48.8583
0.943000 96.945 -49.1596
0.949833 96.963 -49.4615
0.956716 96.980 -49.7638
0.963649 96.998 -50.0665
0.970632 97.016 -50.3694
0.977666 97.034 -50.6725
0.984750 97.053 -50.9755
0.991886 97.072 -51.2784
0.999074 97.090 -51.5811
1.006313 97.110 -51.8835
1.013605 97.129 -52.1853
1.020950 97.149 -52.4866
1.028349 97.168 -52.7871
1.035801 97.188 -53.0868
1.043306 97.209 -53.3855
1.050867 97.229 -53.6831
1.058482 97.250 -53.9794
1.066152 97.271 -54.2743
1.073878 97.292 -54.5678
1.081659 97.314 -54.8598
1.089498 97.335 -55.1501
1.097393 97.357 -55.4387
1.105345 97.379 -55.7257
1.113355 97.402 -56.0112
1.121422 97.425 -56.2951
1.129549 97.448 -56.5777
1.137734 97.471 -56.8589
1.145978 97.495 -57.1388
1.154283 97.519 -57.4176
1.162647 97.543 -57.6953
1.171072 97.568 -57.9720
1.179558 97.593 -58.2479
1.188106 97.618 -58.5229
1.196715 97.644 -58.7973
1.205387 97.670 -59.0710
1.214122 97.696 -59.3442
1.222920 97.723 -59.6171
1.231781 97.750 -59.8897
1.240708 97.777 -60.1620
1.249698 97.805 -60.4343
1.258754 97.832 -60.7066
1.267875 97.861 -60.9791
1.277063 97.889 -61.2518
1.286317 97.918 -61.5249
1.295638 97.947 -61.7985
1.305027 97.977 -62.0727
1.314484 98.007 -62.3476
1.324009 98.037 -62.6234
1.333603 98.067 -62.9002
1.343267 98.098 -63.1780
1.353001 98.129 -63.4571
1.362805 98.161 -63.7376
1.372681 98.192 -64.0195
1.382628 98.224 -64.3031
1.392647 98.257 -64.5884
1.402739 98.289 -64.8755
1.412904 98.322 -65.1646
1.423142 98.356 -65.4557
1.433455 98.389 -65.7488
1.443842 98.423 -66.0439
1.454305 98.458 -66.3408
1.464843 98.492 -66.6392
1.475458 98.527 -66.9389
1.486150 98.563 -67.2396
1.496919 98.599 -67.5409
1.507766 98.635 -67.8426
1.518692 98.672 -68.1447
1.529697 98.709 -68.4471
1.540782 98.747 -68.7498
1.551947 98.785 -69.0529
1.563193 98.824 -69.3564
1.574521 98.863 -69.6604
1.585931 98.903 -69.9649
1.597423 98.943 -70.2700
1.608998 98.983 -70.5759
1.620658 99.024 -70.8827
1.632402 99.065 -71.1903
1.644231 99.107 -71.4991
1.656146 99.148 -71.8090
1.668147 99.191 -72.1202
1.680235 99.233 -72.4328
1.692410 99.276 -72.7470
1.704674 99.319 -73.0629
1.717027 99.363 -73.3807
1.729469 99.406 -73.7004
1.742002 99.450 -74.0224
1.754625 99.494 -74.3466
1.767340 99.539 -74.6734
1.780147 99.583 -75.0027
1.793046 99.628 -75.3348
1.806040 99.673 -75.6697
1.819127 99.718 -76.0075
1.832309 99.763 -76.3481
1.845587 99.809 -76.6913
1.858961 99.855 -77.0372
1.872431 99.902 -77.3854
1.886000 99.948 -77.7359
1.899666 99.996 -78.0887
1.913432 100.043 -78.4435
1.927298 100.091 -78.8004
1.941264 100.139 -79.1594
1.955331 100.188 -79.5203
1.969500 100.237 -79.8832
1.983772 100.286 -80.2480
1.998147 100.335 -80.6148
2.012626 100.385 -80.9835
2.027211 100.434 -81.3542
2.041901 100.484 -81.7268
2.056697 100.534 -82.1014
2.071601 100.584 -82.4781
2.086613 100.634 -82.8569
2.101733 100.684 -83.2378
2.116963 100.734 -83.6210
2.132303 100.783 -84.0064
2.147755 100.833 -84.3945
2.163318 100.882 -84.7852
2.178995 100.932 -85.1788
2.194785 100.981 -85.5758
2.210689 101.030 -85.9763
2.226709 101.079 -86.3806
2.242844 101.128 -86.7888
2.259097 101.177 -87.2010
2.275467 101.226 -87.6170
2.291956 101.275 -88.0365
2.308565 101.324 -88.4594
2.325294 101.373 -88.8852
2.342144 101.422 -89.3137
2.359116 101.470 -89.7446
2.376211 101.518 -90.1774
2.393430 101.567 -90.6120
2.410774 101.615 -91.0479
2.428243 101.662 -91.4848
2.445839 101.709 -91.9225
2.463562 101.756 -92.3608
2.481415 101.803 -92.7993
2.499396 101.849 -93.2382
2.517508 101.894 -93.6773
2.535750 101.939 -94.1170
2.554126 101.984 -94.5577
2.572634 102.028 -95.0001
2.591276 102.071 -95.4450
2.610054 102.114 -95.8927
2.628967 102.156 -96.3437
2.648018 102.198 -96.7978
2.667206 102.239 -97.2548
2.686534 102.280 -97.7142
2.706002 102.320 -98.1754
2.725610 102.359 -98.6378
2.745361 102.398 -99.1007
2.765255 102.436 -99.5633
2.785294 102.474 -100.0250
2.805477 102.511 -100.4849
2.825807 102.548 -100.9424
2.846284 102.584 -101.3970
2.866909 102.619 -101.8481
2.887684 102.654 -102.2956
2.908609 102.688 -102.7396
2.929686 102.721 -103.1806
2.950916 102.753 -103.6192
2.972299 102.785 -104.0563
2.993838 102.816 -104.4924
3.015532 102.846 -104.9278
3.037384 102.875 -105.3623
3.059394 102.903 -105.7956
3.081564 102.930 -106.2272
3.103894 102.957 -106.6565
3.126386 102.983 -107.0826
3.149041 103.009 -107.5047
3.171861 103.034 -107.9220
3.194845 103.059 -108.3336
3.217996 103.083 -108.7387
3.241315 103.107 -109.1367
3.264803 103.131 -109.5270
3.288461 103.155 -109.9095
3.312291 103.178 -110.2841
3.336293 103.200 -110.6514
3.360469 103.222 -111.0116
3.384820 103.243 -111.3650
3.409348 103.264 -111.7120
3.434054 103.284 -112.0527
3.458938 103.304 -112.3870
3.484003 103.324 -112.7150
3.509250 103.344 -113.0364
3.534679 103.365 -113.3513
3.560293 103.385 -113.6592
3.586092 103.406 -113.9598
3.612079 103.428 -114.2527
3.638253 103.450 -114.5374
3.664618 103.473 -114.8133
3.691173 103.497 -115.0800
3.717921 103.521 -115.3374
3.744862 103.545 -115.5855
3.771999 103.571 -115.8250
3.799332 103.596 -116.0566
3.826864 103.623 -116.2814
3.854595 103.650 -116.5004
3.882527 103.679 -116.7149
3.910661 103.708 -116.9258
3.938999 103.739 -117.1340
3.967543 103.771 -117.3401
3.996294 103.805 -117.5443
4.025252 103.840 -117.7463
4.054421 103.877 -117.9456
4.083801 103.915 -118.1416
4.113394 103.956 -118.3342
4.143201 103.997 -118.5242
4.173225 104.041 -118.7125
4.203466 104.085 -118.9008
4.233926 104.131 -119.0908
4.264606 104.178 -119.2843
4.295509 104.227 -119.4832
4.326636 104.276 -119.6889
4.357989 104.327 -119.9023
4.389569 104.379 -120.1240
4.421378 104.432 -120.3537
4.453417 104.487 -120.5910
4.485688 104.542 -120.8357
4.518193 104.599 -121.0878
4.550934 104.657 -121.3476
4.583912 104.716 -121.6158
4.617129 104.775 -121.8933
4.650587 104.834 -122.1811
4.684287 104.894 -122.4800
4.718231 104.953 -122.7911
4.752421 105.011 -123.1149
4.786859 105.070 -123.4518
4.821547 105.128 -123.8017
4.856485 105.185 -124.1641
4.891677 105.243 -124.5383
4.927125 105.299 -124.9233
4.962829 105.355 -125.3182
4.998791 105.410 -125.7221
5.035015 105.463 -126.1346
5.071500 105.515 -126.5553
5.108251 105.565 -126.9845
5.145267 105.613 -127.4224
5.182552 105.659 -127.8695
5.220107 105.704 -128.3253
5.257934 105.746 -128.7891
5.296035 105.787 -129.2591
5.334412 105.825 -129.7335
5.373067 105.862 -130.2102
5.412003 105.896 -130.6875
5.451221 105.928 -131.1642
5.490722 105.957 -131.6396
5.530510 105.984 -132.1140
5.570587 106.009 -132.5874
5.610953 106.031 -133.0594
5.651613 106.051 -133.5290
5.692567 106.069 -133.9946
5.733818 106.085 -134.4542
5.775367 106.099 -134.9059
5.817218 106.111 -135.3480
5.859372 106.122 -135.7794
5.901831 106.130 -136.1997
5.944598 106.138 -136.6088
5.987675 106.143 -137.0070
6.031065 106.148 -137.3940
6.074768 106.151 -137.7696
6.118788 106.154 -138.1331
6.163127 106.156 -138.4839
6.207788 106.158 -138.8213
6.252772 106.161 -139.1449
6.298082 106.163 -139.4548
6.343721 106.166 -139.7513
6.389690 106.169 -140.0359
6.435992 106.173 -140.3099
6.482630 106.178 -140.5749
6.529606 106.184 -140.8322
6.576922 106.191 -141.0826
6.624581 106.200 -141.3269
6.672585 106.211 -141.5656
6.720938 106.223 -141.8000
6.769640 106.237 -142.0318
6.818696 106.252 -142.2635
6.868107 106.269 -142.4974
6.917876 106.287 -142.7357
6.968006 106.307 -142.9800
7.018499 106.328 -143.2312
7.069358 106.351 -143.4899
7.120586 106.374 -143.7570
7.172184 106.399 -144.0334
7.224157 106.424 -144.3204
7.276506 106.448 -144.6192
7.329235 106.473 -144.9306
7.382345 106.498 -145.2551
7.435841 106.522 -145.5924
7.489724 106.545 -145.9418
7.543997 106.568 -146.3024
7.598664 106.589 -146.6734
7.653728 106.609 -147.0539
7.709189 106.627 -147.4434
7.765053 106.643 -147.8411
7.821322 106.657 -148.2459
7.877998 106.669 -148.6561
7.935086 106.678 -149.0695
7.992587 106.686 -149.4840
8.050504 106.692 -149.8978
8.108841 106.695 -150.3097
8.167601 106.696 -150.7185
8.226787 106.695 -151.1228
8.286402 106.693 -151.5211
8.346449 106.688 -151.9117
8.406931 106.683 -152.2929
8.467851 106.676 -152.6638
8.529212 106.669 -153.0237
8.591018 106.660 -153.3725
8.653272 106.652 -153.7101
8.715977 106.643 -154.0366
8.779137 106.635 -154.3521
8.842754 106.628 -154.6567
8.906833 106.621 -154.9512
8.971375 106.615 -155.2367
9.036386 106.611 -155.5149
9.101867 106.608 -155.7874
9.167823 106.606 -156.0556
9.234257 106.607 -156.3211
9.301172 106.609 -156.5852
9.368572 106.612 -156.8495
9.436460 106.617 -157.1159
9.504841 106.623 -157.3861
9.573717 106.631 -157.6613
9.643092 106.640 -157.9425
9.712970 106.650 -158.2303
9.783354 106.660 -158.5251
9.854248 106.671 -158.8276
9.925656 106.683 -159.1377
9.997581 106.694 -159.4555
10.070028 106.705 -159.7803
10.143000 106.716 -160.1113
10.216500 106.727 -160.4477
10.290533 106.737 -160.7885
10.365103 106.746 -161.1329
10.440212 106.754 -161.4797
10.515866 106.762 -161.8277
10.592069 106.769 -162.1758
10.668823 106.776 -162.5230
10.746134 106.782 -162.8683
10.824005 106.787 -163.2112
10.902440 106.793 -163.5511
10.981443 106.797 -163.8873
11.061020 106.802 -164.2197
11.141172 106.807 -164.5480
11.221906 106.812 -164.8723
11.303225 106.817 -165.1928
11.385133 106.822 -165.5096
11.467634 106.827 -165.8230
11.550734 106.832 -166.1333
11.634435 106.838 -166.4407
11.718742 106.844 -166.7455
11.803661 106.850 -167.0479
11.889195 106.856 -167.3480
11.975349 106.862 -167.6457
12.062128 106.869 -167.9412
12.149535 106.875 -168.2342
12.237576 106.881 -168.5246
12.326254 106.887 -168.8124
12.415575 106.894 -169.0972
12.505544 106.900 -169.3791
12.596164 106.906 -169.6579
12.687441 106.912 -169.9336
12.779379 106.918 -170.2065
12.871984 106.924 -170.4767
12.965260 106.930 -170.7445
13.059211 106.936 -171.0104
13.153843 106.943 -171.2747
13.249161 106.949 -171.5380
13.345170 106.955 -171.8007
13.441875 106.961 -172.0632
13.539280 106.967 -172.3257
13.637391 106.972 -172.5884
13.736214 106.977 -172.8513
13.835752 106.981 -173.1142
13.936011 106.985 -173.3769
14.036998 106.988 -173.6389
14.138716 106.990 -173.8997
14.241171 106.991 -174.1590
14.344368 106.991 -174.4160
14.448313 106.991 -174.6707
14.553011 106.990 -174.9229
14.658468 106.989 -175.1726
14.764689 106.987 -175.4203
14.871680 106.985 -175.6665
14.979446 106.983 -175.9122
15.087994 106.981 -176.1586
15.197328 106.979 -176.4068
15.307454 106.976 -176.6581
15.418378 106.974 -176.9137
15.530106 106.970 -177.1745
15.642643 106.966 -177.4413
15.755996 106.962 -177.7142
15.870171 106.955 -177.9930
15.985172 106.948 -178.2769
16.101007 106.939 -178.5647
16.217682 106.928 -178.8547
16.335201 106.915 -179.1451
16.453573 106.901 -179.4337
16.572803 106.885 -179.7186
16.692898 106.868 -179.9980
16.813862 106.849 179.7295
16.935701 106.830 179.4645
17.058424 106.811 179.2073
17.182035 106.793 178.9570
17.306543 106.775 178.7124
17.431953 106.758 178.4714
17.558273 106.742 178.2316
17.685509 106.728 177.9905
17.813665 106.715 177.7454
17.942751 106.703 177.4943
18.072771 106.692 177.2354
18.203733 106.682 176.9679
18.335646 106.672 176.6915
18.468513 106.661 176.4070
18.602345 106.650 176.1159
18.737144 106.638 175.8201
18.872921 106.626 175.5219
19.009682 106.612 175.2234
19.147434 106.598 174.9268
19.286184 106.584 174.6335
19.425940 106.571 174.3441
19.566708 106.557 174.0588
19.708496 106.544 173.7765
19.851313 106.532 173.4958
19.995163 106.521 173.2149
20.140057 106.511 172.9317
20.285999 106.501 172.6446
20.433001 106.491 172.3523
20.581066 106.481 172.0547
20.730206 106.470 171.7524
20.880424 106.458 171.4471
21.031733 106.444 171.1417
21.184137 106.429 170.8393
21.337646 106.411 170.5437
21.492268 106.391 170.2584
21.648010 106.370 169.9867
21.804880 106.347 169.7307
21.962887 106.324 169.4917
22.122040 106.301 169.2695
22.282345 106.279 169.0629
22.443811 106.257 168.8697
22.606449 106.236 168.6870
22.770266 106.217 168.5117
22.935268 106.199 168.3408
23.101467 106.182 168.1717
23.268869 106.166 168.0025
23.437485 106.151 167.8320
23.607323 106.135 167.6594
23.778391 106.121 167.4841
23.950699 106.106 167.3055
24.124256 106.092 167.1226
24.299070 106.078 166.9338
24.475151 106.065 166.7371
24.652508 106.052 166.5302
24.831150 106.039 166.3111
25.011087 106.025 166.0783
25.192327 106.011 165.8316
25.374882 105.995 165.5721
25.558758 105.976 165.3027
25.743967 105.956 165.0272
25.930519 105.932 164.7503
26.118422 105.907 164.4769
26.307686 105.880 164.2108
26.498322 105.851 163.9547
26.690340 105.823 163.7096
26.883749 105.794 163.4749
27.078560 105.767 163.2489
27.274782 105.740 163.0294
27.472427 105.715 162.8146
27.671503 105.691 162.6038
27.872023 105.668 162.3971
28.073996 105.645 162.1957
28.277431 105.624 162.0010
28.482342 105.604 161.8133
28.688736 105.586 161.6318
28.896626 105.570 161.4537
29.106022 105.557 161.2745
29.316936 105.547 161.0895
29.529379 105.538 160.8940
29.743361 105.530 160.6855
29.958893 105.523 160.4635
30.175987 105.514 160.2301
30.394655 105.504 159.9885
30.614908 105.492 159.7418
30.836756 105.479 159.4915
31.060211 105.465 159.2364
31.285286 105.449 158.9731
31.511992 105.433 158.6971
31.740341 105.413 158.4053
31.970345 105.389 158.0984
32.202015 105.359 157.7829
32.435364 105.322 157.4703
32.670403 105.277 157.1763
32.907146 105.225 156.9168
33.145607 105.169 156.7036
33.385796 105.111 156.5406
33.627724 105.056 156.4221
33.871403 105.005 156.3333
34.116848 104.959 156.2546
34.364071 104.918 156.1674
34.613087 104.879 156.0599
34.863907 104.839 155.9309
35.116547 104.796 155.7900
35.371017 104.749 155.6541
35.627331 104.699 155.5412
35.885502 104.649 155.4637
36.145542 104.603 155.4232
36.407467 104.563 155.4084
36.671291 104.532 155.3987
36.937027 104.509 155.3690
37.204689 104.493 155.2981
37.474289 104.481 155.1747
37.745842 104.468 154.9996
38.019363 104.452 154.7843
38.294868 104.432 154.5460
38.572369 104.407 154.3020
38.851879 104.379 154.0646
39.133415 104.349 153.8391
39.416992 104.320 153.6245
39.702625 104.290 153.4163
39.990326 104.261 153.2102
40.280113 104.232 153.0044
40.571999 104.202 152.8000
40.866001 104.171 152.6000
41.162132 104.139 152.4081
41.460411 104.106 152.2269
41.760849 104.073 152.0587
42.063465 104.040 151.9054
42.368275 104.007 151.7682
42.675293 103.975 151.6464
42.984535 103.945 151.5362
43.296021 103.918 151.4296
43.609760 103.893 151.3168
43.925774 103.869 151.1899
44.244080 103.844 151.0471
44.564690 103.816 150.8933
44.887623 103.784 150.7380
45.212898 103.749 150.5892
45.540531 103.711 150.4499
45.870537 103.671 150.3177
46.202934 103.627 150.1906
46.537739 103.580 150.0725
46.874969 103.526 149.9757
47.214645 103.469 149.9153
47.556782 103.410 149.8991
47.901398 103.352 149.9210
48.248512 103.297 149.9648
48.598141 103.245 150.0180
48.950302 103.192 150.0842
49.305016 103.140 150.1828
49.662300 103.093 150.3310
50.022175 103.057 150.5183
50.384655 103.041 150.6935
50.749763 103.044 150.7800
51.117516 103.057 150.7140
51.487934 103.068 150.4809
51.861038 103.065 150.1236
52.236843 103.044 149.7170
52.615372 103.009 149.3279
52.996643 102.970 148.9844
53.380680 102.932 148.6744
53.767498 102.897 148.3706
54.157120 102.863 148.0605
54.549564 102.826 147.7576
54.944855 102.787 147.4886
55.343006 102.750 147.2708
55.744045 102.717 147.0998
56.147991 102.691 146.9563
56.554863 102.670 146.8203
56.964684 102.652 146.6805
57.377472 102.634 146.5320
57.793251 102.615 146.3700
58.212044 102.591 146.1918
58.633873 102.558 146.0049
59.058758 102.513 145.8320
59.486721 102.457 145.7030
59.917786 102.395 145.6358
60.351974 102.332 145.6209
60.789310 102.274 145.6220
61.229816 102.222 145.5936
61.673512 102.172 145.5037
62.120422 102.123 145.3445
62.570572 102.073 145.1259
63.023983 102.025 144.8587
63.480682 101.980 144.5437
63.940689 101.943 144.1723
64.404030 101.912 143.7372
64.870728 101.888 143.2390
65.340805 101.868 142.6814
65.814293 101.849 142.0648
66.291214 101.824 141.3947
66.771591 101.782 140.7107
67.255447 101.711 140.1143
67.742805 101.610 139.7580
68.233696 101.490 139.7830
68.728142 101.380 140.2315
69.226173 101.305 140.9991
69.727814 101.276 141.8770
70.233093 101.283 142.6616
70.742035 101.307 143.2413
71.254662 101.328 143.6058
71.771004 101.335 143.8024
72.291084 101.322 143.8912
72.814934 101.292 143.9194
73.342583 101.250 143.9133
73.874054 101.200 143.8828
74.409378 101.146 143.8345
74.948578 101.090 143.7834
75.491684 101.036 143.7506
