* Measurement data measured by REW V5.31
* Source: EXCL: Microphone (USB Sound Device        ), MICROPHONE (Master Volume), L, volume: 0.560
* Format: 256k Log Swept Sine, 1 sweep at 0.0 dBFS with no timing reference
* Dated: Apr 20, 2024 12:57:39 AM
* REW Settings:
*  C-weighting compensation: Off
*  Target level: 75.0 dB
* Note: TinHifi P1 MAX 2
* Measurement: R TinHifi P1Max II
* Smoothing: 1/12 octave
* Frequency Step: 96 ppo
* Start Frequency: 0.36621094 Hz
*
* Freq(Hz) SPL(dB) Phase(degrees)
0.366211 79.315 -175.7436
0.368865 79.321 -175.7552
0.371538 79.330 -175.7725
0.374230 79.342 -175.7938
0.376942 79.354 -175.8180
0.379673 79.368 -175.8440
0.382424 79.382 -175.8713
0.385196 79.396 -175.8994
0.387987 79.411 -175.9282
0.390798 79.426 -175.9575
0.393630 79.441 -175.9872
0.396483 79.456 -176.0174
0.399356 79.471 -176.0479
0.402250 79.487 -176.0789
0.405165 79.502 -176.1104
0.408101 79.518 -176.1422
0.411058 79.534 -176.1745
0.414037 79.550 -176.2072
0.417037 79.566 -176.2404
0.420059 79.582 -176.2740
0.423103 79.598 -176.3082
0.426169 79.614 -176.3428
0.429257 79.631 -176.3779
0.432368 79.647 -176.4135
0.435501 79.664 -176.4497
0.438656 79.681 -176.4864
0.441835 79.698 -176.5236
0.445037 79.715 -176.5614
0.448262 79.732 -176.5998
0.451510 79.749 -176.6387
0.454782 79.767 -176.6783
0.458077 79.784 -176.7185
0.461397 79.802 -176.7593
0.464740 79.820 -176.8007
0.468108 79.838 -176.8428
0.471500 79.856 -176.8856
0.474917 79.874 -176.9291
0.478358 79.892 -176.9733
0.481825 79.911 -177.0182
0.485316 79.930 -177.0639
0.488833 79.948 -177.1103
0.492375 79.967 -177.1575
0.495943 79.986 -177.2055
0.499537 80.005 -177.2543
0.503157 80.025 -177.3039
0.506803 80.044 -177.3544
0.510475 80.064 -177.4058
0.514175 80.083 -177.4580
0.517900 80.103 -177.5112
0.521653 80.123 -177.5653
0.525434 80.143 -177.6204
0.529241 80.164 -177.6765
0.533076 80.184 -177.7336
0.536939 80.205 -177.7917
0.540830 80.225 -177.8509
0.544749 80.246 -177.9112
0.548696 80.267 -177.9726
0.552673 80.288 -178.0351
0.556677 80.310 -178.0989
0.560711 80.331 -178.1638
0.564774 80.353 -178.2299
0.568867 80.375 -178.2973
0.572989 80.397 -178.3660
0.577141 80.419 -178.4360
0.581324 80.441 -178.5074
0.585536 80.464 -178.5802
0.589779 80.486 -178.6544
0.594053 80.509 -178.7300
0.598358 80.532 -178.8072
0.602694 80.555 -178.8859
0.607061 80.578 -178.9662
0.611460 80.602 -179.0481
0.615891 80.625 -179.1317
0.620354 80.649 -179.2170
0.624849 80.673 -179.3040
0.629377 80.697 -179.3929
0.633938 80.721 -179.4836
0.638532 80.746 -179.5761
0.643159 80.771 -179.6707
0.647819 80.795 -179.7672
0.652514 80.820 -179.8658
0.657242 80.846 -179.9664
0.662005 80.871 179.9307
0.666802 80.897 179.8257
0.671634 80.922 179.7183
0.676501 80.948 179.6086
0.681403 80.974 179.4965
0.686341 81.001 179.3819
0.691314 81.027 179.2647
0.696324 81.054 179.1450
0.701370 81.081 179.0225
0.706452 81.108 178.8972
0.711571 81.135 178.7691
0.716728 81.162 178.6380
0.721921 81.189 178.5040
0.727153 81.216 178.3668
0.732422 81.242 178.2265
0.737729 81.269 178.0829
0.743075 81.295 177.9361
0.748460 81.320 177.7860
0.753883 81.346 177.6326
0.759346 81.372 177.4760
0.764849 81.397 177.3161
0.770391 81.423 177.1530
0.775974 81.449 176.9866
0.781597 81.475 176.8171
0.787261 81.501 176.6445
0.792966 81.528 176.4688
0.798712 81.554 176.2900
0.804500 81.580 176.1081
0.810329 81.607 175.9233
0.816201 81.634 175.7355
0.822116 81.660 175.5447
0.828073 81.687 175.3511
0.834074 81.714 175.1547
0.840118 81.741 174.9554
0.846206 81.768 174.7534
0.852338 81.795 174.5487
0.858514 81.823 174.3413
0.864735 81.850 174.1312
0.871001 81.877 173.9186
0.877313 81.905 173.7034
0.883670 81.932 173.4857
0.890074 81.960 173.2656
0.896524 81.987 173.0430
0.903020 82.015 172.8181
0.909564 82.042 172.5907
0.916155 82.070 172.3611
0.922794 82.097 172.1292
0.929481 82.125 171.8951
0.936216 82.152 171.6588
0.943000 82.180 171.4204
0.949834 82.208 171.1798
0.956717 82.235 170.9372
0.963649 82.262 170.6924
0.970632 82.290 170.4457
0.977666 82.317 170.1970
0.984750 82.344 169.9463
0.991886 82.372 169.6937
0.999074 82.399 169.4391
1.006314 82.426 169.1826
1.013606 82.453 168.9243
1.020951 82.479 168.6641
1.028349 82.506 168.4019
1.035801 82.532 168.1380
1.043307 82.559 167.8721
1.050867 82.585 167.6043
1.058482 82.611 167.3346
1.066152 82.636 167.0627
1.073878 82.662 166.7887
1.081660 82.687 166.5120
1.089498 82.712 166.2324
1.097393 82.737 165.9493
1.105345 82.761 165.6620
1.113355 82.786 165.3699
1.121423 82.810 165.0724
1.129549 82.834 164.7691
1.137734 82.857 164.4600
1.145979 82.881 164.1448
1.154283 82.904 163.8237
1.162647 82.927 163.4968
1.171072 82.950 163.1642
1.179558 82.972 162.8261
1.188106 82.995 162.4826
1.196715 83.017 162.1339
1.205387 83.039 161.7803
1.214122 83.060 161.4220
1.222920 83.081 161.0592
1.231782 83.103 160.6921
1.240708 83.123 160.3210
1.249699 83.144 159.9460
1.258754 83.164 159.5677
1.267876 83.184 159.1861
1.277063 83.203 158.8015
1.286318 83.223 158.4143
1.295639 83.242 158.0248
1.305027 83.261 157.6333
1.314484 83.279 157.2401
1.324009 83.297 156.8456
1.333604 83.315 156.4500
1.343268 83.332 156.0539
1.353002 83.349 155.6575
1.362806 83.366 155.2612
1.372681 83.382 154.8655
1.382628 83.399 154.4707
1.392647 83.414 154.0771
1.402739 83.430 153.6853
1.412904 83.444 153.2955
1.423142 83.459 152.9079
1.433455 83.473 152.5225
1.443843 83.487 152.1394
1.454305 83.500 151.7580
1.464844 83.513 151.3775
1.475459 83.525 150.9969
1.486150 83.537 150.6151
1.496920 83.548 150.2313
1.507767 83.559 149.8446
1.518693 83.569 149.4549
1.529698 83.578 149.0620
1.540783 83.586 148.6658
1.551948 83.594 148.2666
1.563194 83.602 147.8644
1.574521 83.608 147.4596
1.585931 83.615 147.0523
1.597423 83.620 146.6429
1.608999 83.625 146.2318
1.620658 83.629 145.8191
1.632402 83.633 145.4054
1.644232 83.637 144.9909
1.656146 83.639 144.5762
1.668147 83.642 144.1617
1.680235 83.643 143.7477
1.692411 83.644 143.3349
1.704675 83.645 142.9238
1.717028 83.646 142.5148
1.729470 83.646 142.1085
1.742003 83.645 141.7056
1.754626 83.644 141.3066
1.767341 83.643 140.9120
1.780147 83.641 140.5224
1.793047 83.639 140.1381
1.806040 83.637 139.7592
1.819128 83.634 139.3856
1.832310 83.630 139.0170
1.845587 83.626 138.6524
1.858961 83.621 138.2913
1.872432 83.615 137.9328
1.886001 83.608 137.5765
1.899667 83.600 137.2222
1.913433 83.591 136.8698
1.927299 83.581 136.5193
1.941265 83.571 136.1710
1.955332 83.560 135.8250
1.969501 83.548 135.4818
1.983773 83.536 135.1415
1.998148 83.523 134.8047
2.012627 83.510 134.4719
2.027212 83.496 134.1434
2.041902 83.483 133.8199
2.056698 83.470 133.5019
2.071602 83.456 133.1902
2.086614 83.443 132.8853
2.101734 83.430 132.5881
2.116964 83.418 132.2994
2.132304 83.407 132.0200
2.147756 83.396 131.7507
2.163320 83.385 131.4924
2.178996 83.375 131.2460
2.194786 83.366 131.0123
2.210690 83.357 130.7917
2.226710 83.348 130.5848
2.242845 83.340 130.3917
2.259098 83.331 130.2122
2.275468 83.322 130.0461
2.291957 83.313 129.8929
2.308566 83.304 129.7523
2.325295 83.296 129.6237
2.342145 83.288 129.5065
2.359117 83.281 129.4001
2.376212 83.275 129.3038
2.393431 83.270 129.2170
2.410775 83.266 129.1389
2.428244 83.264 129.0688
2.445840 83.264 129.0061
2.463564 83.266 128.9501
2.481416 83.270 128.9002
2.499397 83.277 128.8561
2.517509 83.287 128.8180
2.535752 83.300 128.7863
2.554127 83.316 128.7623
2.572635 83.335 128.7477
2.591277 83.357 128.7441
2.610055 83.381 128.7531
2.628968 83.409 128.7750
2.648019 83.440 128.8093
2.667208 83.474 128.8549
2.686535 83.510 128.9098
2.706003 83.549 128.9720
2.725612 83.591 129.0391
2.745363 83.636 129.1083
2.765257 83.683 129.1771
2.785295 83.733 129.2426
2.805478 83.786 129.3023
2.825808 83.841 129.3536
2.846285 83.899 129.3940
2.866910 83.959 129.4219
2.887685 84.023 129.4361
2.908611 84.089 129.4364
2.929688 84.159 129.4237
2.950917 84.232 129.3997
2.972301 84.308 129.3663
2.993839 84.389 129.3248
3.015534 84.473 129.2755
3.037386 84.560 129.2181
3.059396 84.651 129.1519
3.081565 84.745 129.0753
3.103896 84.841 128.9868
3.126388 84.939 128.8848
3.149043 85.040 128.7675
3.171862 85.141 128.6331
3.194847 85.243 128.4800
3.217998 85.346 128.3068
3.241317 85.449 128.1123
3.264805 85.553 127.8958
3.288463 85.656 127.6571
3.312293 85.761 127.3967
3.336295 85.866 127.1157
3.360471 85.971 126.8152
3.384822 86.078 126.4966
3.409350 86.185 126.1609
3.434056 86.294 125.8093
3.458940 86.402 125.4424
3.484005 86.511 125.0612
3.509252 86.620 124.6661
3.534681 86.728 124.2574
3.560295 86.835 123.8354
3.586094 86.941 123.3999
3.612081 87.046 122.9505
3.638255 87.149 122.4866
3.664620 87.250 122.0074
3.691175 87.350 121.5120
3.717923 87.449 121.0004
3.744864 87.546 120.4730
3.772001 87.641 119.9311
3.799335 87.736 119.3765
3.826866 87.828 118.8115
3.854597 87.920 118.2383
3.882529 88.009 117.6591
3.910664 88.098 117.0759
3.939002 88.184 116.4903
3.967546 88.268 115.9033
3.996296 88.351 115.3150
4.025255 88.431 114.7247
4.054423 88.509 114.1313
4.083804 88.585 113.5334
4.113396 88.658 112.9307
4.143204 88.730 112.3236
4.173227 88.799 111.7135
4.203468 88.866 111.1024
4.233928 88.932 110.4927
4.264609 88.996 109.8869
4.295512 89.058 109.2872
4.326639 89.119 108.6956
4.357992 89.178 108.1131
4.389572 89.236 107.5400
4.421380 89.291 106.9758
4.453419 89.346 106.4196
4.485691 89.398 105.8704
4.518196 89.449 105.3283
4.550936 89.498 104.7936
4.583914 89.547 104.2673
4.617131 89.594 103.7507
4.650589 89.641 103.2451
4.684289 89.687 102.7522
4.718233 89.734 102.2732
4.752424 89.780 101.8088
4.786862 89.826 101.3594
4.821549 89.872 100.9247
4.856488 89.918 100.5041
4.891680 89.964 100.0967
4.927127 90.010 99.7014
4.962831 90.057 99.3174
4.998794 90.104 98.9439
5.035017 90.153 98.5803
5.071503 90.203 98.2264
5.108253 90.254 97.8823
5.145270 90.307 97.5482
5.182555 90.362 97.2242
5.220110 90.418 96.9100
5.257937 90.476 96.6041
5.296038 90.536 96.3050
5.334415 90.597 96.0103
5.373071 90.660 95.7178
5.412006 90.725 95.4255
5.451224 90.791 95.1320
5.490725 90.859 94.8363
5.530514 90.930 94.5384
5.570590 91.002 94.2381
5.610957 91.076 93.9352
5.651616 91.152 93.6286
5.692570 91.228 93.3172
5.733821 91.306 92.9994
5.775370 91.385 92.6735
5.817221 91.465 92.3382
5.859375 91.545 91.9928
5.901834 91.625 91.6370
5.944602 91.706 91.2710
5.987679 91.787 90.8953
6.031068 91.869 90.5105
6.074771 91.950 90.1169
6.118792 92.030 89.7148
6.163131 92.110 89.3043
6.207792 92.189 88.8855
6.252776 92.266 88.4582
6.298086 92.343 88.0227
6.343725 92.418 87.5799
6.389694 92.492 87.1309
6.435996 92.564 86.6774
6.482634 92.635 86.2210
6.529610 92.704 85.7632
6.576926 92.772 85.3047
6.624585 92.838 84.8463
6.672590 92.902 84.3882
6.720942 92.965 83.9311
6.769645 93.025 83.4760
6.818700 93.085 83.0244
6.868111 93.143 82.5777
6.917881 93.200 82.1373
6.968010 93.255 81.7039
7.018504 93.310 81.2779
7.069362 93.364 80.8595
7.120590 93.416 80.4485
7.172189 93.468 80.0452
7.224161 93.520 79.6498
7.276511 93.572 79.2625
7.329239 93.623 78.8834
7.382350 93.675 78.5125
7.435845 93.726 78.1494
7.489729 93.778 77.7930
7.544002 93.831 77.4424
7.598669 93.884 77.0965
7.653732 93.937 76.7543
7.709194 93.992 76.4151
7.765058 94.047 76.0781
7.821327 94.103 75.7426
7.878004 94.159 75.4075
7.935091 94.216 75.0715
7.992592 94.274 74.7334
8.050510 94.332 74.3921
8.108847 94.390 74.0469
8.167607 94.449 73.6975
8.226793 94.508 73.3436
8.286408 94.567 72.9847
8.346454 94.625 72.6207
8.406936 94.683 72.2513
8.467856 94.741 71.8764
8.529218 94.798 71.4962
8.591024 94.854 71.1113
8.653278 94.909 70.7222
8.715983 94.963 70.3299
8.779143 95.016 69.9349
8.842760 95.068 69.5378
8.906839 95.118 69.1394
8.971381 95.168 68.7404
9.036392 95.216 68.3417
9.101873 95.263 67.9443
9.167829 95.309 67.5491
9.234263 95.354 67.1564
9.301178 95.398 66.7669
9.368578 95.441 66.3806
9.436467 95.484 65.9981
9.504847 95.526 65.6195
9.573723 95.567 65.2450
9.643099 95.607 64.8742
9.712976 95.647 64.5070
9.783361 95.684 64.1427
9.854255 95.720 63.7809
9.925663 95.754 63.4210
9.997588 95.785 63.0625
10.070035 95.815 62.7047
10.143007 95.843 62.3469
10.216507 95.869 61.9884
10.290540 95.893 61.6286
10.365109 95.917 61.2670
10.440219 95.940 60.9034
10.515873 95.961 60.5374
10.592076 95.982 60.1688
10.668830 96.003 59.7977
10.746141 96.023 59.4240
10.824012 96.043 59.0481
10.902447 96.061 58.6703
10.981451 96.080 58.2911
11.061027 96.097 57.9108
11.141180 96.114 57.5298
11.221913 96.130 57.1488
11.303232 96.145 56.7682
11.385140 96.160 56.3884
11.467641 96.175 56.0098
11.550741 96.189 55.6325
11.634442 96.203 55.2567
11.718750 96.217 54.8825
11.803669 96.231 54.5098
11.889203 96.245 54.1384
11.975357 96.260 53.7681
12.062136 96.274 53.3986
12.149543 96.290 53.0295
12.237583 96.305 52.6606
12.326262 96.320 52.2917
12.415583 96.336 51.9222
12.505552 96.351 51.5522
12.596172 96.367 51.1815
12.687449 96.381 50.8101
12.779387 96.396 50.4382
12.871992 96.410 50.0658
12.965268 96.424 49.6933
13.059220 96.438 49.3210
13.153852 96.451 48.9493
13.249170 96.465 48.5784
13.345179 96.478 48.2088
13.441884 96.491 47.8406
13.539289 96.504 47.4740
13.637401 96.518 47.1092
13.736223 96.531 46.7461
13.835761 96.545 46.3846
13.936021 96.558 46.0243
14.037007 96.572 45.6651
14.138725 96.585 45.3066
14.241180 96.598 44.9484
14.344377 96.612 44.5901
14.448323 96.625 44.2315
14.553021 96.638 43.8724
14.658478 96.650 43.5126
14.764700 96.663 43.1523
14.871691 96.675 42.7914
14.979457 96.687 42.4304
15.088005 96.698 42.0696
15.197339 96.709 41.7093
15.307465 96.720 41.3501
15.418389 96.730 40.9923
15.530117 96.740 40.6363
15.642655 96.750 40.2824
15.756008 96.759 39.9309
15.870182 96.767 39.5817
15.985184 96.776 39.2347
16.101019 96.784 38.8898
16.217694 96.792 38.5467
16.335214 96.800 38.2050
16.453586 96.808 37.8645
16.572815 96.816 37.5248
16.692909 96.824 37.1856
16.813872 96.832 36.8468
16.935713 96.840 36.5083
17.058436 96.849 36.1700
17.182048 96.857 35.8322
17.306556 96.865 35.4949
17.431967 96.873 35.1584
17.558286 96.880 34.8228
17.685521 96.887 34.4883
17.813677 96.894 34.1549
17.942762 96.901 33.8228
18.072783 96.907 33.4918
18.203746 96.913 33.1618
18.335658 96.919 32.8327
18.468526 96.925 32.5042
18.602356 96.931 32.1761
18.737156 96.937 31.8484
18.872934 96.943 31.5209
19.009695 96.949 31.1938
19.147447 96.955 30.8670
19.286197 96.961 30.5407
19.425953 96.966 30.2151
19.566721 96.972 29.8904
19.708510 96.977 29.5667
19.851326 96.982 29.2440
19.995177 96.987 28.9225
20.140070 96.992 28.6019
20.286013 96.996 28.2824
20.433014 97.001 27.9639
20.581080 97.005 27.6460
20.730219 97.009 27.3290
20.880439 97.013 27.0128
21.031747 97.017 26.6974
21.184152 97.021 26.3832
21.337661 97.025 26.0701
21.492282 97.029 25.7584
21.648024 97.034 25.4482
21.804895 97.038 25.1396
21.962902 97.042 24.8328
22.122054 97.046 24.5274
22.282360 97.049 24.2235
22.443827 97.053 23.9210
22.606464 97.057 23.6195
22.770280 97.060 23.3190
22.935283 97.063 23.0194
23.101481 97.066 22.7208
23.268884 97.069 22.4231
23.437500 97.072 22.1265
23.607338 97.074 21.8309
23.778406 97.075 21.5364
23.950714 97.077 21.2430
24.124271 97.078 20.9506
24.299086 97.078 20.6589
24.475167 97.079 20.3679
24.652524 97.079 20.0773
24.831166 97.078 19.7870
25.011103 97.078 19.4971
25.192344 97.077 19.2076
25.374898 97.075 18.9189
25.558775 97.073 18.6311
25.743984 97.071 18.3444
25.930536 97.069 18.0591
26.118439 97.066 17.7752
26.307704 97.063 17.4929
26.498341 97.060 17.2119
26.690359 97.057 16.9322
26.883768 97.053 16.6536
27.078579 97.050 16.3760
27.274801 97.046 16.0992
27.472446 97.042 15.8233
27.671522 97.038 15.5481
27.872042 97.034 15.2736
28.074014 97.030 14.9998
28.277450 97.025 14.7265
28.482360 97.021 14.4539
28.688755 97.016 14.1819
28.896645 97.011 13.9105
29.106042 97.006 13.6398
29.316957 97.001 13.3699
29.529400 96.996 13.1008
29.743382 96.991 12.8328
29.958915 96.986 12.5657
30.176009 96.981 12.2994
30.394677 96.976 12.0339
30.614929 96.971 11.7690
30.836778 96.966 11.5046
31.060234 96.961 11.2405
31.285309 96.956 10.9767
31.512015 96.951 10.7133
31.740364 96.946 10.4503
31.970368 96.940 10.1879
32.202039 96.934 9.9260
32.435388 96.928 9.6646
32.670428 96.922 9.4037
32.907171 96.916 9.1432
33.145630 96.909 8.8832
33.385817 96.902 8.6239
33.627745 96.895 8.3652
33.871425 96.888 8.1074
34.116871 96.880 7.8505
34.364096 96.873 7.5945
34.613113 96.865 7.3394
34.863934 96.856 7.0848
35.116572 96.848 6.8311
35.371041 96.840 6.5780
35.627354 96.831 6.3258
35.885525 96.821 6.0747
36.145566 96.812 5.8251
36.407492 96.802 5.5769
36.671316 96.792 5.3304
36.937051 96.783 5.0854
37.204712 96.772 4.8418
37.474313 96.762 4.5992
37.745867 96.752 4.3574
38.019389 96.742 4.1163
38.294893 96.731 3.8757
38.572394 96.721 3.6355
38.851905 96.710 3.3958
39.133442 96.699 3.1566
39.417019 96.688 2.9181
39.702651 96.676 2.6805
39.990353 96.664 2.4442
40.280140 96.652 2.2092
40.572026 96.640 1.9757
40.866028 96.627 1.7437
41.162160 96.614 1.5131
41.460438 96.601 1.2837
41.760877 96.588 1.0553
42.063494 96.575 0.8280
42.368303 96.561 0.6019
42.675322 96.547 0.3771
42.984565 96.533 0.1537
43.296048 96.519 -0.0685
43.609789 96.504 -0.2899
43.925804 96.490 -0.5107
44.244108 96.475 -0.7310
44.564719 96.459 -0.9501
44.887654 96.444 -1.1675
45.212928 96.428 -1.3821
45.540560 96.411 -1.5935
45.870565 96.395 -1.8018
46.202962 96.379 -2.0075
46.537768 96.363 -2.2117
46.875000 96.348 -2.4152
47.214676 96.332 -2.6183
47.556813 96.316 -2.8207
47.901429 96.301 -3.0220
48.248542 96.285 -3.2220
48.598171 96.270 -3.4210
48.950334 96.254 -3.6194
49.305048 96.239 -3.8182
49.662333 96.224 -4.0181
50.022206 96.208 -4.2194
50.384688 96.193 -4.4216
50.749796 96.176 -4.6235
51.117550 96.159 -4.8230
51.487969 96.141 -5.0175
51.861072 96.124 -5.2052
52.236879 96.106 -5.3855
52.615409 96.089 -5.5598
52.996681 96.074 -5.7310
53.380717 96.059 -5.9025
53.767536 96.045 -6.0770
54.157158 96.032 -6.2552
54.549603 96.018 -6.4363
54.944892 96.004 -6.6187
55.343045 95.991 -6.8014
55.744084 95.977 -6.9841
56.148028 95.963 -7.1676
56.554900 95.949 -7.3525
56.964720 95.935 -7.5397
57.377510 95.920 -7.7295
57.793291 95.906 -7.9219
58.212085 95.890 -8.1171
58.633914 95.874 -8.3146
59.058799 95.857 -8.5137
59.486764 95.840 -8.7131
59.917829 95.821 -8.9113
60.352019 95.801 -9.1067
60.789354 95.781 -9.2985
61.229859 95.760 -9.4863
61.673556 95.739 -9.6705
62.120468 95.718 -9.8518
62.570618 95.696 -10.0310
63.024031 95.675 -10.2088
63.480729 95.654 -10.3859
63.940736 95.632 -10.5626
64.404077 95.610 -10.7386
64.870776 95.588 -10.9134
65.340856 95.565 -11.0859
65.814343 95.542 -11.2554
66.291261 95.519 -11.4218
66.771635 95.495 -11.5851
67.255489 95.472 -11.7461
67.742850 95.449 -11.9050
68.233743 95.426 -12.0624
68.728193 95.403 -12.2187
69.226226 95.380 -12.3740
69.727867 95.358 -12.5286
70.233144 95.335 -12.6824
70.742083 95.312 -12.8356
71.254709 95.290 -12.9883
71.771050 95.267 -13.1407
72.291132 95.243 -13.2924
72.814984 95.220 -13.4425
73.342631 95.196 -13.5905
73.874102 95.171 -13.7357
74.409424 95.147 -13.8781
74.948626 95.122 -14.0178
75.491734 95.097 -14.1554
76.038779 95.073 -14.2918
76.589787 95.049 -14.4281
77.144788 95.026 -14.5653
77.703811 95.002 -14.7043
78.266885 94.979 -14.8463
78.834039 94.957 -14.9926
79.405303 94.935 -15.1442
79.980706 94.912 -15.3019
80.560280 94.889 -15.4658
81.144053 94.866 -15.6357
81.732056 94.841 -15.8107
