* Measurement data measured by REW V5.31
* Source: EXCL: Microphone (USB Sound Device        ), MICROPHONE (Master Volume), L, volume: 0.560
* Format: 256k Log Swept Sine, 1 sweep at -5.0 dBFS with no timing reference
* Dated: Apr 29, 2024 11:20:02 PM
* REW Settings:
*  C-weighting compensation: Off
*  Target level: 75.0 dB
* Note: Tipsy TTROMSO R
* Measurement: R Tipsy TTROMSO
* Smoothing: 1/12 octave
* Frequency Step: 96 ppo
* Start Frequency: 0.36621094 Hz
*
* Freq(Hz) SPL(dB) Phase(degrees)
0.366211 81.398 166.2440
0.368865 81.394 166.2271
0.371538 81.387 166.2017
0.374230 81.378 166.1699
0.376942 81.368 166.1334
0.379673 81.358 166.0933
0.382424 81.347 166.0505
0.385196 81.336 166.0055
0.387987 81.325 165.9585
0.390798 81.314 165.9099
0.393630 81.302 165.8594
0.396483 81.290 165.8074
0.399356 81.279 165.7536
0.402250 81.267 165.6982
0.405165 81.255 165.6411
0.408101 81.243 165.5824
0.411058 81.231 165.5219
0.414037 81.219 165.4597
0.417037 81.206 165.3958
0.420059 81.194 165.3301
0.423103 81.182 165.2626
0.426169 81.169 165.1934
0.429257 81.156 165.1223
0.432368 81.144 165.0495
0.435501 81.131 164.9748
0.438656 81.118 164.8982
0.441835 81.105 164.8198
0.445037 81.092 164.7395
0.448262 81.079 164.6574
0.451510 81.066 164.5733
0.454782 81.052 164.4873
0.458077 81.039 164.3993
0.461397 81.025 164.3094
0.464740 81.012 164.2176
0.468108 80.998 164.1237
0.471500 80.984 164.0279
0.474917 80.970 163.9301
0.478358 80.956 163.8303
0.481825 80.942 163.7284
0.485316 80.927 163.6245
0.488833 80.913 163.5186
0.492375 80.899 163.4106
0.495943 80.884 163.3006
0.499537 80.869 163.1885
0.503157 80.855 163.0743
0.506803 80.840 162.9581
0.510475 80.825 162.8397
0.514175 80.810 162.7193
0.517900 80.794 162.5968
0.521653 80.779 162.4722
0.525434 80.764 162.3455
0.529241 80.748 162.2166
0.533076 80.732 162.0857
0.536939 80.717 161.9527
0.540830 80.701 161.8176
0.544749 80.685 161.6803
0.548696 80.669 161.5410
0.552673 80.652 161.3996
0.556677 80.636 161.2562
0.560711 80.619 161.1106
0.564774 80.603 160.9630
0.568867 80.586 160.8134
0.572989 80.569 160.6617
0.577141 80.552 160.5079
0.581324 80.535 160.3522
0.585536 80.518 160.1945
0.589779 80.501 160.0349
0.594053 80.483 159.8732
0.598358 80.466 159.7097
0.602694 80.448 159.5443
0.607061 80.430 159.3770
0.611460 80.412 159.2078
0.615891 80.394 159.0369
0.620354 80.376 158.8642
0.624849 80.358 158.6898
0.629377 80.339 158.5136
0.633938 80.320 158.3359
0.638532 80.302 158.1565
0.643159 80.283 157.9756
0.647819 80.264 157.7933
0.652514 80.245 157.6094
0.657242 80.225 157.4242
0.662005 80.206 157.2377
0.666802 80.186 157.0500
0.671634 80.166 156.8611
0.676501 80.147 156.6711
0.681403 80.126 156.4800
0.686341 80.106 156.2881
0.691314 80.086 156.0953
0.696324 80.065 155.9017
0.701370 80.045 155.7074
0.706452 80.023 155.5124
0.711571 80.002 155.3167
0.716728 79.980 155.1203
0.721921 79.956 154.9230
0.727153 79.932 154.7243
0.732422 79.905 154.5239
0.737729 79.877 154.3210
0.743075 79.847 154.1150
0.748460 79.816 153.9052
0.753883 79.783 153.6912
0.759346 79.749 153.4727
0.764849 79.715 153.2495
0.770391 79.680 153.0214
0.775974 79.645 152.7882
0.781597 79.609 152.5499
0.787261 79.572 152.3064
0.792966 79.535 152.0577
0.798712 79.497 151.8037
0.804500 79.459 151.5443
0.810329 79.421 151.2795
0.816201 79.381 151.0093
0.822116 79.341 150.7336
0.828073 79.301 150.4524
0.834074 79.260 150.1656
0.840118 79.218 149.8731
0.846206 79.176 149.5750
0.852338 79.132 149.2713
0.858514 79.088 148.9618
0.864735 79.044 148.6465
0.871001 78.998 148.3255
0.877313 78.952 147.9987
0.883670 78.905 147.6661
0.890074 78.857 147.3277
0.896524 78.808 146.9834
0.903020 78.758 146.6333
0.909564 78.707 146.2774
0.916155 78.655 145.9157
0.922794 78.602 145.5481
0.929481 78.548 145.1748
0.936216 78.493 144.7958
0.943000 78.437 144.4110
0.949834 78.380 144.0206
0.956717 78.321 143.6245
0.963649 78.261 143.2230
0.970632 78.200 142.8159
0.977666 78.138 142.4035
0.984750 78.074 141.9857
0.991886 78.008 141.5628
0.999074 77.942 141.1349
1.006314 77.873 140.7020
1.013606 77.804 140.2643
1.020951 77.732 139.8220
1.028349 77.659 139.3753
1.035801 77.584 138.9243
1.043307 77.507 138.4693
1.050867 77.429 138.0104
1.058482 77.348 137.5477
1.066152 77.266 137.0815
1.073878 77.181 136.6116
1.081660 77.094 136.1380
1.089498 77.004 135.6602
1.097393 76.911 135.1775
1.105345 76.815 134.6888
1.113355 76.715 134.1930
1.121423 76.611 133.6889
1.129549 76.502 133.1753
1.137734 76.390 132.6513
1.145979 76.273 132.1161
1.154283 76.152 131.5690
1.162647 76.026 131.0091
1.171072 75.897 130.4357
1.179558 75.764 129.8482
1.188106 75.627 129.2457
1.196715 75.487 128.6274
1.205387 75.343 127.9925
1.214122 75.197 127.3400
1.222920 75.048 126.6690
1.231782 74.896 125.9785
1.240708 74.742 125.2674
1.249699 74.586 124.5346
1.258754 74.429 123.7788
1.267876 74.270 122.9989
1.277063 74.110 122.1934
1.286318 73.950 121.3610
1.295639 73.789 120.5001
1.305027 73.628 119.6092
1.314484 73.468 118.6866
1.324009 73.308 117.7305
1.333604 73.150 116.7391
1.343268 72.993 115.7104
1.353002 72.839 114.6424
1.362806 72.687 113.5330
1.372681 72.538 112.3800
1.382628 72.393 111.1809
1.392647 72.252 109.9335
1.402739 72.116 108.6353
1.412904 71.985 107.2834
1.423142 71.859 105.8751
1.433455 71.740 104.4071
1.443843 71.626 102.8759
1.454305 71.519 101.2770
1.464844 71.417 99.6052
1.475459 71.320 97.8546
1.486150 71.228 96.0186
1.496920 71.139 94.0907
1.507767 71.054 92.0650
1.518693 70.971 89.9358
1.529698 70.892 87.6983
1.540783 70.815 85.3486
1.551948 70.742 82.8837
1.563194 70.672 80.3019
1.574521 70.606 77.6029
1.585931 70.544 74.7883
1.597423 70.486 71.8617
1.608999 70.433 68.8287
1.620658 70.384 65.6978
1.632402 70.341 62.4797
1.644232 70.303 59.1877
1.656146 70.271 55.8373
1.668147 70.245 52.4458
1.680235 70.226 49.0319
1.692411 70.214 45.6150
1.704675 70.209 42.2141
1.717028 70.212 38.8478
1.729470 70.224 35.5332
1.742003 70.244 32.2853
1.754626 70.274 29.1167
1.767341 70.314 26.0374
1.780147 70.364 23.0545
1.793047 70.426 20.1722
1.806040 70.500 17.3920
1.819128 70.588 14.7125
1.832310 70.691 12.1305
1.845587 70.810 9.6414
1.858961 70.946 7.2408
1.872432 71.100 4.9249
1.886001 71.271 2.6908
1.899667 71.460 0.5366
1.913433 71.665 -1.5394
1.927299 71.884 -3.5388
1.941265 72.118 -5.4632
1.955332 72.363 -7.3143
1.969501 72.620 -9.0940
1.983773 72.887 -10.8043
1.998148 73.161 -12.4474
2.012627 73.441 -14.0255
2.027212 73.726 -15.5408
2.041902 74.013 -16.9958
2.056698 74.301 -18.3927
2.071602 74.589 -19.7338
2.086614 74.873 -21.0217
2.101734 75.153 -22.2584
2.116964 75.426 -23.4467
2.132304 75.691 -24.5890
2.147756 75.947 -25.6883
2.163320 76.192 -26.7479
2.178996 76.427 -27.7716
2.194786 76.651 -28.7640
2.210690 76.866 -29.7295
2.226710 77.072 -30.6726
2.242845 77.272 -31.5966
2.259098 77.466 -32.5038
2.275468 77.655 -33.3953
2.291957 77.838 -34.2716
2.308566 78.018 -35.1329
2.325295 78.193 -35.9788
2.342145 78.365 -36.8089
2.359117 78.533 -37.6228
2.376212 78.698 -38.4198
2.393431 78.859 -39.1996
2.410775 79.018 -39.9614
2.428244 79.174 -40.7049
2.445840 79.327 -41.4294
2.463564 79.478 -42.1347
2.481416 79.627 -42.8206
2.499397 79.774 -43.4872
2.517509 79.919 -44.1349
2.535752 80.062 -44.7648
2.554127 80.203 -45.3786
2.572635 80.341 -45.9786
2.591277 80.476 -46.5674
2.610055 80.608 -47.1470
2.628968 80.736 -47.7190
2.648019 80.861 -48.2841
2.667208 80.983 -48.8426
2.686535 81.101 -49.3940
2.706003 81.216 -49.9379
2.725612 81.328 -50.4735
2.745363 81.437 -51.0000
2.765257 81.544 -51.5164
2.785295 81.649 -52.0218
2.805478 81.751 -52.5152
2.825808 81.853 -52.9958
2.846285 81.952 -53.4626
2.866910 82.051 -53.9151
2.887685 82.149 -54.3532
2.908611 82.245 -54.7770
2.929688 82.340 -55.1874
2.950917 82.433 -55.5855
2.972301 82.525 -55.9727
2.993839 82.614 -56.3501
3.015534 82.701 -56.7185
3.037386 82.786 -57.0781
3.059396 82.869 -57.4290
3.081565 82.950 -57.7710
3.103896 83.029 -58.1037
3.126388 83.107 -58.4266
3.149043 83.184 -58.7391
3.171862 83.260 -59.0406
3.194847 83.336 -59.3305
3.217998 83.411 -59.6081
3.241317 83.486 -59.8727
3.264805 83.561 -60.1240
3.288463 83.636 -60.3615
3.312293 83.711 -60.5854
3.336295 83.785 -60.7957
3.360471 83.858 -60.9930
3.384822 83.931 -61.1781
3.409350 84.003 -61.3517
3.434056 84.075 -61.5148
3.458940 84.146 -61.6682
3.484005 84.217 -61.8130
3.509252 84.289 -61.9500
3.534681 84.360 -62.0800
3.560295 84.432 -62.2038
3.586094 84.505 -62.3218
3.612081 84.579 -62.4343
3.638255 84.653 -62.5412
3.664620 84.729 -62.6421
3.691175 84.806 -62.7365
3.717923 84.884 -62.8240
3.744864 84.962 -62.9048
3.772001 85.041 -62.9796
3.799335 85.121 -63.0494
3.826866 85.202 -63.1156
3.854597 85.284 -63.1799
3.882529 85.366 -63.2439
3.910664 85.449 -63.3090
3.939002 85.533 -63.3768
3.967546 85.618 -63.4482
3.996296 85.704 -63.5238
4.025255 85.791 -63.6035
4.054423 85.879 -63.6870
4.083804 85.968 -63.7738
4.113396 86.058 -63.8637
4.143204 86.150 -63.9569
4.173227 86.242 -64.0540
4.203468 86.334 -64.1561
4.233928 86.427 -64.2642
4.264609 86.521 -64.3797
4.295512 86.614 -64.5037
4.326639 86.708 -64.6372
4.357992 86.802 -64.7810
4.389572 86.895 -64.9355
4.421380 86.989 -65.1004
4.453419 87.082 -65.2757
4.485691 87.176 -65.4606
4.518196 87.269 -65.6548
4.550936 87.362 -65.8579
4.583914 87.454 -66.0694
4.617131 87.546 -66.2892
4.650589 87.638 -66.5171
4.684289 87.728 -66.7532
4.718233 87.817 -66.9976
4.752424 87.905 -67.2504
4.786862 87.992 -67.5119
4.821549 88.078 -67.7820
4.856488 88.162 -68.0604
4.891680 88.245 -68.3464
4.927127 88.327 -68.6389
4.962831 88.408 -68.9368
4.998794 88.488 -69.2390
5.035017 88.566 -69.5444
5.071503 88.643 -69.8525
5.108253 88.718 -70.1627
5.145270 88.792 -70.4751
5.182555 88.864 -70.7900
5.220110 88.934 -71.1072
5.257937 89.003 -71.4263
5.296038 89.071 -71.7466
5.334415 89.138 -72.0670
5.373071 89.203 -72.3864
5.412006 89.267 -72.7036
5.451224 89.331 -73.0179
5.490725 89.393 -73.3287
5.530514 89.454 -73.6361
5.570590 89.515 -73.9402
5.610957 89.574 -74.2410
5.651616 89.633 -74.5386
5.692570 89.691 -74.8329
5.733821 89.749 -75.1236
5.775370 89.807 -75.4102
5.817221 89.864 -75.6926
5.859375 89.922 -75.9705
5.901834 89.979 -76.2438
5.944602 90.037 -76.5127
5.987679 90.095 -76.7779
6.031068 90.153 -77.0399
6.074771 90.211 -77.2995
6.118792 90.270 -77.5576
6.163131 90.330 -77.8147
6.207792 90.390 -78.0712
6.252776 90.451 -78.3275
6.298086 90.513 -78.5836
6.343725 90.576 -78.8402
6.389694 90.640 -79.0978
6.435996 90.704 -79.3576
6.482634 90.769 -79.6204
6.529610 90.834 -79.8873
6.576926 90.901 -80.1588
6.624585 90.968 -80.4355
6.672590 91.035 -80.7174
6.720942 91.103 -81.0048
6.769645 91.172 -81.2978
6.818700 91.241 -81.5968
6.868111 91.310 -81.9021
6.917881 91.379 -82.2141
6.968010 91.448 -82.5331
7.018504 91.517 -82.8589
7.069362 91.586 -83.1914
7.120590 91.655 -83.5302
7.172189 91.724 -83.8746
7.224161 91.792 -84.2242
7.276511 91.860 -84.5784
7.329239 91.927 -84.9369
7.382350 91.993 -85.2993
7.435845 92.059 -85.6654
7.489729 92.124 -86.0343
7.544002 92.189 -86.4052
7.598669 92.253 -86.7773
7.653732 92.316 -87.1497
7.709194 92.379 -87.5219
7.765058 92.442 -87.8936
7.821327 92.504 -88.2643
7.878004 92.565 -88.6336
7.935091 92.627 -89.0012
7.992592 92.688 -89.3664
8.050510 92.749 -89.7290
8.108847 92.810 -90.0887
8.167607 92.871 -90.4455
8.226793 92.932 -90.7996
8.286408 92.993 -91.1512
8.346454 93.055 -91.5005
8.406936 93.117 -91.8478
8.467856 93.180 -92.1932
8.529218 93.243 -92.5371
8.591024 93.306 -92.8799
8.653278 93.371 -93.2222
8.715983 93.435 -93.5645
8.779143 93.500 -93.9073
8.842760 93.566 -94.2510
8.906839 93.631 -94.5959
8.971381 93.698 -94.9423
9.036392 93.764 -95.2905
9.101873 93.831 -95.6407
9.167829 93.897 -95.9932
9.234263 93.964 -96.3479
9.301178 94.031 -96.7048
9.368578 94.097 -97.0635
9.436467 94.163 -97.4239
9.504847 94.229 -97.7856
9.573723 94.294 -98.1483
9.643099 94.358 -98.5117
9.712976 94.420 -98.8752
9.783361 94.481 -99.2382
9.854255 94.539 -99.6003
9.925663 94.594 -99.9609
9.997588 94.647 -100.3196
10.070035 94.696 -100.6762
10.143007 94.744 -101.0301
10.216507 94.789 -101.3812
10.290540 94.833 -101.7292
10.365109 94.876 -102.0741
10.440219 94.917 -102.4159
10.515873 94.957 -102.7546
10.592076 94.997 -103.0906
10.668830 95.037 -103.4240
10.746141 95.076 -103.7552
10.824012 95.116 -104.0844
10.902447 95.155 -104.4122
10.981451 95.194 -104.7390
11.061027 95.233 -105.0651
11.141180 95.272 -105.3909
11.221913 95.311 -105.7167
11.303232 95.350 -106.0428
11.385140 95.388 -106.3694
11.467641 95.426 -106.6966
11.550741 95.463 -107.0245
11.634442 95.501 -107.3530
11.718750 95.538 -107.6821
11.803669 95.575 -108.0115
11.889203 95.611 -108.3412
11.975357 95.648 -108.6709
12.062136 95.684 -109.0004
12.149543 95.720 -109.3294
12.237583 95.755 -109.6578
12.326262 95.790 -109.9854
12.415583 95.825 -110.3123
12.505552 95.859 -110.6383
12.596172 95.893 -110.9636
12.687449 95.926 -111.2882
12.779387 95.959 -111.6124
12.871992 95.992 -111.9364
12.965268 96.024 -112.2604
13.059220 96.056 -112.5848
13.153852 96.088 -112.9099
13.249170 96.119 -113.2359
13.345179 96.151 -113.5632
13.441884 96.183 -113.8919
13.539289 96.215 -114.2223
13.637401 96.246 -114.5544
13.736223 96.277 -114.8882
13.835761 96.308 -115.2239
13.936021 96.339 -115.5614
14.037007 96.369 -115.9006
14.138725 96.399 -116.2414
14.241180 96.428 -116.5837
14.344377 96.457 -116.9276
14.448323 96.485 -117.2729
14.553021 96.513 -117.6196
14.658478 96.541 -117.9677
14.764700 96.568 -118.3173
14.871691 96.596 -118.6685
14.979457 96.623 -119.0213
15.088005 96.650 -119.3759
15.197339 96.677 -119.7323
15.307465 96.704 -120.0905
15.418389 96.731 -120.4505
15.530117 96.758 -120.8123
15.642655 96.784 -121.1758
15.756008 96.810 -121.5407
15.870182 96.836 -121.9070
15.985184 96.861 -122.2743
16.101019 96.887 -122.6423
16.217694 96.912 -123.0110
16.335214 96.936 -123.3799
16.453586 96.961 -123.7489
16.572815 96.986 -124.1180
16.692909 97.011 -124.4869
16.813872 97.036 -124.8558
16.935713 97.062 -125.2245
17.058436 97.088 -125.5932
17.182048 97.114 -125.9619
17.306556 97.140 -126.3305
17.431967 97.166 -126.6992
17.558286 97.192 -127.0678
17.685521 97.218 -127.4361
17.813677 97.243 -127.8040
17.942762 97.269 -128.1711
18.072783 97.294 -128.5372
18.203746 97.318 -128.9019
18.335658 97.343 -129.2648
18.468526 97.367 -129.6257
18.602356 97.391 -129.9844
18.737156 97.415 -130.3407
18.872934 97.439 -130.6946
19.009695 97.463 -131.0462
19.147447 97.487 -131.3955
19.286197 97.511 -131.7428
19.425953 97.535 -132.0883
19.566721 97.559 -132.4322
19.708510 97.582 -132.7747
19.851326 97.605 -133.1157
19.995177 97.628 -133.4553
20.140070 97.650 -133.7934
20.286013 97.672 -134.1299
20.433014 97.693 -134.4646
20.581080 97.714 -134.7973
20.730219 97.734 -135.1279
20.880439 97.754 -135.4562
21.031747 97.773 -135.7823
21.184152 97.793 -136.1064
21.337661 97.812 -136.4287
21.492282 97.832 -136.7498
21.648024 97.851 -137.0702
21.804895 97.871 -137.3905
21.962902 97.890 -137.7114
22.122054 97.910 -138.0337
22.282360 97.929 -138.3579
22.443827 97.948 -138.6847
22.606464 97.967 -139.0144
22.770280 97.985 -139.3472
22.935283 98.003 -139.6830
23.101481 98.020 -140.0216
23.268884 98.037 -140.3626
23.437500 98.052 -140.7054
23.607338 98.067 -141.0493
23.778406 98.081 -141.3935
23.950714 98.094 -141.7374
24.124271 98.107 -142.0804
24.299086 98.119 -142.4221
24.475167 98.131 -142.7625
24.652524 98.143 -143.1018
24.831166 98.155 -143.4403
25.011103 98.166 -143.7785
25.192344 98.179 -144.1171
25.374898 98.191 -144.4566
25.558775 98.203 -144.7976
25.743984 98.215 -145.1404
25.930536 98.228 -145.4850
26.118439 98.240 -145.8312
26.307704 98.251 -146.1787
26.498341 98.263 -146.5269
26.690359 98.273 -146.8752
26.883768 98.284 -147.2230
27.078579 98.294 -147.5697
27.274801 98.303 -147.9148
27.472446 98.312 -148.2579
27.671522 98.321 -148.5988
27.872042 98.329 -148.9372
28.074014 98.337 -149.2731
28.277450 98.344 -149.6064
28.482360 98.351 -149.9370
28.688755 98.358 -150.2652
28.896645 98.364 -150.5911
29.106042 98.370 -150.9149
29.316957 98.376 -151.2371
29.529400 98.381 -151.5577
29.743382 98.386 -151.8771
29.958915 98.391 -152.1954
30.176009 98.396 -152.5126
30.394677 98.401 -152.8287
30.614929 98.405 -153.1435
30.836778 98.409 -153.4570
31.060234 98.413 -153.7693
31.285309 98.417 -154.0805
31.512015 98.420 -154.3908
31.740364 98.424 -154.7006
31.970368 98.427 -155.0105
32.202039 98.431 -155.3208
32.435388 98.434 -155.6321
32.670428 98.438 -155.9447
32.907171 98.441 -156.2589
33.145630 98.445 -156.5749
33.385817 98.449 -156.8929
33.627745 98.452 -157.2129
33.871425 98.455 -157.5350
34.116871 98.458 -157.8589
34.364096 98.461 -158.1844
34.613113 98.463 -158.5112
34.863934 98.465 -158.8387
35.116572 98.467 -159.1664
35.371041 98.468 -159.4937
35.627354 98.469 -159.8203
35.885525 98.469 -160.1457
36.145566 98.468 -160.4694
36.407492 98.467 -160.7912
36.671316 98.466 -161.1107
36.937051 98.464 -161.4278
37.204712 98.462 -161.7422
37.474313 98.459 -162.0541
37.745867 98.457 -162.3635
38.019389 98.454 -162.6708
38.294893 98.451 -162.9764
38.572394 98.447 -163.2807
38.851905 98.444 -163.5840
39.133442 98.440 -163.8867
39.417019 98.436 -164.1886
39.702651 98.431 -164.4896
39.990353 98.426 -164.7896
40.280140 98.421 -165.0882
40.572026 98.416 -165.3855
40.866028 98.410 -165.6816
41.162160 98.404 -165.9768
41.460438 98.398 -166.2712
41.760877 98.392 -166.5651
42.063494 98.386 -166.8585
42.368303 98.379 -167.1512
42.675322 98.372 -167.4433
42.984565 98.365 -167.7343
43.296048 98.357 -168.0243
43.609789 98.349 -168.3132
43.925804 98.341 -168.6011
44.244108 98.333 -168.8881
44.564719 98.324 -169.1745
44.887654 98.316 -169.4605
45.212928 98.307 -169.7465
45.540560 98.298 -170.0322
45.870565 98.288 -170.3171
46.202962 98.278 -170.6005
46.537768 98.268 -170.8816
46.875000 98.258 -171.1599
47.214676 98.247 -171.4355
47.556813 98.237 -171.7095
47.901429 98.227 -171.9831
48.248542 98.218 -172.2570
48.598171 98.208 -172.5316
48.950334 98.197 -172.8062
49.305048 98.186 -173.0795
49.662333 98.175 -173.3502
50.022206 98.163 -173.6174
50.384688 98.152 -173.8805
50.749796 98.140 -174.1397
51.117550 98.127 -174.3953
51.487969 98.115 -174.6474
51.861072 98.103 -174.8965
52.236879 98.092 -175.1429
52.615409 98.080 -175.3868
52.996681 98.068 -175.6286
53.380717 98.057 -175.8685
53.767536 98.046 -176.1069
54.157158 98.036 -176.3441
54.549603 98.026 -176.5811
54.944892 98.017 -176.8190
55.343045 98.008 -177.0593
55.744084 98.000 -177.3036
56.148028 97.992 -177.5534
56.554900 97.984 -177.8093
56.964720 97.977 -178.0714
57.377510 97.968 -178.3392
57.793291 97.959 -178.6117
58.212085 97.950 -178.8876
58.633914 97.939 -179.1655
59.058799 97.927 -179.4438
59.486764 97.915 -179.7212
59.917829 97.901 -179.9966
60.352019 97.887 179.7307
60.789354 97.872 179.4609
61.229859 97.856 179.1936
61.673556 97.840 178.9286
62.120468 97.823 178.6662
62.570618 97.806 178.4066
63.024031 97.789 178.1499
63.480729 97.771 177.8961
63.940736 97.754 177.6448
64.404077 97.736 177.3953
64.870776 97.718 177.1471
65.340856 97.700 176.8997
65.814343 97.682 176.6532
66.291261 97.664 176.4074
66.771635 97.645 176.1627
67.255489 97.627 175.9190
67.742850 97.608 175.6767
68.233743 97.589 175.4358
68.728193 97.569 175.1967
69.226226 97.549 174.9592
69.727867 97.529 174.7236
70.233144 97.509 174.4897
70.742083 97.489 174.2578
71.254709 97.468 174.0284
