* Measurement data measured by REW V5.30 beta 4
* Source: EXCL: Microphone (Realtek(R) Audio), MICROPHONE (Master Volume), L, volume: 0.250
* Format: 256k Log Swept Sine, 1 sweep at -12.0 dBFS with no timing reference
* Dated: Dec 4, 2023 12:27:13 AM
* REW Settings:
*  C-weighting compensation: Off
*  Target level: 75.0 dB
* Note: 
* Measurement: Conch Black 350
* Smoothing: 1/24 octave
* Frequency Step: 96 ppo
* Start Frequency: 0.36621094 Hz
*
* Freq(Hz) SPL(dB) Phase(degrees)
0.366211 41.204 38.1477
0.368865 41.234 38.1340
0.371538 41.278 38.1151
0.374230 41.327 38.0946
0.376942 41.378 38.0744
0.379673 41.431 38.0551
0.382424 41.484 38.0369
0.385196 41.537 38.0197
0.387987 41.591 38.0036
0.390798 41.645 37.9885
0.393630 41.699 37.9745
0.396483 41.754 37.9615
0.399356 41.810 37.9494
0.402250 41.865 37.9383
0.405165 41.921 37.9281
0.408101 41.978 37.9187
0.411058 42.035 37.9102
0.414037 42.092 37.9025
0.417037 42.150 37.8955
0.420059 42.208 37.8893
0.423103 42.267 37.8837
0.426169 42.326 37.8787
0.429257 42.385 37.8744
0.432367 42.445 37.8706
0.435501 42.506 37.8672
0.438656 42.566 37.8644
0.441835 42.628 37.8619
0.445037 42.689 37.8597
0.448262 42.751 37.8579
0.451510 42.814 37.8563
0.454782 42.877 37.8549
0.458077 42.940 37.8536
0.461397 43.004 37.8523
0.464740 43.069 37.8511
0.468108 43.133 37.8499
0.471500 43.199 37.8485
0.474917 43.265 37.8470
0.478358 43.331 37.8453
0.481825 43.398 37.8432
0.485316 43.465 37.8408
0.488833 43.532 37.8380
0.492375 43.601 37.8347
0.495943 43.669 37.8309
0.499537 43.739 37.8264
0.503157 43.808 37.8213
0.506803 43.879 37.8154
0.510475 43.949 37.8087
0.514174 44.020 37.8011
0.517900 44.092 37.7925
0.521653 44.164 37.7829
0.525433 44.237 37.7722
0.529241 44.311 37.7603
0.533076 44.384 37.7471
0.536939 44.459 37.7326
0.540830 44.534 37.7168
0.544749 44.609 37.6994
0.548696 44.685 37.6805
0.552673 44.762 37.6600
0.556677 44.839 37.6377
0.560711 44.917 37.6137
0.564774 44.995 37.5879
0.568867 45.074 37.5601
0.572989 45.153 37.5303
0.577141 45.233 37.4984
0.581324 45.314 37.4644
0.585536 45.395 37.4281
0.589779 45.476 37.3896
0.594053 45.559 37.3486
0.598358 45.642 37.3051
0.602694 45.725 37.2592
0.607061 45.809 37.2106
0.611460 45.894 37.1592
0.615891 45.979 37.1051
0.620354 46.065 37.0482
0.624849 46.152 36.9883
0.629377 46.239 36.9254
0.633938 46.327 36.8594
0.638532 46.415 36.7903
0.643159 46.504 36.7179
0.647819 46.594 36.6422
0.652514 46.684 36.5631
0.657242 46.775 36.4805
0.662005 46.867 36.3943
0.666802 46.960 36.3045
0.671634 47.053 36.2110
0.676501 47.146 36.1137
0.681403 47.241 36.0126
0.686341 47.336 35.9075
0.691314 47.432 35.7984
0.696324 47.528 35.6852
0.701369 47.625 35.5678
0.706452 47.723 35.4462
0.711571 47.822 35.3203
0.716727 47.921 35.1900
0.721921 48.020 35.0555
0.727153 48.120 34.9169
0.732422 48.218 34.7753
0.737729 48.313 34.6320
0.743075 48.407 34.4887
0.748460 48.500 34.3462
0.753883 48.593 34.2047
0.759346 48.687 34.0641
0.764849 48.781 33.9245
0.770391 48.875 33.7858
0.775974 48.970 33.6477
0.781597 49.064 33.5103
0.787261 49.160 33.3733
0.792965 49.255 33.2367
0.798712 49.351 33.1003
0.804499 49.447 32.9640
0.810329 49.544 32.8277
0.816201 49.640 32.6912
0.822116 49.738 32.5545
0.828073 49.835 32.4173
0.834073 49.933 32.2796
0.840118 50.031 32.1413
0.846205 50.129 32.0021
0.852337 50.228 31.8620
0.858514 50.327 31.7209
0.864735 50.427 31.5785
0.871001 50.526 31.4348
0.877313 50.627 31.2897
0.883670 50.727 31.1429
0.890074 50.828 30.9945
0.896523 50.929 30.8442
0.903020 51.031 30.6919
0.909564 51.132 30.5374
0.916155 51.235 30.3807
0.922793 51.337 30.2217
0.929480 51.440 30.0601
0.936216 51.543 29.8958
0.943000 51.647 29.7287
0.949833 51.751 29.5587
0.956716 51.855 29.3856
0.963649 51.960 29.2093
0.970632 52.065 29.0297
0.977666 52.171 28.8466
0.984750 52.277 28.6599
0.991886 52.383 28.4694
0.999074 52.489 28.2751
1.006313 52.597 28.0767
1.013605 52.704 27.8741
1.020950 52.812 27.6673
1.028349 52.920 27.4560
1.035801 53.029 27.2401
1.043306 53.138 27.0195
1.050867 53.247 26.7941
1.058482 53.357 26.5636
1.066152 53.468 26.3281
1.073878 53.579 26.0873
1.081659 53.690 25.8412
1.089498 53.802 25.5900
1.097393 53.914 25.3343
1.105345 54.027 25.0754
1.113355 54.139 24.8149
1.121422 54.253 24.5536
1.129549 54.366 24.2919
1.137734 54.480 24.0298
1.145978 54.594 23.7672
1.154283 54.708 23.5041
1.162647 54.822 23.2404
1.171072 54.937 22.9761
1.179558 55.052 22.7111
1.188106 55.167 22.4453
1.196715 55.282 22.1785
1.205387 55.398 21.9107
1.214122 55.514 21.6418
1.222920 55.630 21.3718
1.231781 55.746 21.1004
1.240708 55.863 20.8277
1.249698 55.980 20.5534
1.258754 56.097 20.2776
1.267875 56.214 20.0000
1.277063 56.332 19.7207
1.286317 56.450 19.4394
1.295638 56.568 19.1561
1.305027 56.686 18.8706
1.314484 56.805 18.5829
1.324009 56.923 18.2928
1.333603 57.043 18.0002
1.343267 57.162 17.7049
1.353001 57.282 17.4069
1.362805 57.402 17.1060
1.372681 57.522 16.8022
1.382628 57.642 16.4952
1.392647 57.763 16.1849
1.402739 57.884 15.8713
1.412904 58.005 15.5541
1.423142 58.127 15.2333
1.433455 58.249 14.9087
1.443842 58.371 14.5803
1.454305 58.493 14.2484
1.464843 58.616 13.9137
1.475458 58.739 13.5775
1.486150 58.862 13.2411
1.496919 58.985 12.9052
1.507766 59.108 12.5700
1.518692 59.231 12.2352
1.529697 59.354 11.9007
1.540782 59.478 11.5662
1.551947 59.601 11.2315
1.563193 59.724 10.8964
1.574521 59.848 10.5605
1.585931 59.971 10.2237
1.597423 60.095 9.8855
1.608998 60.219 9.5459
1.620658 60.342 9.2044
1.632402 60.466 8.8609
1.644231 60.590 8.5150
1.656146 60.714 8.1665
1.668147 60.837 7.8150
1.680235 60.961 7.4603
1.692410 61.085 7.1021
1.704674 61.210 6.7402
1.717027 61.334 6.3741
1.729469 61.458 6.0037
1.742002 61.582 5.6285
1.754625 61.707 5.2484
1.767340 61.831 4.8630
1.780147 61.956 4.4720
1.793046 62.080 4.0751
1.806040 62.205 3.6721
1.819127 62.330 3.2631
1.832309 62.455 2.8483
1.845587 62.580 2.4289
1.858961 62.704 2.0059
1.872431 62.829 1.5800
1.886000 62.953 1.1514
1.899666 63.078 0.7204
1.913432 63.202 0.2871
1.927298 63.325 -0.1483
1.941264 63.449 -0.5859
1.955331 63.572 -1.0256
1.969500 63.696 -1.4674
1.983772 63.819 -1.9112
1.998147 63.941 -2.3571
2.012626 64.064 -2.8051
2.027211 64.187 -3.2552
2.041901 64.309 -3.7076
2.056697 64.431 -4.1623
2.071601 64.553 -4.6194
2.086613 64.675 -5.0790
2.101733 64.797 -5.5413
2.116963 64.918 -6.0064
2.132303 65.040 -6.4746
2.147755 65.161 -6.9460
2.163318 65.282 -7.4208
2.178995 65.403 -7.8994
2.194785 65.524 -8.3818
2.210689 65.644 -8.8684
2.226709 65.765 -9.3592
2.242844 65.884 -9.8539
2.259097 66.004 -10.3522
2.275467 66.123 -10.8538
2.291956 66.241 -11.3583
2.308565 66.359 -11.8655
2.325294 66.476 -12.3751
2.342144 66.593 -12.8868
2.359116 66.710 -13.4004
2.376211 66.826 -13.9157
2.393430 66.942 -14.4325
2.410774 67.057 -14.9507
2.428243 67.172 -15.4702
2.445839 67.287 -15.9908
2.463562 67.401 -16.5126
2.481415 67.515 -17.0355
2.499396 67.628 -17.5595
2.517508 67.741 -18.0847
2.535750 67.854 -18.6113
2.554126 67.966 -19.1398
2.572634 68.078 -19.6711
2.591276 68.189 -20.2064
2.610054 68.300 -20.7462
2.628967 68.410 -21.2904
2.648018 68.519 -21.8384
2.667206 68.627 -22.3898
2.686534 68.735 -22.9439
2.706002 68.842 -23.5002
2.725610 68.948 -24.0581
2.745361 69.054 -24.6172
2.765255 69.159 -25.1769
2.785294 69.263 -25.7368
2.805477 69.367 -26.2964
2.825807 69.470 -26.8554
2.846284 69.573 -27.4134
2.866909 69.675 -27.9701
2.887684 69.776 -28.5254
2.908609 69.877 -29.0794
2.929686 69.978 -29.6332
2.950916 70.077 -30.1886
2.972299 70.176 -30.7475
2.993838 70.274 -31.3102
3.015532 70.371 -31.8764
3.037384 70.466 -32.4454
3.059394 70.561 -33.0164
3.081564 70.655 -33.5886
3.103894 70.749 -34.1611
3.126386 70.841 -34.7331
3.149041 70.933 -35.3038
3.171861 71.023 -35.8722
3.194845 71.114 -36.4378
3.217996 71.203 -36.9996
3.241315 71.292 -37.5572
3.264803 71.380 -38.1101
3.288461 71.468 -38.6591
3.312291 71.555 -39.2057
3.336293 71.641 -39.7523
3.360469 71.726 -40.3002
3.384820 71.809 -40.8492
3.409348 71.892 -41.3989
3.434054 71.974 -41.9483
3.458938 72.054 -42.4967
3.484003 72.134 -43.0431
3.509250 72.214 -43.5864
3.534679 72.292 -44.1259
3.560293 72.370 -44.6604
3.586092 72.447 -45.1890
3.612079 72.524 -45.7111
3.638253 72.601 -46.2261
3.664618 72.676 -46.7347
3.691173 72.752 -47.2387
3.717921 72.826 -47.7397
3.744862 72.899 -48.2384
3.771999 72.971 -48.7346
3.799332 73.043 -49.2280
3.826864 73.113 -49.7179
3.854595 73.184 -50.2035
3.882527 73.253 -50.6841
3.910661 73.323 -51.1590
3.938999 73.392 -51.6272
3.967543 73.461 -52.0880
3.996294 73.530 -52.5407
4.025252 73.599 -52.9853
4.054421 73.667 -53.4221
4.083801 73.736 -53.8523
4.113394 73.803 -54.2764
4.143201 73.871 -54.6948
4.173225 73.938 -55.1076
4.203466 74.004 -55.5149
4.233926 74.071 -55.9167
4.264606 74.138 -56.3128
4.295509 74.205 -56.7033
4.326636 74.272 -57.0880
4.357989 74.340 -57.4665
4.389569 74.409 -57.8386
4.421378 74.478 -58.2036
4.453417 74.548 -58.5612
4.485688 74.617 -58.9118
4.518193 74.687 -59.2561
4.550934 74.758 -59.5948
4.583912 74.828 -59.9289
4.617129 74.900 -60.2594
4.650587 74.972 -60.5871
4.684287 75.044 -60.9128
4.718231 75.118 -61.2369
4.752421 75.193 -61.5593
4.786859 75.268 -61.8791
4.821547 75.345 -62.1949
4.856485 75.423 -62.5065
4.891677 75.501 -62.8149
4.927125 75.580 -63.1212
4.962829 75.660 -63.4270
4.998791 75.741 -63.7336
5.035015 75.822 -64.0426
5.071500 75.904 -64.3552
5.108251 75.987 -64.6719
5.145267 76.071 -64.9922
5.182552 76.156 -65.3147
5.220107 76.242 -65.6387
5.257934 76.328 -65.9645
5.296035 76.416 -66.2928
5.334412 76.503 -66.6249
5.373067 76.592 -66.9617
5.412003 76.680 -67.3045
5.451221 76.769 -67.6544
5.490722 76.857 -68.0116
5.530510 76.946 -68.3761
5.570587 77.035 -68.7470
5.610953 77.125 -69.1239
5.651613 77.215 -69.5065
5.692567 77.304 -69.8947
5.733818 77.394 -70.2886
5.775367 77.482 -70.6884
5.817218 77.571 -71.0944
5.859372 77.658 -71.5070
5.901831 77.745 -71.9270
5.944598 77.831 -72.3543
5.987675 77.917 -72.7885
6.031065 78.002 -73.2283
6.074768 78.086 -73.6727
6.118788 78.170 -74.1206
6.163127 78.252 -74.5711
6.207788 78.333 -75.0239
6.252772 78.413 -75.4799
6.298082 78.492 -75.9403
6.343721 78.569 -76.4050
6.389690 78.645 -76.8730
6.435992 78.720 -77.3426
6.482630 78.794 -77.8120
6.529606 78.867 -78.2796
6.576922 78.938 -78.7446
6.624581 79.009 -79.2077
6.672585 79.077 -79.6701
6.720938 79.145 -80.1321
6.769640 79.211 -80.5929
6.818696 79.277 -81.0509
6.868107 79.341 -81.5048
6.917876 79.405 -81.9532
6.968006 79.467 -82.3957
7.018499 79.529 -82.8327
7.069358 79.591 -83.2652
7.120586 79.651 -83.6932
7.172184 79.710 -84.1165
7.224157 79.770 -84.5346
7.276506 79.829 -84.9470
7.329235 79.888 -85.3534
7.382345 79.947 -85.7534
7.435841 80.005 -86.1476
7.489724 80.064 -86.5366
7.543997 80.122 -86.9211
7.598664 80.181 -87.3021
7.653728 80.240 -87.6800
7.709189 80.300 -88.0548
7.765053 80.359 -88.4261
7.821322 80.420 -88.7940
7.877998 80.480 -89.1597
7.935086 80.541 -89.5243
7.992587 80.602 -89.8892
8.050504 80.664 -90.2552
8.108841 80.726 -90.6223
8.167601 80.789 -90.9901
8.226787 80.852 -91.3589
8.286402 80.915 -91.7296
8.346449 80.978 -92.1031
8.406931 81.042 -92.4802
8.467851 81.105 -92.8613
8.529212 81.169 -93.2461
8.591018 81.232 -93.6345
8.653272 81.295 -94.0262
8.715977 81.358 -94.4213
8.779137 81.420 -94.8199
8.842754 81.482 -95.2222
8.906833 81.543 -95.6284
8.971375 81.604 -96.0379
9.036386 81.664 -96.4497
9.101867 81.723 -96.8632
9.167823 81.782 -97.2779
9.234257 81.840 -97.6942
9.301172 81.897 -98.1119
9.368572 81.953 -98.5306
9.436460 82.009 -98.9491
9.504841 82.064 -99.3668
9.573717 82.119 -99.7835
9.643092 82.172 -100.1994
9.712970 82.226 -100.6144
9.783354 82.278 -101.0284
9.854248 82.330 -101.4409
9.925656 82.382 -101.8518
9.997581 82.434 -102.2611
10.070028 82.485 -102.6691
10.143000 82.536 -103.0763
10.216500 82.587 -103.4830
10.290533 82.638 -103.8892
10.365103 82.689 -104.2952
10.440212 82.739 -104.7011
10.515866 82.789 -105.1075
10.592069 82.840 -105.5150
10.668823 82.889 -105.9239
10.746134 82.939 -106.3342
10.824005 82.989 -106.7459
10.902440 83.037 -107.1591
10.981443 83.086 -107.5740
11.061020 83.134 -107.9908
11.141172 83.181 -108.4093
11.221906 83.228 -108.8290
11.303225 83.274 -109.2492
11.385133 83.319 -109.6695
11.467634 83.364 -110.0902
11.550734 83.407 -110.5104
11.634435 83.450 -110.9292
11.718742 83.492 -111.3457
11.803661 83.533 -111.7595
11.889195 83.573 -112.1704
11.975349 83.613 -112.5778
12.062128 83.652 -112.9806
12.149535 83.691 -113.3784
12.237576 83.729 -113.7712
12.326254 83.767 -114.1590
12.415575 83.805 -114.5416
12.505544 83.842 -114.9189
12.596164 83.880 -115.2910
12.687441 83.919 -115.6584
12.779379 83.957 -116.0221
12.871984 83.996 -116.3825
12.965260 84.036 -116.7399
13.059211 84.076 -117.0954
13.153843 84.117 -117.4505
13.249161 84.159 -117.8059
13.345170 84.201 -118.1623
13.441875 84.244 -118.5208
13.539280 84.288 -118.8828
13.637391 84.332 -119.2492
13.736214 84.377 -119.6206
13.835752 84.421 -119.9976
13.936011 84.466 -120.3813
14.036998 84.511 -120.7720
14.138716 84.556 -121.1699
14.241171 84.600 -121.5749
14.344368 84.643 -121.9872
14.448313 84.686 -122.4066
14.553011 84.727 -122.8321
14.658468 84.768 -123.2630
14.764689 84.807 -123.6985
14.871680 84.844 -124.1377
14.979446 84.880 -124.5787
15.087994 84.914 -125.0200
15.197328 84.947 -125.4606
15.307454 84.978 -125.8986
15.418378 85.007 -126.3321
15.530106 85.035 -126.7599
15.642643 85.062 -127.1810
15.755996 85.088 -127.5939
15.870171 85.113 -127.9978
15.985172 85.138 -128.3926
16.101007 85.162 -128.7785
16.217682 85.187 -129.1557
16.335201 85.213 -129.5251
16.453573 85.239 -129.8888
16.572803 85.266 -130.2483
16.692898 85.294 -130.6054
16.813862 85.323 -130.9628
16.935701 85.354 -131.3232
17.058424 85.385 -131.6880
17.182035 85.417 -132.0595
17.306543 85.449 -132.4396
17.431953 85.481 -132.8288
17.558273 85.513 -133.2273
17.685509 85.544 -133.6351
17.813665 85.574 -134.0510
17.942751 85.602 -134.4730
18.072771 85.628 -134.8991
18.203733 85.652 -135.3268
18.335646 85.674 -135.7528
18.468513 85.695 -136.1747
18.602345 85.713 -136.5899
18.737144 85.730 -136.9960
18.872921 85.747 -137.3916
19.009682 85.762 -137.7762
19.147434 85.778 -138.1497
19.286184 85.794 -138.5129
19.425940 85.811 -138.8679
19.566708 85.828 -139.2166
19.708496 85.847 -139.5617
19.851313 85.867 -139.9063
19.995163 85.888 -140.2525
20.140057 85.910 -140.6027
20.285999 85.932 -140.9584
20.433001 85.954 -141.3201
20.581066 85.976 -141.6876
20.730206 85.997 -142.0601
20.880424 86.017 -142.4358
21.031733 86.035 -142.8126
21.184137 86.053 -143.1883
21.337646 86.069 -143.5608
21.492268 86.085 -143.9287
21.648010 86.101 -144.2910
21.804880 86.116 -144.6475
21.962887 86.131 -144.9994
22.122040 86.148 -145.3482
22.282345 86.164 -145.6960
22.443811 86.181 -146.0453
22.606449 86.199 -146.3983
22.770266 86.217 -146.7568
22.935268 86.235 -147.1215
23.101467 86.251 -147.4922
23.268869 86.267 -147.8679
23.437485 86.281 -148.2462
23.607323 86.294 -148.6246
23.778391 86.305 -149.0002
23.950699 86.315 -149.3702
24.124256 86.324 -149.7329
24.299070 86.333 -150.0874
24.475151 86.341 -150.4340
24.652508 86.350 -150.7742
24.831150 86.359 -151.1099
25.011087 86.369 -151.4438
25.192327 86.380 -151.7779
25.374882 86.391 -152.1138
25.558758 86.401 -152.4518
25.743967 86.412 -152.7914
25.930519 86.421 -153.1312
26.118422 86.430 -153.4693
26.307686 86.439 -153.8044
26.498322 86.448 -154.1356
26.690340 86.456 -154.4636
26.883749 86.466 -154.7900
27.078560 86.476 -155.1176
27.274782 86.486 -155.4492
27.472427 86.497 -155.7871
27.671503 86.507 -156.1323
27.872023 86.516 -156.4835
28.073996 86.523 -156.8378
28.277431 86.529 -157.1906
28.482342 86.533 -157.5375
28.688736 86.535 -157.8744
28.896626 86.538 -158.1999
29.106022 86.541 -158.5153
29.316936 86.546 -158.8252
29.529379 86.553 -159.1359
29.743361 86.561 -159.4546
29.958893 86.570 -159.7867
30.175987 86.579 -160.1345
30.394655 86.586 -160.4964
30.614908 86.590 -160.8666
30.836756 86.590 -161.2365
31.060211 86.588 -161.5973
31.285286 86.584 -161.9417
31.511992 86.579 -162.2669
31.740341 86.575 -162.5746
31.970345 86.574 -162.8716
32.202015 86.575 -163.1665
32.435364 86.577 -163.4680
32.670403 86.580 -163.7808
32.907146 86.583 -164.1043
33.145607 86.582 -164.4321
33.385796 86.580 -164.7542
33.627724 86.575 -165.0603
33.871403 86.570 -165.3430
34.116848 86.566 -165.6022
34.364071 86.566 -165.8453
34.613087 86.570 -166.0866
34.863907 86.579 -166.3421
35.116547 86.590 -166.6247
35.371017 86.600 -166.9398
35.627331 86.608 -167.2823
35.885502 86.609 -167.6387
36.145542 86.605 -167.9904
36.407467 86.596 -168.3209
36.671291 86.586 -168.6223
36.937027 86.576 -168.8969
37.204689 86.569 -169.1575
37.474289 86.565 -169.4208
37.745842 86.563 -169.6999
38.019363 86.559 -169.9991
38.294868 86.552 -170.3108
38.572369 86.542 -170.6204
38.851879 86.529 -170.9140
39.133415 86.515 -171.1855
39.416992 86.505 -171.4424
39.702625 86.499 -171.7028
39.990326 86.497 -171.9864
40.280113 86.495 -172.3053
40.571999 86.490 -172.6552
40.866001 86.478 -173.0154
41.162132 86.461 -173.3581
41.460411 86.441 -173.6606
41.760849 86.422 -173.9162
42.063465 86.410 -174.1391
42.368275 86.407 -174.3595
42.675293 86.409 -174.6081
42.984535 86.413 -174.9005
43.296021 86.413 -175.2306
43.609760 86.405 -175.5721
43.925774 86.390 -175.8889
44.244080 86.369 -176.1523
44.564690 86.349 -176.3545
44.887623 86.334 -176.5117
45.212898 86.327 -176.6561
45.540531 86.325 -176.8198
45.870537 86.324 -177.0216
46.202934 86.320 -177.2611
46.537739 86.311 -177.5241
46.874969 86.296 -177.7953
47.214645 86.277 -178.0697
47.556782 86.256 -178.3531
47.901398 86.232 -178.6548
48.248512 86.205 -178.9786
48.598141 86.173 -179.3252
48.950302 86.139 -179.7023
49.305016 86.101 179.8689
49.662300 86.054 179.3691
50.022175 85.989 178.8172
50.384655 85.893 178.3068
50.749763 85.768 178.0032
51.117516 85.634 178.0778
51.487934 85.533 178.5847
51.861038 85.513 179.3542
52.236843 85.592 -179.9811
52.615372 85.741 -179.7882
52.996643 85.902 179.7862
53.380680 86.017 178.8746
53.767498 86.061 177.7803
54.157120 86.043 176.8098
54.549564 85.992 176.1409
54.944855 85.943 175.7807
55.343006 85.913 175.6242
55.744045 85.903 175.5590
56.147991 85.907 175.5254
56.554863 85.922 175.4971
56.964684 85.947 175.4368
57.377472 85.978 175.2955
57.793251 86.001 175.0586
58.212044 86.007 174.7735
58.633873 85.995 174.5156
59.058758 85.975 174.3188
59.486721 85.956 174.1441
59.917786 85.936 173.9274
60.351974 85.903 173.6646
60.789310 85.850 173.4370
61.229816 85.788 173.3393
61.673512 85.736 173.3780
62.120422 85.711 173.4457
62.570572 85.709 173.4093
63.023983 85.712 173.2150
63.480682 85.712 172.8925
63.940689 85.705 172.4805
64.404030 85.691 171.9913
64.870728 85.661 171.4648
65.340805 85.614 171.0085
65.814293 85.564 170.7206
66.291214 85.538 170.5619
66.771591 85.545 170.3866
67.255447 85.568 170.1346
67.742805 85.603 169.8904
68.233696 85.678 169.6269
68.728142 85.810 168.9800
69.226173 85.937 167.5380
69.727814 85.938 165.4370
70.233093 85.738 163.5237
70.742035 85.395 162.8578
71.254662 85.089 163.7816
71.771004 84.973 165.3756
72.291084 85.008 166.3882
72.814934 85.049 166.5762
73.342583 85.028 166.5525
73.874054 84.987 166.7872
74.409378 84.981 167.1679
74.948578 85.003 167.3868
75.491684 85.021 167.3974
76.038727 85.027 167.3333
76.589737 85.033 167.2330
77.144737 85.040 167.0413
77.703758 85.035 166.7698
78.266830 85.017 166.5020
78.833984 84.995 166.2830
79.405251 84.975 166.0960
79.980652 84.958 165.9189
80.560226 84.942 165.7427
81.143997 84.928 165.5565
81.732002 84.912 165.3530
82.324265 84.894 165.1332
82.920822 84.871 164.8959
83.521698 84.841 164.6455
84.126930 84.805 164.4050
84.736549 84.763 164.1888
85.350586 84.721 163.9801
85.969070 84.673 163.7740
86.592041 84.619 163.6161
87.219521 84.567 163.5347
87.851547 84.526 163.4668
88.488159 84.487 163.3355
89.129379 84.435 163.1873
89.775246 84.373 163.1418
90.425797 84.320 163.2233
91.081062 84.283 163.3397
91.741074 84.260 163.4251
92.405869 84.247 163.4756
93.075478 84.245 163.4684
93.749939 84.249 163.3667
94.429291 84.251 163.1861
