* Measurement data measured by REW V5.30 beta 4
* Source: EXCL: Microphone (Realtek(R) Audio), MICROPHONE (Master Volume), L, volume: 0.250
* Format: 256k Log Swept Sine, 1 sweep at -12.0 dBFS with no timing reference
* Dated: Dec 4, 2023 12:20:53 AM
* REW Settings:
*  C-weighting compensation: Off
*  Target level: 75.0 dB
* Note: 
* Measurement: Conch Black
* Smoothing: 1/24 octave
* Frequency Step: 96 ppo
* Start Frequency: 0.36621094 Hz
*
* Freq(Hz) SPL(dB) Phase(degrees)
0.366211 45.202 116.3460
0.368865 45.219 116.1979
0.371538 45.243 115.9819
0.374230 45.271 115.7338
0.376942 45.299 115.4699
0.379673 45.328 115.1960
0.382424 45.358 114.9140
0.385196 45.388 114.6244
0.387987 45.417 114.3273
0.390798 45.448 114.0227
0.393630 45.478 113.7105
0.396483 45.508 113.3908
0.399356 45.539 113.0635
0.402250 45.570 112.7285
0.405165 45.601 112.3859
0.408101 45.633 112.0356
0.411058 45.665 111.6776
0.414037 45.696 111.3118
0.417037 45.729 110.9384
0.420059 45.761 110.5572
0.423103 45.793 110.1682
0.426169 45.826 109.7716
0.429257 45.859 109.3672
0.432367 45.893 108.9552
0.435501 45.926 108.5354
0.438656 45.960 108.1080
0.441835 45.994 107.6730
0.445037 46.028 107.2305
0.448262 46.063 106.7804
0.451510 46.098 106.3228
0.454782 46.133 105.8578
0.458077 46.168 105.3855
0.461397 46.204 104.9058
0.464740 46.239 104.4190
0.468108 46.275 103.9250
0.471500 46.312 103.4240
0.474917 46.348 102.9161
0.478358 46.385 102.4014
0.481825 46.422 101.8799
0.485316 46.460 101.3518
0.488833 46.497 100.8172
0.492375 46.535 100.2762
0.495943 46.574 99.7290
0.499537 46.612 99.1757
0.503157 46.651 98.6165
0.506803 46.690 98.0514
0.510475 46.729 97.4807
0.514174 46.769 96.9045
0.517900 46.809 96.3229
0.521653 46.849 95.7362
0.525433 46.889 95.1444
0.529241 46.930 94.5478
0.533076 46.971 93.9465
0.536939 47.013 93.3408
0.540830 47.054 92.7307
0.544749 47.096 92.1164
0.548696 47.138 91.4982
0.552673 47.181 90.8762
0.556677 47.224 90.2506
0.560711 47.267 89.6215
0.564774 47.311 88.9892
0.568867 47.354 88.3539
0.572989 47.399 87.7156
0.577141 47.443 87.0745
0.581324 47.488 86.4309
0.585536 47.533 85.7849
0.589779 47.578 85.1367
0.594053 47.624 84.4864
0.598358 47.670 83.8341
0.602694 47.717 83.1800
0.607061 47.763 82.5243
0.611460 47.811 81.8671
0.615891 47.858 81.2085
0.620354 47.906 80.5486
0.624849 47.954 79.8876
0.629377 48.002 79.2255
0.633938 48.051 78.5625
0.638532 48.100 77.8986
0.643159 48.150 77.2339
0.647819 48.200 76.5686
0.652514 48.250 75.9026
0.657242 48.301 75.2360
0.662005 48.352 74.5689
0.666802 48.403 73.9014
0.671634 48.455 73.2333
0.676501 48.507 72.5648
0.681403 48.560 71.8959
0.686341 48.612 71.2265
0.691314 48.666 70.5566
0.696324 48.719 69.8863
0.701369 48.773 69.2155
0.706452 48.828 68.5441
0.711571 48.883 67.8721
0.716727 48.938 67.1994
0.721921 48.994 66.5259
0.727153 49.052 65.8516
0.732422 49.113 65.1762
0.737729 49.178 64.4997
0.743075 49.247 63.8221
0.748460 49.318 63.1437
0.753883 49.391 62.4648
0.759346 49.465 61.7857
0.764849 49.541 61.1068
0.770391 49.618 60.4283
0.775974 49.696 59.7507
0.781597 49.775 59.0742
0.787261 49.856 58.3992
0.792965 49.939 57.7259
0.798712 50.022 57.0545
0.804499 50.107 56.3854
0.810329 50.193 55.7187
0.816201 50.280 55.0547
0.822116 50.369 54.3936
0.828073 50.459 53.7356
0.834073 50.550 53.0809
0.840118 50.642 52.4296
0.846205 50.736 51.7818
0.852337 50.830 51.1378
0.858514 50.926 50.4975
0.864735 51.023 49.8612
0.871001 51.121 49.2288
0.877313 51.220 48.6004
0.883670 51.320 47.9762
0.890074 51.421 47.3560
0.896523 51.523 46.7400
0.903020 51.627 46.1282
0.909564 51.731 45.5205
0.916155 51.835 44.9169
0.922793 51.941 44.3175
0.929480 52.048 43.7220
0.936216 52.155 43.1306
0.943000 52.263 42.5431
0.949833 52.372 41.9594
0.956716 52.481 41.3795
0.963649 52.591 40.8032
0.970632 52.702 40.2305
0.977666 52.813 39.6612
0.984750 52.924 39.0952
0.991886 53.036 38.5324
0.999074 53.148 37.9725
1.006313 53.261 37.4155
1.013605 53.373 36.8613
1.020950 53.486 36.3095
1.028349 53.599 35.7601
1.035801 53.711 35.2128
1.043306 53.824 34.6675
1.050867 53.936 34.1240
1.058482 54.048 33.5820
1.066152 54.160 33.0413
1.073878 54.271 32.5018
1.081659 54.382 31.9632
1.089498 54.492 31.4252
1.097393 54.602 30.8877
1.105345 54.711 30.3505
1.113355 54.821 29.8136
1.121422 54.931 29.2770
1.129549 55.041 28.7408
1.137734 55.151 28.2052
1.145978 55.262 27.6703
1.154283 55.372 27.1363
1.162647 55.484 26.6032
1.171072 55.595 26.0712
1.179558 55.707 25.5403
1.188106 55.819 25.0108
1.196715 55.932 24.4827
1.205387 56.044 23.9561
1.214122 56.157 23.4311
1.222920 56.270 22.9079
1.231781 56.384 22.3864
1.240708 56.498 21.8669
1.249698 56.611 21.3494
1.258754 56.726 20.8339
1.267875 56.840 20.3206
1.277063 56.955 19.8095
1.286317 57.069 19.3007
1.295638 57.184 18.7943
1.305027 57.300 18.2902
1.314484 57.415 17.7887
1.324009 57.531 17.2897
1.333603 57.646 16.7933
1.343267 57.762 16.2995
1.353001 57.878 15.8084
1.362805 57.994 15.3200
1.372681 58.111 14.8343
1.382628 58.227 14.3515
1.392647 58.344 13.8714
1.402739 58.460 13.3941
1.412904 58.577 12.9197
1.423142 58.694 12.4481
1.433455 58.810 11.9794
1.443842 58.927 11.5135
1.454305 59.044 11.0505
1.464843 59.161 10.5904
1.475458 59.278 10.1329
1.486150 59.394 9.6781
1.496919 59.511 9.2258
1.507766 59.627 8.7759
1.518692 59.743 8.3283
1.529697 59.859 7.8830
1.540782 59.975 7.4397
1.551947 60.090 6.9984
1.563193 60.206 6.5590
1.574521 60.321 6.1213
1.585931 60.436 5.6853
1.597423 60.551 5.2506
1.608998 60.666 4.8174
1.620658 60.781 4.3853
1.632402 60.896 3.9544
1.644231 61.010 3.5243
1.656146 61.125 3.0951
1.668147 61.239 2.6664
1.680235 61.353 2.2383
1.692410 61.468 1.8105
1.704674 61.582 1.3830
1.717027 61.696 0.9554
1.729469 61.811 0.5277
1.742002 61.925 0.0998
1.754625 62.039 -0.3286
1.767340 62.154 -0.7576
1.780147 62.269 -1.1873
1.793046 62.383 -1.6180
1.806040 62.498 -2.0498
1.819127 62.613 -2.4827
1.832309 62.728 -2.9169
1.845587 62.843 -3.3523
1.858961 62.958 -3.7886
1.872431 63.072 -4.2257
1.886000 63.186 -4.6635
1.899666 63.300 -5.1017
1.913432 63.413 -5.5403
1.927298 63.526 -5.9792
1.941264 63.639 -6.4182
1.955331 63.752 -6.8571
1.969500 63.864 -7.2960
1.983772 63.976 -7.7348
1.998147 64.088 -8.1733
2.012626 64.200 -8.6115
2.027211 64.311 -9.0493
2.041901 64.422 -9.4867
2.056697 64.534 -9.9236
2.071601 64.645 -10.3600
2.086613 64.756 -10.7959
2.101733 64.866 -11.2312
2.116963 64.977 -11.6660
2.132303 65.088 -12.1002
2.147755 65.199 -12.5338
2.163318 65.310 -12.9670
2.178995 65.421 -13.3998
2.194785 65.532 -13.8323
2.210689 65.642 -14.2650
2.226709 65.753 -14.6981
2.242844 65.863 -15.1318
2.259097 65.973 -15.5660
2.275467 66.082 -16.0007
2.291956 66.191 -16.4356
2.308565 66.300 -16.8708
2.325294 66.408 -17.3061
2.342144 66.516 -17.7414
2.359116 66.624 -18.1766
2.376211 66.731 -18.6117
2.393430 66.839 -19.0466
2.410774 66.946 -19.4811
2.428243 67.052 -19.9153
2.445839 67.159 -20.3491
2.463562 67.265 -20.7824
2.481415 67.372 -21.2153
2.499396 67.478 -21.6476
2.517508 67.584 -22.0795
2.535750 67.690 -22.5109
2.554126 67.796 -22.9421
2.572634 67.902 -23.3732
2.591276 68.008 -23.8047
2.610054 68.113 -24.2369
2.628967 68.218 -24.6698
2.648018 68.322 -25.1033
2.667206 68.426 -25.5372
2.686534 68.530 -25.9716
2.706002 68.633 -26.4062
2.725610 68.736 -26.8410
2.745361 68.838 -27.2758
2.765255 68.941 -27.7107
2.785294 69.043 -28.1454
2.805477 69.144 -28.5800
2.825807 69.246 -29.0143
2.846284 69.347 -29.4483
2.866909 69.449 -29.8820
2.887684 69.550 -30.3153
2.908609 69.651 -30.7485
2.929686 69.751 -31.1816
2.950916 69.852 -31.6153
2.972299 69.952 -32.0499
2.993838 70.052 -32.4857
3.015532 70.151 -32.9224
3.037384 70.250 -33.3599
3.059394 70.348 -33.7981
3.081564 70.446 -34.2367
3.103894 70.544 -34.6755
3.126386 70.641 -35.1144
3.149041 70.738 -35.5531
3.171861 70.835 -35.9914
3.194845 70.931 -36.4293
3.217996 71.027 -36.8665
3.241315 71.123 -37.3029
3.264803 71.219 -37.7385
3.288461 71.314 -38.1734
3.312291 71.410 -38.6082
3.336293 71.505 -39.0434
3.360469 71.599 -39.4792
3.384820 71.693 -39.9158
3.409348 71.786 -40.3529
3.434054 71.880 -40.7904
3.458938 71.972 -41.2281
3.484003 72.064 -41.6658
3.509250 72.156 -42.1033
3.534679 72.248 -42.5404
3.560293 72.339 -42.9770
3.586092 72.430 -43.4128
3.612079 72.521 -43.8479
3.638253 72.611 -44.2822
3.664618 72.701 -44.7160
3.691173 72.791 -45.1500
3.717921 72.881 -45.5847
3.744862 72.969 -46.0200
3.771999 73.058 -46.4561
3.799332 73.146 -46.8924
3.826864 73.233 -47.3289
3.854595 73.320 -47.7651
3.882527 73.407 -48.2008
3.910661 73.493 -48.6358
3.938999 73.579 -49.0696
3.967543 73.665 -49.5021
3.996294 73.750 -49.9332
4.025252 73.836 -50.3630
4.054421 73.920 -50.7921
4.083801 74.005 -51.2210
4.113394 74.089 -51.6500
4.143201 74.172 -52.0791
4.173225 74.255 -52.5080
4.203466 74.338 -52.9365
4.233926 74.420 -53.3642
4.264606 74.501 -53.7910
4.295509 74.583 -54.2165
4.326636 74.664 -54.6405
4.357989 74.745 -55.0629
4.389569 74.826 -55.4837
4.421378 74.906 -55.9033
4.453417 74.986 -56.3223
4.485688 75.066 -56.7408
4.518193 75.145 -57.1589
4.550934 75.223 -57.5763
4.583912 75.302 -57.9929
4.617129 75.380 -58.4084
4.650587 75.458 -58.8225
4.684287 75.535 -59.2351
4.718231 75.613 -59.6460
4.752421 75.690 -60.0551
4.786859 75.767 -60.4627
4.821547 75.844 -60.8691
4.856485 75.920 -61.2746
4.891677 75.996 -61.6790
4.927125 76.072 -62.0826
4.962829 76.148 -62.4852
4.998791 76.223 -62.8867
5.035015 76.299 -63.2870
5.071500 76.374 -63.6862
5.108251 76.449 -64.0842
5.145267 76.524 -64.4809
5.182552 76.599 -64.8766
5.220107 76.674 -65.2714
5.257934 76.748 -65.6653
5.296035 76.822 -66.0585
5.334412 76.897 -66.4511
5.373067 76.971 -66.8432
5.412003 77.045 -67.2349
5.451221 77.119 -67.6263
5.490722 77.193 -68.0175
5.530510 77.266 -68.4083
5.570587 77.340 -68.7989
5.610953 77.414 -69.1893
5.651613 77.487 -69.5796
5.692567 77.561 -69.9700
5.733818 77.634 -70.3605
5.775367 77.707 -70.7513
5.817218 77.780 -71.1425
5.859372 77.853 -71.5343
5.901831 77.926 -71.9267
5.944598 77.999 -72.3198
5.987675 78.071 -72.7135
6.031065 78.143 -73.1078
6.074768 78.216 -73.5027
6.118788 78.287 -73.8981
6.163127 78.359 -74.2941
6.207788 78.431 -74.6907
6.252772 78.502 -75.0882
6.298082 78.573 -75.4867
6.343721 78.643 -75.8863
6.389690 78.713 -76.2868
6.435992 78.783 -76.6877
6.482630 78.853 -77.0889
6.529606 78.922 -77.4901
6.576922 78.991 -77.8912
6.624581 79.060 -78.2925
6.672585 79.128 -78.6943
6.720938 79.196 -79.0965
6.769640 79.263 -79.4990
6.818696 79.330 -79.9012
6.868107 79.397 -80.3028
6.917876 79.463 -80.7034
6.968006 79.529 -81.1030
7.018499 79.594 -81.5018
7.069358 79.660 -81.9000
7.120586 79.724 -82.2977
7.172184 79.789 -82.6945
7.224157 79.853 -83.0902
7.276506 79.917 -83.4846
7.329235 79.981 -83.8773
7.382345 80.045 -84.2686
7.435841 80.108 -84.6586
7.489724 80.171 -85.0475
7.543997 80.234 -85.4354
7.598664 80.297 -85.8225
7.653728 80.361 -86.2087
7.709189 80.424 -86.5941
7.765053 80.487 -86.9785
7.821322 80.550 -87.3622
7.877998 80.613 -87.7454
7.935086 80.676 -88.1287
7.992587 80.739 -88.5125
8.050504 80.802 -88.8970
8.108841 80.865 -89.2822
8.167601 80.928 -89.6681
8.226787 80.991 -90.0548
8.286402 81.054 -90.4428
8.346449 81.117 -90.8325
8.406931 81.181 -91.2242
8.467851 81.243 -91.6183
8.529212 81.306 -92.0145
8.591018 81.369 -92.4129
8.653272 81.431 -92.8135
8.715977 81.493 -93.2161
8.779137 81.555 -93.6210
8.842754 81.616 -94.0285
8.906833 81.677 -94.4385
8.971375 81.738 -94.8507
9.036386 81.798 -95.2645
9.101867 81.857 -95.6795
9.167823 81.916 -96.0954
9.234257 81.974 -96.5126
9.301172 82.031 -96.9310
9.368572 82.088 -97.3500
9.436460 82.144 -97.7687
9.504841 82.199 -98.1865
9.573717 82.254 -98.6032
9.643092 82.308 -99.0192
9.712970 82.362 -99.4342
9.783354 82.415 -99.8477
9.854248 82.467 -100.2591
9.925656 82.519 -100.6681
9.997581 82.571 -101.0749
10.070028 82.622 -101.4796
10.143000 82.673 -101.8823
10.216500 82.724 -102.2830
10.290533 82.775 -102.6817
10.365103 82.826 -103.0784
10.440212 82.876 -103.4736
10.515866 82.927 -103.8677
10.592069 82.977 -104.2613
10.668823 83.028 -104.6546
10.746134 83.079 -105.0477
10.824005 83.129 -105.4410
10.902440 83.180 -105.8351
10.981443 83.230 -106.2306
11.061020 83.281 -106.6278
11.141172 83.331 -107.0266
11.221906 83.381 -107.4271
11.303225 83.431 -107.8295
11.385133 83.480 -108.2340
11.467634 83.529 -108.6407
11.550734 83.577 -109.0493
11.634435 83.625 -109.4592
11.718742 83.672 -109.8700
11.803661 83.719 -110.2817
11.889195 83.764 -110.6941
11.975349 83.809 -111.1063
12.062128 83.854 -111.5175
12.149535 83.897 -111.9273
12.237576 83.940 -112.3356
12.326254 83.982 -112.7419
12.415575 84.024 -113.1455
12.505544 84.065 -113.5460
12.596164 84.106 -113.9433
12.687441 84.146 -114.3376
12.779379 84.186 -114.7288
12.871984 84.226 -115.1169
12.965260 84.266 -115.5021
13.059211 84.306 -115.8849
13.153843 84.347 -116.2662
13.249161 84.387 -116.6463
13.345170 84.428 -117.0257
13.441875 84.469 -117.4052
13.539280 84.510 -117.7858
13.637391 84.551 -118.1681
13.736214 84.592 -118.5526
13.835752 84.633 -118.9398
13.936011 84.674 -119.3302
14.036998 84.715 -119.7243
14.138716 84.755 -120.1219
14.241171 84.795 -120.5229
14.344368 84.834 -120.9270
14.448313 84.873 -121.3342
14.553011 84.910 -121.7435
14.658468 84.947 -122.1539
14.764689 84.982 -122.5651
14.871680 85.017 -122.9761
14.979446 85.051 -123.3857
15.087994 85.083 -123.7929
15.197328 85.115 -124.1972
15.307454 85.146 -124.5980
15.418378 85.176 -124.9945
15.530106 85.206 -125.3864
15.642643 85.236 -125.7739
15.755996 85.266 -126.1573
15.870171 85.295 -126.5367
15.985172 85.325 -126.9130
16.101007 85.355 -127.2872
16.217682 85.385 -127.6605
16.335201 85.416 -128.0336
16.453573 85.447 -128.4081
16.572803 85.478 -128.7851
16.692898 85.509 -129.1653
16.813862 85.540 -129.5495
16.935701 85.571 -129.9383
17.058424 85.602 -130.3316
17.182035 85.631 -130.7291
17.306543 85.660 -131.1303
17.431953 85.687 -131.5341
17.558273 85.714 -131.9392
17.685509 85.739 -132.3439
17.813665 85.762 -132.7468
17.942751 85.785 -133.1460
18.072771 85.806 -133.5397
18.203733 85.827 -133.9269
18.335646 85.846 -134.3060
18.468513 85.866 -134.6764
18.602345 85.885 -135.0380
18.737144 85.904 -135.3911
18.872921 85.925 -135.7361
19.009682 85.946 -136.0750
19.147434 85.968 -136.4094
19.286184 85.992 -136.7414
19.425940 86.017 -137.0739
19.566708 86.043 -137.4091
19.708496 86.070 -137.7496
19.851313 86.099 -138.0977
19.995163 86.128 -138.4552
20.140057 86.157 -138.8229
20.285999 86.186 -139.2015
20.433001 86.214 -139.5904
20.581066 86.241 -139.9883
20.730206 86.266 -140.3934
20.880424 86.290 -140.8026
21.031733 86.311 -141.2130
21.184137 86.330 -141.6213
21.337646 86.348 -142.0238
21.492268 86.363 -142.4180
21.648010 86.378 -142.8012
21.804880 86.392 -143.1722
21.962887 86.406 -143.5307
22.122040 86.420 -143.8775
22.282345 86.435 -144.2146
22.443811 86.451 -144.5452
22.606449 86.469 -144.8725
22.770266 86.488 -145.2005
22.935268 86.508 -145.5326
23.101467 86.529 -145.8714
23.268869 86.550 -146.2187
23.437485 86.571 -146.5747
23.607323 86.590 -146.9384
23.778391 86.608 -147.3073
23.950699 86.624 -147.6782
24.124256 86.639 -148.0476
24.299070 86.651 -148.4120
24.475151 86.662 -148.7688
24.652508 86.672 -149.1164
24.831150 86.682 -149.4550
25.011087 86.693 -149.7861
25.192327 86.703 -150.1124
25.374882 86.715 -150.4378
25.558758 86.727 -150.7656
25.743967 86.740 -151.0992
25.930519 86.752 -151.4401
26.118422 86.764 -151.7885
26.307686 86.774 -152.1430
26.498322 86.782 -152.5004
26.690340 86.789 -152.8570
26.883749 86.794 -153.2089
27.078560 86.798 -153.5534
27.274782 86.801 -153.8888
27.472427 86.804 -154.2160
27.671503 86.809 -154.5372
27.872023 86.814 -154.8565
28.073996 86.821 -155.1782
28.277431 86.828 -155.5060
28.482342 86.836 -155.8425
28.688736 86.844 -156.1881
28.896626 86.851 -156.5413
29.106022 86.856 -156.8989
29.316936 86.860 -157.2570
29.529379 86.863 -157.6117
29.743361 86.864 -157.9597
29.958893 86.865 -158.2986
30.175987 86.865 -158.6266
30.394655 86.865 -158.9424
30.614908 86.866 -159.2448
30.836756 86.867 -159.5323
31.060211 86.869 -159.8045
31.285286 86.874 -160.0627
31.511992 86.881 -160.3111
31.740341 86.891 -160.5570
31.970345 86.906 -160.8102
32.202015 86.922 -161.0799
32.435364 86.939 -161.3725
32.670403 86.955 -161.6873
32.907146 86.967 -162.0169
33.145607 86.975 -162.3467
33.385796 86.978 -162.6617
33.627724 86.978 -162.9514
33.871403 86.980 -163.2157
34.116848 86.985 -163.4682
34.364071 86.995 -163.7316
34.613087 87.007 -164.0318
34.863907 87.018 -164.3829
35.116547 87.022 -164.7807
35.371017 87.015 -165.1976
35.627331 86.994 -165.5925
35.885502 86.964 -165.9259
36.145542 86.933 -166.1765
36.407467 86.910 -166.3604
36.671291 86.902 -166.5279
36.937027 86.910 -166.7486
37.204689 86.926 -167.0838
37.474289 86.937 -167.5507
37.745842 86.932 -168.1148
38.019363 86.903 -168.6970
38.294868 86.853 -169.2018
38.572369 86.796 -169.5667
38.851879 86.749 -169.7901
39.133415 86.726 -169.9415
39.416992 86.731 -170.1375
39.702625 86.754 -170.4731
39.990326 86.774 -170.9736
40.280113 86.776 -171.5820
40.571999 86.752 -172.1794
40.866001 86.711 -172.6527
41.162132 86.676 -172.9649
41.460411 86.665 -173.1801
41.760849 86.685 -173.4392
42.063465 86.721 -173.8806
42.368275 86.743 -174.5382
42.675293 86.722 -175.2998
42.984535 86.647 -175.9493
43.296021 86.531 -176.2534
43.609760 86.415 -176.0712
43.925774 86.346 -175.4587
44.244080 86.358 -174.6837
44.564690 86.445 -174.0855
44.887623 86.568 -173.8848
45.212898 86.680 -174.0938
45.540531 86.752 -174.5584
45.870537 86.778 -175.0666
46.202934 86.772 -175.4588
46.537739 86.761 -175.6930
46.874969 86.762 -175.8382
47.214645 86.775 -176.0020
47.556782 86.789 -176.2485
47.901398 86.795 -176.5699
48.248512 86.790 -176.9194
48.598141 86.777 -177.2620
48.950302 86.764 -177.6020
49.305016 86.752 -177.9682
49.662300 86.736 -178.3777
50.022175 86.710 -178.8119
50.384655 86.675 -179.2267
50.749763 86.634 -179.5840
51.117516 86.597 -179.8768
51.487934 86.566 179.8717
51.861038 86.543 179.6316
52.236843 86.524 179.3878
52.615372 86.507 179.1434
52.996643 86.490 178.9106
53.380680 86.471 178.7039
53.767498 86.453 178.5406
54.157120 86.435 178.4377
54.549564 86.424 178.3945
54.944855 86.425 178.3747
55.343006 86.437 178.3152
55.744045 86.450 178.1711
56.147991 86.453 177.9614
56.554863 86.439 177.7677
56.964684 86.417 177.6684
57.377472 86.406 177.6574
57.793251 86.417 177.6253
58.212044 86.442 177.4379
58.633873 86.458 177.0497
59.058758 86.448 176.5454
59.486721 86.408 176.0749
59.917786 86.356 175.7405
60.351974 86.313 175.5295
60.789310 86.286 175.3480
61.229816 86.270 175.1176
61.673512 86.254 174.8342
62.120422 86.235 174.5446
62.570572 86.216 174.2820
63.023983 86.201 174.0366
63.480682 86.189 173.7845
63.940689 86.174 173.5281
64.404030 86.154 173.2994
64.870728 86.132 173.1234
65.340805 86.114 172.9896
65.814293 86.099 172.8651
66.291214 86.085 172.7293
66.771591 86.067 172.5881
67.255447 86.047 172.4507
67.742805 86.026 172.3083
68.233696 86.003 172.1479
68.728142 85.975 171.9860
69.226173 85.943 171.8654
69.727814 85.918 171.7952
70.233093 85.910 171.7029
70.742035 85.913 171.4794
71.254662 85.910 171.0927
71.771004 85.882 170.6381
72.291084 85.833 170.2588
72.814934 85.778 170.0229
73.342583 85.733 169.8868
73.874054 85.699 169.7702
74.409378 85.668 169.6362
74.948578 85.636 169.4991
75.491684 85.600 169.3923
76.038727 85.565 169.3506
76.589737 85.539 169.3846
77.144737 85.531 169.4349
77.703758 85.543 169.3810
78.266830 85.558 169.1458
78.833984 85.557 168.7775
79.405251 85.537 168.3987
79.980652 85.509 168.0873
80.560226 85.483 167.8292
81.143997 85.463 167.5770
81.732002 85.444 167.3130
82.324265 85.425 167.0462
82.920822 85.405 166.7881
83.521698 85.383 166.5469
84.126930 85.360 166.3250
84.736549 85.335 166.1175
85.350586 85.305 165.9294
85.969070 85.271 165.7853
86.592041 85.239 165.6956
87.219521 85.213 165.6155
87.851547 85.192 165.4731
88.488159 85.167 165.2402
89.129379 85.132 164.9527
89.775246 85.088 164.6585
90.425797 85.040 164.3692
91.081062 84.993 164.0744
91.741074 84.947 163.7824
92.405869 84.909 163.5068
93.075478 84.884 163.2292
