* Measurement data measured by REW V5.30 beta 4
* Source: Microphone (Realtek(R) Audio), MICROPHONE (Master Volume), L, volume: 0.250
* Format: 256k Log Swept Sine, 1 sweep at -12.0 dBFS with no timing reference
* Dated: Dec 4, 2023 11:52:31 PM
* REW Settings:
*  C-weighting compensation: Off
*  Target level: 75.0 dB
* Note: 
* Measurement: Conch Black 400
* Smoothing: 1/24 octave
* Frequency Step: 96 ppo
* Start Frequency: 0.36621094 Hz
*
* Freq(Hz) SPL(dB) Phase(degrees)
0.366211 43.305 -5.5696
0.368865 43.306 -5.5137
0.371538 43.309 -5.4326
0.374230 43.311 -5.3402
0.376942 43.314 -5.2427
0.379673 43.316 -5.1424
0.382424 43.319 -5.0399
0.385196 43.322 -4.9355
0.387987 43.325 -4.8291
0.390798 43.328 -4.7208
0.393630 43.330 -4.6105
0.396483 43.333 -4.4981
0.399356 43.336 -4.3837
0.402250 43.339 -4.2672
0.405165 43.342 -4.1485
0.408101 43.345 -4.0277
0.411058 43.348 -3.9045
0.414037 43.351 -3.7792
0.417037 43.354 -3.6514
0.420059 43.357 -3.5213
0.423103 43.360 -3.3888
0.426169 43.363 -3.2538
0.429257 43.366 -3.1163
0.432367 43.369 -2.9763
0.435501 43.372 -2.8336
0.438656 43.376 -2.6882
0.441835 43.379 -2.5401
0.445037 43.382 -2.3892
0.448262 43.385 -2.2355
0.451510 43.388 -2.0789
0.454782 43.392 -1.9194
0.458077 43.395 -1.7568
0.461397 43.398 -1.5912
0.464740 43.402 -1.4224
0.468108 43.405 -1.2505
0.471500 43.408 -1.0753
0.474917 43.412 -0.8968
0.478358 43.415 -0.7149
0.481825 43.419 -0.5296
0.485316 43.422 -0.3407
0.488833 43.426 -0.1483
0.492375 43.429 0.0478
0.495943 43.433 0.2477
0.499537 43.436 0.4513
0.503157 43.440 0.6588
0.506803 43.444 0.8702
0.510475 43.447 1.0857
0.514174 43.451 1.3053
0.517900 43.455 1.5290
0.521653 43.459 1.7571
0.525433 43.462 1.9894
0.529241 43.466 2.2262
0.533076 43.470 2.4675
0.536939 43.474 2.7134
0.540830 43.478 2.9640
0.544749 43.482 3.2194
0.548696 43.486 3.4796
0.552673 43.490 3.7448
0.556677 43.494 4.0150
0.560711 43.498 4.2904
0.564774 43.502 4.5710
0.568867 43.506 4.8570
0.572989 43.510 5.1483
0.577141 43.514 5.4452
0.581324 43.518 5.7477
0.585536 43.523 6.0560
0.589779 43.527 6.3700
0.594053 43.531 6.6900
0.598358 43.535 7.0160
0.602694 43.540 7.3482
0.607061 43.544 7.6866
0.611460 43.549 8.0313
0.615891 43.553 8.3825
0.620354 43.557 8.7403
0.624849 43.562 9.1046
0.629377 43.566 9.4758
0.633938 43.571 9.8539
0.638532 43.576 10.2389
0.643159 43.580 10.6310
0.647819 43.585 11.0303
0.652514 43.590 11.4368
0.657242 43.594 11.8508
0.662005 43.599 12.2723
0.666802 43.604 12.7014
0.671634 43.609 13.1382
0.676501 43.614 13.5828
0.681403 43.619 14.0353
0.686341 43.624 14.4958
0.691314 43.629 14.9644
0.696324 43.634 15.4411
0.701369 43.639 15.9261
0.706452 43.644 16.4194
0.711571 43.649 16.9208
0.716727 43.655 17.4297
0.721921 43.662 17.9439
0.727153 43.674 18.4573
0.732422 43.697 18.9575
0.737729 43.735 19.4301
0.743075 43.786 19.8872
0.748460 43.843 20.3405
0.753883 43.905 20.7957
0.759346 43.971 21.2545
0.764849 44.040 21.7173
0.770391 44.111 22.1835
0.775974 44.186 22.6527
0.781597 44.264 23.1242
0.787261 44.345 23.5974
0.792965 44.430 24.0716
0.798712 44.517 24.5462
0.804499 44.607 25.0204
0.810329 44.700 25.4937
0.816201 44.796 25.9653
0.822116 44.895 26.4346
0.828073 44.997 26.9008
0.834073 45.102 27.3634
0.840118 45.209 27.8216
0.846205 45.319 28.2749
0.852337 45.432 28.7224
0.858514 45.548 29.1637
0.864735 45.666 29.5981
0.871001 45.787 30.0249
0.877313 45.910 30.4435
0.883670 46.036 30.8535
0.890074 46.164 31.2541
0.896523 46.295 31.6448
0.903020 46.427 32.0251
0.909564 46.562 32.3945
0.916155 46.699 32.7524
0.922793 46.837 33.0983
0.929480 46.978 33.4319
0.936216 47.120 33.7527
0.943000 47.264 34.0601
0.949833 47.409 34.3539
0.956716 47.556 34.6336
0.963649 47.704 34.8988
0.970632 47.854 35.1493
0.977666 48.004 35.3846
0.984750 48.155 35.6045
0.991886 48.307 35.8087
0.999074 48.460 35.9968
1.006313 48.613 36.1688
1.013605 48.766 36.3242
1.020950 48.920 36.4629
1.028349 49.073 36.5847
1.035801 49.226 36.6894
1.043306 49.378 36.7769
1.050867 49.530 36.8469
1.058482 49.681 36.8994
1.066152 49.831 36.9343
1.073878 49.980 36.9515
1.081659 50.127 36.9512
1.089498 50.272 36.9343
1.097393 50.417 36.9029
1.105345 50.561 36.8609
1.113355 50.705 36.8128
1.121422 50.850 36.7609
1.129549 50.997 36.7061
1.137734 51.145 36.6483
1.145978 51.294 36.5875
1.154283 51.444 36.5232
1.162647 51.596 36.4552
1.171072 51.749 36.3833
1.179558 51.903 36.3069
1.188106 52.058 36.2260
1.196715 52.214 36.1402
1.205387 52.371 36.0493
1.214122 52.529 35.9529
1.222920 52.688 35.8509
1.231781 52.848 35.7429
1.240708 53.009 35.6288
1.249698 53.171 35.5082
1.258754 53.333 35.3810
1.267875 53.496 35.2469
1.277063 53.659 35.1057
1.286317 53.823 34.9572
1.295638 53.988 34.8011
1.305027 54.153 34.6372
1.314484 54.318 34.4652
1.324009 54.484 34.2851
1.333603 54.650 34.0965
1.343267 54.816 33.8992
1.353001 54.982 33.6930
1.362805 55.148 33.4776
1.372681 55.313 33.2529
1.382628 55.479 33.0186
1.392647 55.644 32.7744
1.402739 55.809 32.5202
1.412904 55.973 32.2556
1.423142 56.137 31.9804
1.433455 56.299 31.6945
1.443842 56.461 31.3979
1.454305 56.622 31.0908
1.464843 56.782 30.7746
1.475458 56.942 30.4520
1.486150 57.100 30.1255
1.496919 57.258 29.7965
1.507766 57.415 29.4654
1.518692 57.572 29.1323
1.529697 57.728 28.7971
1.540782 57.884 28.4596
1.551947 58.039 28.1197
1.563193 58.193 27.7770
1.574521 58.347 27.4315
1.585931 58.500 27.0829
1.597423 58.653 26.7309
1.608998 58.806 26.3754
1.620658 58.958 26.0161
1.632402 59.109 25.6528
1.644231 59.260 25.2851
1.656146 59.411 24.9128
1.668147 59.561 24.5357
1.680235 59.711 24.1535
1.692410 59.861 23.7658
1.704674 60.010 23.3724
1.717027 60.159 22.9730
1.729469 60.307 22.5673
1.742002 60.456 22.1549
1.754625 60.604 21.7355
1.767340 60.752 21.3088
1.780147 60.900 20.8745
1.793046 61.048 20.4321
1.806040 61.196 19.9815
1.819127 61.344 19.5224
1.832309 61.492 19.0553
1.845587 61.639 18.5809
1.858961 61.785 18.1004
1.872431 61.931 17.6144
1.886000 62.075 17.1237
1.899666 62.219 16.6288
1.913432 62.362 16.1300
1.927298 62.504 15.6277
1.941264 62.646 15.1223
1.955331 62.786 14.6139
1.969500 62.926 14.1029
1.983772 63.066 13.5895
1.998147 63.204 13.0738
2.012626 63.342 12.5560
2.027211 63.479 12.0362
2.041901 63.616 11.5143
2.056697 63.752 10.9906
2.071601 63.887 10.4650
2.086613 64.023 9.9373
2.101733 64.157 9.4076
2.116963 64.291 8.8758
2.132303 64.425 8.3418
2.147755 64.559 7.8053
2.163318 64.693 7.2660
2.178995 64.826 6.7236
2.194785 64.959 6.1775
2.210689 65.091 5.6268
2.226709 65.223 5.0706
2.242844 65.353 4.5090
2.259097 65.483 3.9424
2.275467 65.611 3.3714
2.291956 65.739 2.7966
2.308565 65.866 2.2185
2.325294 65.991 1.6379
2.342144 66.116 1.0551
2.359116 66.240 0.4707
2.376211 66.364 -0.1148
2.393430 66.486 -0.7011
2.410774 66.608 -1.2877
2.428243 66.729 -1.8743
2.445839 66.850 -2.4606
2.463562 66.970 -3.0463
2.481415 67.089 -3.6312
2.499396 67.208 -4.2151
2.517508 67.327 -4.7980
2.535750 67.445 -5.3800
2.554126 67.562 -5.9617
2.572634 67.680 -6.5447
2.591276 67.796 -7.1310
2.610054 67.911 -7.7216
2.628967 68.025 -8.3165
2.648018 68.138 -8.9152
2.667206 68.250 -9.5170
2.686534 68.361 -10.1213
2.706002 68.471 -10.7271
2.725610 68.581 -11.3338
2.745361 68.689 -11.9407
2.765255 68.796 -12.5471
2.785294 68.903 -13.1523
2.805477 69.009 -13.7557
2.825807 69.115 -14.3567
2.846284 69.220 -14.9546
2.866909 69.324 -15.5490
2.887684 69.428 -16.1396
2.908609 69.532 -16.7264
2.929686 69.635 -17.3103
2.950916 69.737 -17.8935
2.972299 69.838 -18.4779
2.993838 69.938 -19.0644
3.015532 70.038 -19.6527
3.037384 70.136 -20.2424
3.059394 70.233 -20.8327
3.081564 70.329 -21.4230
3.103894 70.425 -22.0125
3.126386 70.520 -22.6004
3.149041 70.614 -23.1862
3.171861 70.707 -23.7689
3.194845 70.800 -24.3479
3.217996 70.893 -24.9225
3.241315 70.985 -25.4920
3.264803 71.077 -26.0562
3.288461 71.168 -26.6153
3.312291 71.260 -27.1705
3.336293 71.350 -27.7237
3.360469 71.439 -28.2759
3.384820 71.528 -28.8274
3.409348 71.616 -29.3779
3.434054 71.703 -29.9270
3.458938 71.789 -30.4743
3.484003 71.875 -31.0192
3.509250 71.961 -31.5613
3.534679 72.046 -32.1000
3.560293 72.130 -32.6348
3.586092 72.215 -33.1651
3.612079 72.299 -33.6904
3.638253 72.384 -34.2104
3.664618 72.468 -34.7254
3.691173 72.552 -35.2361
3.717921 72.635 -35.7434
3.744862 72.719 -36.2479
3.771999 72.801 -36.7497
3.799332 72.883 -37.2488
3.826864 72.965 -37.7452
3.854595 73.047 -38.2387
3.882527 73.128 -38.7294
3.910661 73.209 -39.2171
3.938999 73.291 -39.7016
3.967543 73.372 -40.1828
3.996294 73.454 -40.6606
4.025252 73.535 -41.1347
4.054421 73.617 -41.6054
4.083801 73.699 -42.0726
4.113394 73.781 -42.5367
4.143201 73.862 -42.9980
4.173225 73.944 -43.4568
4.203466 74.025 -43.9132
4.233926 74.106 -44.3677
4.264606 74.188 -44.8205
4.295509 74.270 -45.2718
4.326636 74.351 -45.7218
4.357989 74.433 -46.1707
4.389569 74.516 -46.6185
4.421378 74.598 -47.0649
4.453417 74.681 -47.5098
4.485688 74.763 -47.9530
4.518193 74.846 -48.3949
4.550934 74.929 -48.8356
4.583912 75.012 -49.2756
4.617129 75.095 -49.7152
4.650587 75.178 -50.1547
4.684287 75.261 -50.5944
4.718231 75.344 -51.0347
4.752421 75.427 -51.4757
4.786859 75.511 -51.9174
4.821547 75.594 -52.3595
4.856485 75.678 -52.8019
4.891677 75.761 -53.2447
4.927125 75.845 -53.6879
4.962829 75.928 -54.1316
4.998791 76.012 -54.5759
5.035015 76.095 -55.0211
5.071500 76.178 -55.4672
5.108251 76.261 -55.9145
5.145267 76.344 -56.3631
5.182552 76.427 -56.8132
5.220107 76.509 -57.2648
5.257934 76.592 -57.7177
5.296035 76.674 -58.1716
5.334412 76.756 -58.6265
5.373067 76.838 -59.0821
5.412003 76.919 -59.5383
5.451221 77.001 -59.9950
5.490722 77.081 -60.4523
5.530510 77.162 -60.9107
5.570587 77.242 -61.3704
5.610953 77.322 -61.8314
5.651613 77.402 -62.2935
5.692567 77.481 -62.7562
5.733818 77.560 -63.2192
5.775367 77.638 -63.6823
5.817218 77.716 -64.1451
5.859372 77.794 -64.6076
5.901831 77.872 -65.0704
5.944598 77.949 -65.5338
5.987675 78.025 -65.9977
6.031065 78.101 -66.4621
6.074768 78.177 -66.9264
6.118788 78.252 -67.3904
6.163127 78.328 -67.8538
6.207788 78.402 -68.3165
6.252772 78.477 -68.7785
6.298082 78.551 -69.2404
6.343721 78.624 -69.7022
6.389690 78.698 -70.1640
6.435992 78.771 -70.6255
6.482630 78.843 -71.0864
6.529606 78.915 -71.5466
6.576922 78.987 -72.0060
6.624581 79.059 -72.4648
6.672585 79.130 -72.9232
6.720938 79.201 -73.3814
6.769640 79.272 -73.8392
6.818696 79.342 -74.2967
6.868107 79.412 -74.7536
6.917876 79.482 -75.2098
6.968006 79.552 -75.6654
7.018499 79.621 -76.1207
7.069358 79.689 -76.5758
7.120586 79.758 -77.0306
7.172184 79.826 -77.4851
7.224157 79.894 -77.9391
7.276506 79.962 -78.3926
7.329235 80.029 -78.8455
7.382345 80.096 -79.2982
7.435841 80.162 -79.7507
7.489724 80.229 -80.2030
7.543997 80.294 -80.6549
7.598664 80.360 -81.1064
7.653728 80.425 -81.5572
7.709189 80.490 -82.0076
7.765053 80.555 -82.4575
7.821322 80.619 -82.9073
7.877998 80.683 -83.3567
7.935086 80.746 -83.8056
7.992587 80.810 -84.2538
8.050504 80.872 -84.7013
8.108841 80.935 -85.1482
8.167601 80.997 -85.5947
8.226787 81.059 -86.0407
8.286402 81.120 -86.4862
8.346449 81.181 -86.9309
8.406931 81.242 -87.3747
8.467851 81.303 -87.8178
8.529212 81.363 -88.2603
8.591018 81.422 -88.7021
8.653272 81.482 -89.1433
8.715977 81.541 -89.5837
8.779137 81.600 -90.0232
8.842754 81.658 -90.4620
8.906833 81.717 -90.9000
8.971375 81.775 -91.3374
9.036386 81.832 -91.7741
9.101867 81.890 -92.2101
9.167823 81.947 -92.6453
9.234257 82.004 -93.0799
9.301172 82.060 -93.5139
9.368572 82.116 -93.9474
9.436460 82.173 -94.3805
9.504841 82.228 -94.8132
9.573717 82.284 -95.2455
9.643092 82.339 -95.6775
9.712970 82.394 -96.1094
9.783354 82.449 -96.5412
9.854248 82.504 -96.9731
9.925656 82.558 -97.4052
9.997581 82.612 -97.8375
10.070028 82.666 -98.2701
10.143000 82.720 -98.7031
10.216500 82.773 -99.1366
10.290533 82.826 -99.5705
10.365103 82.879 -100.0051
10.440212 82.931 -100.4403
10.515866 82.983 -100.8760
10.592069 83.034 -101.3119
10.668823 83.085 -101.7483
10.746134 83.135 -102.1851
10.824005 83.185 -102.6221
10.902440 83.235 -103.0589
10.981443 83.284 -103.4953
11.061020 83.332 -103.9312
11.141172 83.380 -104.3666
11.221906 83.428 -104.8012
11.303225 83.475 -105.2346
11.385133 83.521 -105.6666
11.467634 83.567 -106.0971
11.550734 83.613 -106.5262
11.634435 83.659 -106.9539
11.718742 83.704 -107.3800
11.803661 83.749 -107.8046
11.889195 83.794 -108.2278
11.975349 83.839 -108.6502
12.062128 83.883 -109.0721
12.149535 83.928 -109.4937
12.237576 83.973 -109.9154
12.326254 84.018 -110.3376
12.415575 84.062 -110.7612
12.505544 84.107 -111.1867
12.596164 84.151 -111.6141
12.687441 84.195 -112.0439
12.779379 84.239 -112.4763
12.871984 84.283 -112.9117
12.965260 84.325 -113.3502
13.059211 84.368 -113.7913
13.153843 84.409 -114.2346
13.249161 84.450 -114.6797
13.345170 84.490 -115.1265
13.441875 84.529 -115.5738
13.539280 84.566 -116.0204
13.637391 84.603 -116.4656
13.736214 84.639 -116.9089
13.835752 84.674 -117.3490
13.936011 84.708 -117.7848
14.036998 84.741 -118.2157
14.138716 84.774 -118.6417
14.241171 84.806 -119.0622
14.344368 84.838 -119.4770
14.448313 84.871 -119.8862
14.553011 84.903 -120.2908
14.658468 84.936 -120.6916
14.764689 84.969 -121.0891
14.871680 85.003 -121.4846
14.979446 85.037 -121.8795
15.087994 85.072 -122.2752
15.197328 85.107 -122.6725
15.307454 85.143 -123.0726
15.418378 85.179 -123.4765
15.530106 85.215 -123.8848
15.642643 85.251 -124.2976
15.755996 85.287 -124.7149
15.870171 85.322 -125.1367
15.985172 85.356 -125.5623
16.101007 85.390 -125.9907
16.217682 85.423 -126.4212
16.335201 85.454 -126.8530
16.453573 85.485 -127.2849
16.572803 85.516 -127.7161
16.692898 85.545 -128.1461
16.813862 85.574 -128.5742
16.935701 85.602 -129.0003
17.058424 85.630 -129.4241
17.182035 85.658 -129.8461
17.306543 85.685 -130.2663
17.431953 85.712 -130.6852
17.558273 85.739 -131.1032
17.685509 85.765 -131.5206
17.813665 85.791 -131.9376
17.942751 85.817 -132.3544
18.072771 85.843 -132.7710
18.203733 85.868 -133.1873
18.335646 85.892 -133.6030
18.468513 85.916 -134.0179
18.602345 85.940 -134.4319
18.737144 85.963 -134.8448
18.872921 85.986 -135.2565
19.009682 86.008 -135.6671
19.147434 86.030 -136.0767
19.286184 86.052 -136.4855
19.425940 86.073 -136.8936
19.566708 86.094 -137.3011
19.708496 86.114 -137.7077
19.851313 86.133 -138.1130
19.995163 86.152 -138.5162
20.140057 86.170 -138.9165
20.285999 86.188 -139.3127
20.433001 86.205 -139.7040
20.581066 86.221 -140.0893
20.730206 86.238 -140.4682
20.880424 86.254 -140.8409
21.031733 86.271 -141.2078
21.184137 86.289 -141.5705
21.337646 86.308 -141.9310
21.492268 86.327 -142.2914
21.648010 86.348 -142.6545
21.804880 86.369 -143.0226
21.962887 86.390 -143.3974
22.122040 86.412 -143.7803
22.282345 86.433 -144.1710
22.443811 86.452 -144.5684
22.606449 86.471 -144.9708
22.770266 86.488 -145.3748
22.935268 86.502 -145.7777
23.101467 86.516 -146.1761
23.268869 86.528 -146.5672
23.437485 86.539 -146.9496
23.607323 86.550 -147.3223
23.778391 86.561 -147.6863
23.950699 86.573 -148.0435
24.124256 86.585 -148.3967
24.299070 86.599 -148.7491
24.475151 86.614 -149.1039
24.652508 86.629 -149.4636
24.831150 86.644 -149.8297
25.011087 86.658 -150.2026
25.192327 86.672 -150.5815
25.374882 86.685 -150.9646
25.558758 86.696 -151.3493
25.743967 86.705 -151.7331
25.930519 86.714 -152.1138
26.118422 86.721 -152.4895
26.307686 86.728 -152.8596
26.498322 86.735 -153.2241
26.690340 86.741 -153.5839
26.883749 86.747 -153.9404
27.078560 86.754 -154.2949
27.274782 86.761 -154.6490
27.472427 86.767 -155.0033
27.671503 86.774 -155.3583
27.872023 86.780 -155.7135
28.073996 86.785 -156.0683
28.277431 86.790 -156.4218
28.482342 86.795 -156.7728
28.688736 86.799 -157.1205
28.896626 86.804 -157.4643
29.106022 86.808 -157.8040
29.316936 86.813 -158.1397
29.529379 86.818 -158.4720
29.743361 86.823 -158.8020
29.958893 86.829 -159.1309
30.175987 86.837 -159.4605
30.394655 86.844 -159.7925
30.614908 86.853 -160.1285
30.836756 86.861 -160.4699
31.060211 86.870 -160.8172
31.285286 86.878 -161.1701
31.511992 86.885 -161.5274
31.740341 86.891 -161.8872
31.970345 86.896 -162.2471
32.202015 86.900 -162.6048
32.435364 86.902 -162.9585
32.670403 86.904 -163.3072
32.907146 86.905 -163.6508
33.145607 86.905 -163.9901
33.385796 86.906 -164.3261
33.627724 86.905 -164.6599
33.871403 86.904 -164.9922
34.116848 86.903 -165.3239
34.364071 86.901 -165.6554
34.613087 86.898 -165.9872
34.863907 86.893 -166.3198
35.116547 86.888 -166.6532
35.371017 86.881 -166.9865
35.627331 86.873 -167.3173
35.885502 86.862 -167.6426
36.145542 86.851 -167.9586
36.407467 86.839 -168.2628
36.671291 86.827 -168.5560
36.937027 86.818 -168.8424
37.204689 86.811 -169.1304
37.474289 86.807 -169.4300
37.745842 86.804 -169.7496
38.019363 86.802 -170.0941
38.294868 86.798 -170.4624
38.572369 86.792 -170.8484
38.851879 86.783 -171.2435
39.133415 86.771 -171.6394
39.416992 86.758 -172.0310
39.702625 86.743 -172.4173
39.990326 86.728 -172.7990
40.280113 86.712 -173.1760
40.571999 86.695 -173.5450
40.866001 86.676 -173.8987
41.162132 86.656 -174.2288
41.460411 86.637 -174.5296
41.760849 86.620 -174.8013
42.063465 86.608 -175.0513
42.368275 86.600 -175.2918
42.675293 86.597 -175.5353
42.984535 86.596 -175.7899
43.296021 86.596 -176.0572
43.609760 86.596 -176.3330
43.925774 86.595 -176.6098
44.244080 86.592 -176.8799
44.564690 86.589 -177.1388
44.887623 86.587 -177.3863
45.212898 86.586 -177.6267
45.540531 86.587 -177.8681
45.870537 86.589 -178.1204
46.202934 86.591 -178.3922
46.537739 86.590 -178.6860
46.874969 86.584 -178.9938
47.214645 86.572 -179.2970
47.556782 86.553 -179.5719
47.901398 86.531 -179.8000
48.248512 86.511 -179.9796
48.598141 86.496 179.8701
48.950302 86.488 179.7146
49.305016 86.486 179.5192
49.662300 86.483 179.2656
50.022175 86.474 178.9597
50.384655 86.456 178.6272
50.749763 86.428 178.3000
51.117516 86.394 178.0018
51.487934 86.356 177.7413
51.861038 86.318 177.5150
52.236843 86.282 177.3146
52.615372 86.249 177.1323
52.996643 86.221 176.9619
53.380680 86.200 176.7957
53.767498 86.186 176.6234
54.157120 86.181 176.4304
54.549564 86.185 176.1973
54.944855 86.196 175.9000
55.343006 86.211 175.5193
55.744045 86.222 175.0571
56.147991 86.221 174.5502
56.554863 86.206 174.0640
56.964684 86.182 173.6606
57.377472 86.158 173.3616
57.793251 86.140 173.1379
58.212044 86.130 172.9411
58.633873 86.121 172.7480
59.058758 86.108 172.5724
59.486721 86.092 172.4369
59.917786 86.076 172.3378
60.351974 86.061 172.2467
60.789310 86.044 172.1414
61.229816 86.021 172.0232
61.673512 85.992 171.8991
62.120422 85.959 171.7634
62.570572 85.920 171.6125
63.023983 85.873 171.4681
63.480682 85.825 171.3502
63.940689 85.783 171.2166
64.404030 85.746 170.9699
64.870728 85.692 170.5871
65.340805 85.596 170.2451
65.814293 85.470 170.2585
66.291214 85.370 170.7961
66.771591 85.361 171.6150
67.255447 85.454 172.1685
67.742805 85.588 172.0678
68.233696 85.692 171.3651
68.728142 85.735 170.3757
69.226173 85.732 169.3360
69.727814 85.700 168.2597
70.233093 85.630 167.1160
70.742035 85.499 166.0993
71.254662 85.330 165.6033
71.771004 85.217 165.7805
72.291084 85.254 166.0592
72.814934 85.413 165.4490
73.342583 85.535 163.5590
73.874054 85.469 161.0724
74.409378 85.195 159.2731
74.948578 84.850 159.1215
75.491684 84.636 160.4338
76.038727 84.634 162.0412
76.589737 84.756 163.0579
77.144737 84.896 163.5001
77.703758 85.020 163.7010
78.266830 85.124 163.7856
78.833984 85.193 163.7639
79.405251 85.215 163.7439
79.980652 85.202 163.8526
80.560226 85.175 164.0607
81.143997 85.142 164.2294
81.732002 85.094 164.2891
82.324265 85.029 164.2891
82.920822 84.959 164.2852
83.521698 84.904 164.2292
84.126930 84.866 164.0056
84.736549 84.833 163.5744
85.350586 84.792 163.0314
85.969070 84.745 162.5067
86.592041 84.702 162.0569
87.219521 84.666 161.6865
87.851547 84.636 161.4028
88.488159 84.612 161.2011
89.129379 84.592 161.0498
89.775246 84.572 160.9227
90.425797 84.549 160.7977
91.081062 84.520 160.6363
91.741074 84.476 160.4354
92.405869 84.415 160.2711
93.075478 84.351 160.2173
93.749939 84.299 160.2422
94.429291 84.268 160.2437
95.113564 84.250 160.1624
95.802795 84.236 160.0125
