* Measurement data measured by REW V5.31
* Source: EXCL: Microphone (USB Sound Device        ), MICROPHONE (Master Volume), L, volume: 0.560
* Format: 256k Log Swept Sine, 1 sweep at -5.0 dBFS with no timing reference
* Dated: May 27, 2024 3:28:53 PM
* REW Settings:
*  C-weighting compensation: Off
*  Target level: 75.0 dB
* Note: Twistura D-Major Red L
* Measurement: Twistura D-Major Red
* Smoothing: 1/12 octave
* Frequency Step: 96 ppo
* Start Frequency: 0.36621094 Hz
*
* Freq(Hz) SPL(dB) Phase(degrees)
0.366211 78.720 175.4428
0.368865 78.716 175.4342
0.371538 78.711 175.4213
0.374230 78.705 175.4053
0.376942 78.697 175.3868
0.379673 78.689 175.3666
0.382424 78.681 175.3451
0.385196 78.673 175.3225
0.387987 78.664 175.2990
0.390798 78.655 175.2746
0.393630 78.647 175.2494
0.396483 78.638 175.2234
0.399356 78.629 175.1967
0.402250 78.620 175.1691
0.405165 78.611 175.1408
0.408101 78.602 175.1117
0.411058 78.592 175.0817
0.414037 78.583 175.0510
0.417037 78.574 175.0194
0.420059 78.564 174.9870
0.423103 78.555 174.9538
0.426169 78.545 174.9197
0.429257 78.536 174.8848
0.432368 78.526 174.8490
0.435501 78.516 174.8124
0.438656 78.506 174.7749
0.441835 78.496 174.7365
0.445037 78.486 174.6972
0.448262 78.476 174.6571
0.451510 78.466 174.6160
0.454782 78.456 174.5741
0.458077 78.446 174.5312
0.461397 78.435 174.4874
0.464740 78.425 174.4427
0.468108 78.415 174.3971
0.471500 78.404 174.3506
0.474917 78.393 174.3031
0.478358 78.383 174.2546
0.481825 78.372 174.2052
0.485316 78.361 174.1549
0.488833 78.350 174.1036
0.492375 78.339 174.0514
0.495943 78.328 173.9981
0.499537 78.317 173.9440
0.503157 78.305 173.8888
0.506803 78.294 173.8326
0.510475 78.283 173.7755
0.514175 78.271 173.7174
0.517900 78.259 173.6583
0.521653 78.248 173.5983
0.525434 78.236 173.5372
0.529241 78.224 173.4751
0.533076 78.212 173.4120
0.536939 78.200 173.3480
0.540830 78.188 173.2829
0.544749 78.176 173.2169
0.548696 78.163 173.1499
0.552673 78.151 173.0818
0.556677 78.139 173.0128
0.560711 78.126 172.9427
0.564774 78.113 172.8717
0.568867 78.101 172.7997
0.572989 78.088 172.7267
0.577141 78.075 172.6527
0.581324 78.062 172.5778
0.585536 78.049 172.5018
0.589779 78.035 172.4249
0.594053 78.022 172.3470
0.598358 78.009 172.2682
0.602694 77.995 172.1884
0.607061 77.982 172.1077
0.611460 77.968 172.0260
0.615891 77.954 171.9434
0.620354 77.940 171.8598
0.624849 77.926 171.7754
0.629377 77.912 171.6901
0.633938 77.898 171.6039
0.638532 77.883 171.5168
0.643159 77.869 171.4288
0.647819 77.854 171.3400
0.652514 77.840 171.2504
0.657242 77.825 171.1599
0.662005 77.810 171.0686
0.666802 77.795 170.9766
0.671634 77.780 170.8838
0.676501 77.765 170.7903
0.681403 77.750 170.6961
0.686341 77.734 170.6011
0.691314 77.719 170.5055
0.696324 77.703 170.4092
0.701370 77.687 170.3123
0.706452 77.671 170.2146
0.711571 77.654 170.1163
0.716728 77.637 170.0173
0.721921 77.618 169.9172
0.727153 77.598 169.8161
0.732422 77.576 169.7134
0.737729 77.552 169.6088
0.743075 77.526 169.5019
0.748460 77.499 169.3922
0.753883 77.471 169.2796
0.759346 77.443 169.1639
0.764849 77.414 169.0449
0.770391 77.385 168.9225
0.775974 77.356 168.7968
0.781597 77.327 168.6675
0.787261 77.299 168.5349
0.792966 77.269 168.3987
0.798712 77.240 168.2591
0.804500 77.211 168.1159
0.810329 77.181 167.9693
0.816201 77.151 167.8191
0.822116 77.121 167.6654
0.828073 77.091 167.5082
0.834074 77.059 167.3475
0.840118 77.028 167.1833
0.846206 76.996 167.0156
0.852338 76.963 166.8444
0.858514 76.929 166.6698
0.864735 76.894 166.4916
0.871001 76.859 166.3101
0.877313 76.822 166.1251
0.883670 76.785 165.9367
0.890074 76.746 165.7450
0.896524 76.706 165.5499
0.903020 76.664 165.3516
0.909564 76.621 165.1500
0.916155 76.576 164.9452
0.922794 76.530 164.7372
0.929481 76.482 164.5262
0.936216 76.431 164.3122
0.943000 76.379 164.0952
0.949834 76.324 163.8753
0.956717 76.267 163.6526
0.963649 76.208 163.4273
0.970632 76.146 163.1994
0.977666 76.081 162.9689
0.984750 76.013 162.7362
0.991886 75.942 162.5011
0.999074 75.868 162.2640
1.006314 75.790 162.0250
1.013606 75.709 161.7841
1.020951 75.624 161.5417
1.028349 75.535 161.2979
1.035801 75.442 161.0528
1.043307 75.345 160.8067
1.050867 75.242 160.5597
1.058482 75.135 160.3120
1.066152 75.023 160.0637
1.073878 74.905 159.8147
1.081660 74.781 159.5648
1.089498 74.650 159.3133
1.097393 74.511 159.0594
1.105345 74.363 158.8017
1.113355 74.205 158.5388
1.121423 74.037 158.2694
1.129549 73.856 157.9924
1.137734 73.665 157.7068
1.145979 73.462 157.4119
1.154283 73.248 157.1072
1.162647 73.022 156.7921
1.171072 72.787 156.4662
1.179558 72.541 156.1290
1.188106 72.286 155.7800
1.196715 72.022 155.4186
1.205387 71.750 155.0444
1.214122 71.470 154.6566
1.222920 71.184 154.2548
1.231782 70.892 153.8381
1.240708 70.594 153.4057
1.249699 70.292 152.9570
1.258754 69.987 152.4908
1.267876 69.679 152.0063
1.277063 69.370 151.5023
1.286318 69.060 150.9774
1.295639 68.751 150.4304
1.305027 68.443 149.8597
1.314484 68.138 149.2634
1.324009 67.838 148.6395
1.333604 67.543 147.9859
1.343268 67.255 147.2999
1.353002 66.975 146.5783
1.362806 66.704 145.8178
1.372681 66.446 145.0142
1.382628 66.200 144.1626
1.392647 65.969 143.2572
1.402739 65.755 142.2908
1.412904 65.559 141.2545
1.423142 65.384 140.1370
1.433455 65.230 138.9235
1.443843 65.100 137.5945
1.454305 64.994 136.1230
1.464844 64.913 134.4727
1.475459 64.857 132.5935
1.486150 64.825 130.4184
1.496920 64.817 127.8576
1.507767 64.832 124.7895
1.518693 64.868 121.0469
1.529698 64.926 116.3982
1.540783 65.004 110.5253
1.551948 65.102 103.0139
1.563194 65.219 93.4028
1.574521 65.353 81.3952
1.585931 65.505 67.3080
1.597423 65.673 52.4240
1.608999 65.857 38.5063
1.620658 66.054 26.7336
1.632402 66.265 17.3283
1.644232 66.488 9.9573
1.656146 66.723 4.1584
1.668147 66.966 -0.4718
1.680235 67.219 -4.2398
1.692411 67.479 -7.3672
1.704675 67.745 -10.0128
1.717028 68.015 -12.2908
1.729470 68.289 -14.2846
1.742003 68.565 -16.0557
1.754626 68.841 -17.6504
1.767341 69.118 -19.1042
1.780147 69.393 -20.4441
1.793047 69.667 -21.6916
1.806040 69.939 -22.8631
1.819128 70.212 -23.9715
1.832310 70.487 -25.0267
1.845587 70.766 -26.0359
1.858961 71.052 -27.0045
1.872432 71.347 -27.9364
1.886001 71.650 -28.8349
1.899667 71.963 -29.7026
1.913433 72.285 -30.5417
1.927299 72.616 -31.3544
1.941265 72.953 -32.1426
1.955332 73.298 -32.9081
1.969501 73.647 -33.6527
1.983773 74.001 -34.3779
1.998148 74.358 -35.0853
2.012627 74.716 -35.7764
2.027212 75.075 -36.4524
2.041902 75.433 -37.1148
2.056698 75.788 -37.7648
2.071602 76.139 -38.4035
2.086614 76.484 -39.0323
2.101734 76.823 -39.6523
2.116964 77.154 -40.2647
2.132304 77.475 -40.8709
2.147756 77.785 -41.4721
2.163320 78.083 -42.0699
2.178996 78.369 -42.6660
2.194786 78.643 -43.2621
2.210690 78.905 -43.8598
2.226710 79.156 -44.4603
2.242845 79.396 -45.0642
2.259098 79.626 -45.6714
2.275468 79.847 -46.2815
2.291957 80.059 -46.8935
2.308566 80.264 -47.5065
2.325295 80.461 -48.1196
2.342145 80.651 -48.7317
2.359117 80.834 -49.3419
2.376212 81.012 -49.9495
2.393431 81.185 -50.5535
2.410775 81.353 -51.1535
2.428244 81.517 -51.7488
2.445840 81.679 -52.3390
2.463564 81.838 -52.9238
2.481416 81.995 -53.5032
2.499397 82.150 -54.0774
2.517509 82.305 -54.6469
2.535752 82.459 -55.2129
2.554127 82.612 -55.7771
2.572635 82.763 -56.3413
2.591277 82.911 -56.9076
2.610055 83.057 -57.4775
2.628968 83.199 -58.0516
2.648019 83.338 -58.6300
2.667208 83.472 -59.2120
2.686535 83.603 -59.7965
2.706003 83.731 -60.3822
2.725612 83.855 -60.9680
2.745363 83.975 -61.5522
2.765257 84.093 -62.1336
2.785295 84.208 -62.7108
2.805478 84.321 -63.2826
2.825808 84.431 -63.8478
2.846285 84.540 -64.4056
2.866910 84.646 -64.9556
2.887685 84.751 -65.4978
2.908611 84.855 -66.0328
2.929688 84.956 -66.5622
2.950917 85.055 -67.0879
2.972301 85.152 -67.6116
2.993839 85.245 -68.1347
3.015534 85.336 -68.6578
3.037386 85.425 -69.1808
3.059396 85.510 -69.7030
3.081565 85.593 -70.2234
3.103896 85.673 -70.7407
3.126388 85.751 -71.2536
3.149043 85.827 -71.7607
3.171862 85.901 -72.2604
3.194847 85.974 -72.7515
3.217998 86.045 -73.2327
3.241317 86.115 -73.7033
3.264805 86.183 -74.1629
3.288463 86.251 -74.6118
3.312293 86.316 -75.0508
3.336295 86.380 -75.4812
3.360471 86.442 -75.9041
3.384822 86.502 -76.3202
3.409350 86.559 -76.7299
3.434056 86.615 -77.1334
3.458940 86.670 -77.5302
3.484005 86.723 -77.9201
3.509252 86.775 -78.3023
3.534681 86.826 -78.6762
3.560295 86.876 -79.0411
3.586094 86.926 -79.3961
3.612081 86.975 -79.7408
3.638255 87.025 -80.0744
3.664620 87.074 -80.3967
3.691175 87.122 -80.7078
3.717923 87.170 -81.0078
3.744864 87.218 -81.2974
3.772001 87.265 -81.5773
3.799335 87.311 -81.8482
3.826866 87.357 -82.1110
3.854597 87.403 -82.3665
3.882529 87.449 -82.6154
3.910664 87.495 -82.8585
3.939002 87.541 -83.0963
3.967546 87.589 -83.3289
3.996296 87.637 -83.5564
4.025255 87.686 -83.7785
4.054423 87.736 -83.9947
4.083804 87.787 -84.2047
4.113396 87.838 -84.4087
4.143204 87.891 -84.6073
4.173227 87.944 -84.8017
4.203468 87.997 -84.9934
4.233928 88.052 -85.1840
4.264609 88.107 -85.3754
4.295512 88.163 -85.5689
4.326639 88.220 -85.7660
4.357992 88.277 -85.9674
4.389572 88.336 -86.1734
4.421380 88.395 -86.3840
4.453419 88.456 -86.5987
4.485691 88.518 -86.8173
4.518196 88.580 -87.0401
4.550936 88.643 -87.2677
4.583914 88.707 -87.5008
4.617131 88.770 -87.7406
4.650589 88.835 -87.9882
4.684289 88.899 -88.2445
4.718233 88.963 -88.5106
4.752424 89.027 -88.7870
4.786862 89.091 -89.0738
4.821549 89.154 -89.3710
4.856488 89.218 -89.6782
4.891680 89.281 -89.9949
4.927127 89.344 -90.3205
4.962831 89.406 -90.6545
4.998794 89.468 -90.9967
5.035017 89.529 -91.3467
5.071503 89.588 -91.7045
5.108253 89.647 -92.0704
5.145270 89.704 -92.4445
5.182555 89.760 -92.8271
5.220110 89.814 -93.2180
5.257937 89.867 -93.6163
5.296038 89.919 -94.0210
5.334415 89.970 -94.4306
5.373071 90.019 -94.8439
5.412006 90.066 -95.2595
5.451224 90.112 -95.6766
5.490725 90.157 -96.0950
5.530514 90.199 -96.5146
5.570590 90.241 -96.9354
5.610957 90.280 -97.3573
5.651616 90.318 -97.7795
5.692570 90.355 -98.2009
5.733821 90.391 -98.6203
5.775370 90.425 -99.0363
5.817221 90.459 -99.4480
5.859375 90.491 -99.8545
5.901834 90.523 -100.2558
5.944602 90.553 -100.6519
5.987679 90.583 -101.0429
6.031068 90.612 -101.4289
6.074771 90.641 -101.8097
6.118792 90.670 -102.1852
6.163131 90.698 -102.5549
6.207792 90.727 -102.9186
6.252776 90.756 -103.2761
6.298086 90.785 -103.6276
6.343725 90.815 -103.9734
6.389694 90.845 -104.3145
6.435996 90.876 -104.6516
6.482634 90.908 -104.9859
6.529610 90.940 -105.3182
6.576926 90.973 -105.6490
6.624585 91.008 -105.9788
6.672590 91.044 -106.3079
6.720942 91.080 -106.6369
6.769645 91.118 -106.9668
6.818700 91.157 -107.2988
6.868111 91.196 -107.6340
6.917881 91.237 -107.9736
6.968010 91.278 -108.3182
7.018504 91.320 -108.6683
7.069362 91.363 -109.0241
7.120590 91.406 -109.3857
7.172189 91.450 -109.7534
7.224161 91.494 -110.1276
7.276511 91.539 -110.5085
7.329239 91.583 -110.8964
7.382350 91.627 -111.2913
7.435845 91.671 -111.6929
7.489729 91.714 -112.1006
7.544002 91.757 -112.5136
7.598669 91.800 -112.9312
7.653732 91.842 -113.3526
7.709194 91.882 -113.7773
7.765058 91.923 -114.2048
7.821327 91.962 -114.6344
7.878004 92.000 -115.0653
7.935091 92.038 -115.4963
7.992592 92.074 -115.9262
8.050510 92.110 -116.3540
8.108847 92.145 -116.7788
8.167607 92.179 -117.1998
8.226793 92.213 -117.6163
8.286408 92.246 -118.0275
8.346454 92.279 -118.4330
8.406936 92.311 -118.8325
8.467856 92.343 -119.2259
8.529218 92.376 -119.6132
8.591024 92.408 -119.9944
8.653278 92.440 -120.3699
8.715983 92.473 -120.7398
8.779143 92.506 -121.1044
8.842760 92.540 -121.4640
8.906839 92.574 -121.8190
8.971381 92.608 -122.1699
9.036392 92.644 -122.5176
9.101873 92.679 -122.8628
9.167829 92.716 -123.2061
9.234263 92.752 -123.5482
9.301178 92.790 -123.8894
9.368578 92.827 -124.2301
9.436467 92.865 -124.5710
9.504847 92.903 -124.9123
9.573723 92.940 -125.2543
9.643099 92.977 -125.5971
9.712976 93.013 -125.9406
9.783361 93.047 -126.2845
9.854255 93.079 -126.6286
9.925663 93.109 -126.9726
9.997588 93.135 -127.3161
10.070035 93.159 -127.6588
10.143007 93.180 -128.0000
10.216507 93.198 -128.3391
10.290540 93.215 -128.6756
10.365109 93.230 -129.0091
10.440219 93.243 -129.3392
10.515873 93.255 -129.6656
10.592076 93.266 -129.9879
10.668830 93.277 -130.3060
10.746141 93.287 -130.6198
10.824012 93.296 -130.9293
10.902447 93.305 -131.2348
10.981451 93.314 -131.5364
11.061027 93.323 -131.8344
11.141180 93.331 -132.1292
11.221913 93.339 -132.4213
11.303232 93.347 -132.7110
11.385140 93.355 -132.9989
11.467641 93.363 -133.2853
11.550741 93.370 -133.5705
11.634442 93.378 -133.8550
11.718750 93.385 -134.1389
11.803669 93.392 -134.4225
11.889203 93.399 -134.7058
11.975357 93.407 -134.9889
12.062136 93.414 -135.2717
12.149543 93.420 -135.5542
12.237583 93.427 -135.8362
12.326262 93.433 -136.1177
12.415583 93.439 -136.3986
12.505552 93.444 -136.6787
12.596172 93.448 -136.9580
12.687449 93.453 -137.2365
12.779387 93.456 -137.5143
12.871992 93.460 -137.7915
12.965268 93.462 -138.0683
13.059220 93.465 -138.3448
13.153852 93.468 -138.6215
13.249170 93.470 -138.8985
13.345179 93.473 -139.1762
13.441884 93.476 -139.4548
13.539289 93.479 -139.7344
13.637401 93.481 -140.0154
13.736223 93.484 -140.2978
13.835761 93.487 -140.5816
13.936021 93.489 -140.8669
14.037007 93.491 -141.1535
14.138725 93.492 -141.4413
14.241180 93.493 -141.7302
14.344377 93.494 -142.0199
14.448323 93.495 -142.3104
14.553021 93.495 -142.6014
14.658478 93.495 -142.8929
14.764700 93.495 -143.1848
14.871691 93.495 -143.4770
14.979457 93.495 -143.7697
15.088005 93.496 -144.0628
15.197339 93.496 -144.3565
15.307465 93.497 -144.6507
15.418389 93.498 -144.9457
15.530117 93.499 -145.2413
15.642655 93.501 -145.5376
15.756008 93.502 -145.8345
15.870182 93.504 -146.1319
15.985184 93.505 -146.4295
16.101019 93.507 -146.7271
16.217694 93.509 -147.0246
16.335214 93.511 -147.3217
16.453586 93.513 -147.6183
16.572815 93.516 -147.9142
16.692909 93.519 -148.2093
16.813872 93.522 -148.5036
16.935713 93.526 -148.7972
17.058436 93.531 -149.0901
17.182048 93.536 -149.3824
17.306556 93.542 -149.6741
17.431967 93.548 -149.9652
17.558286 93.554 -150.2556
17.685521 93.560 -150.5453
17.813677 93.566 -150.8338
17.942762 93.571 -151.1210
18.072783 93.577 -151.4065
18.203746 93.582 -151.6899
18.335658 93.587 -151.9709
18.468526 93.592 -152.2492
18.602356 93.596 -152.5247
18.737156 93.601 -152.7973
18.872934 93.605 -153.0670
19.009695 93.610 -153.3339
19.147447 93.614 -153.5982
19.286197 93.618 -153.8597
19.425953 93.622 -154.1184
19.566721 93.624 -154.3739
19.708510 93.627 -154.6256
19.851326 93.628 -154.8728
19.995177 93.628 -155.1144
20.140070 93.628 -155.3492
20.286013 93.626 -155.5762
20.433014 93.624 -155.7944
20.581080 93.622 -156.0029
20.730219 93.619 -156.2016
20.880439 93.617 -156.3907
21.031747 93.616 -156.5712
21.184152 93.616 -156.7447
21.337661 93.617 -156.9133
21.492282 93.620 -157.0796
21.648024 93.625 -157.2465
21.804895 93.631 -157.4167
21.962902 93.638 -157.5929
22.122054 93.646 -157.7775
22.282360 93.655 -157.9721
22.443827 93.664 -158.1777
22.606464 93.673 -158.3947
22.770280 93.682 -158.6227
22.935283 93.690 -158.8609
23.101481 93.696 -159.1079
23.268884 93.702 -159.3621
23.437500 93.706 -159.6217
23.607338 93.709 -159.8848
23.778406 93.711 -160.1496
23.950714 93.711 -160.4146
24.124271 93.710 -160.6782
24.299086 93.708 -160.9395
24.475167 93.706 -161.1975
24.652524 93.704 -161.4518
24.831166 93.701 -161.7023
25.011103 93.698 -161.9490
25.192344 93.696 -162.1924
25.374898 93.694 -162.4330
25.558775 93.692 -162.6715
25.743984 93.691 -162.9086
25.930536 93.690 -163.1448
26.118439 93.690 -163.3803
26.307704 93.690 -163.6152
26.498341 93.689 -163.8493
26.690359 93.689 -164.0822
26.883768 93.689 -164.3134
27.078579 93.688 -164.5423
27.274801 93.688 -164.7686
27.472446 93.687 -164.9923
27.671522 93.687 -165.2133
27.872042 93.686 -165.4321
28.074014 93.685 -165.6491
28.277450 93.685 -165.8650
28.482360 93.684 -166.0802
28.688755 93.682 -166.2948
28.896645 93.681 -166.5089
29.106042 93.678 -166.7220
29.316957 93.676 -166.9335
29.529400 93.672 -167.1428
29.743382 93.669 -167.3492
29.958915 93.665 -167.5525
30.176009 93.661 -167.7527
30.394677 93.657 -167.9503
30.614929 93.653 -168.1463
30.836778 93.650 -168.3418
31.060234 93.646 -168.5383
31.285309 93.643 -168.7367
31.512015 93.640 -168.9379
31.740364 93.637 -169.1421
31.970368 93.634 -169.3491
32.202039 93.630 -169.5583
32.435388 93.626 -169.7688
32.670428 93.622 -169.9800
32.907171 93.617 -170.1913
33.145630 93.613 -170.4023
33.385817 93.608 -170.6129
33.627745 93.603 -170.8235
33.871425 93.599 -171.0341
34.116871 93.594 -171.2447
34.364096 93.589 -171.4553
34.613113 93.585 -171.6654
34.863934 93.579 -171.8745
35.116572 93.574 -172.0819
35.371041 93.569 -172.2870
35.627354 93.563 -172.4896
35.885525 93.558 -172.6897
36.145566 93.552 -172.8873
36.407492 93.546 -173.0831
36.671316 93.541 -173.2779
36.937051 93.536 -173.4724
37.204712 93.530 -173.6672
37.474313 93.525 -173.8627
37.745867 93.519 -174.0590
38.019389 93.512 -174.2556
38.294893 93.506 -174.4517
38.572394 93.498 -174.6466
38.851905 93.491 -174.8397
39.133442 93.483 -175.0308
39.417019 93.475 -175.2201
39.702651 93.467 -175.4082
39.990353 93.458 -175.5954
40.280140 93.450 -175.7822
40.572026 93.442 -175.9685
40.866028 93.433 -176.1540
41.162160 93.425 -176.3382
41.460438 93.416 -176.5211
41.760877 93.408 -176.7030
42.063494 93.400 -176.8845
42.368303 93.391 -177.0665
42.675322 93.383 -177.2494
42.984565 93.375 -177.4333
43.296048 93.366 -177.6177
43.609789 93.356 -177.8015
43.925804 93.346 -177.9840
44.244108 93.336 -178.1644
44.564719 93.326 -178.3428
44.887654 93.316 -178.5198
45.212928 93.305 -178.6961
45.540560 93.295 -178.8727
45.870565 93.285 -179.0503
46.202962 93.274 -179.2294
46.537768 93.263 -179.4097
46.875000 93.252 -179.5907
47.214676 93.241 -179.7713
47.556813 93.229 -179.9501
47.901429 93.217 179.8738
48.248542 93.205 179.7010
48.598171 93.193 179.5311
48.950334 93.181 179.3628
49.305048 93.170 179.1950
49.662333 93.159 179.0272
50.022206 93.148 178.8599
50.384688 93.136 178.6946
50.749796 93.125 178.5328
51.117550 93.113 178.3753
51.487969 93.101 178.2215
51.861072 93.090 178.0697
52.236879 93.079 177.9178
52.615409 93.069 177.7646
52.996681 93.058 177.6098
53.380717 93.047 177.4541
53.767536 93.036 177.2985
54.157158 93.024 177.1437
54.549603 93.013 176.9896
54.944892 93.002 176.8353
55.343045 92.991 176.6794
55.744084 92.981 176.5204
56.148028 92.971 176.3576
56.554900 92.961 176.1907
56.964720 92.950 176.0205
57.377510 92.940 175.8478
57.793291 92.929 175.6737
58.212085 92.918 175.4984
58.633914 92.907 175.3225
59.058799 92.895 175.1467
59.486764 92.882 174.9724
59.917829 92.869 174.8013
60.352019 92.855 174.6342
60.789354 92.841 174.4700
61.229859 92.827 174.3070
61.673556 92.811 174.1439
62.120468 92.795 173.9810
62.570618 92.778 173.8204
63.024031 92.760 173.6640
63.480729 92.741 173.5124
63.940736 92.723 173.3637
64.404077 92.705 173.2155
64.870776 92.686 173.0662
65.340856 92.667 172.9161
65.814343 92.648 172.7675
66.291261 92.628 172.6234
66.771635 92.608 172.4862
67.255489 92.589 172.3566
67.742850 92.571 172.2326
68.233743 92.555 172.1097
68.728193 92.539 171.9826
69.226226 92.525 171.8479
69.727867 92.510 171.7058
