* Measurement data measured by REW V5.30 beta 5
* Source: EXCL: Microphone (Realtek(R) Audio), MICROPHONE (Master Volume), L, volume: 0.250
* Format: 256k Log Swept Sine, 1 sweep at -13.0 dBFS with no timing reference
* Dated: Dec 16, 2023 12:03:54 AM
* REW Settings:
*  C-weighting compensation: Off
*  Target level: 75.0 dB
* Note: 
* Measurement: L Unique Melody Mext
* Smoothing: 1/24 octave
* Frequency Step: 96 ppo
* Start Frequency: 0.36621094 Hz
*
* Freq(Hz) SPL(dB) Phase(degrees)
0.366211 71.380 11.4483
0.368865 71.415 11.3490
0.371538 71.465 11.2059
0.374230 71.521 11.0444
0.376942 71.580 10.8758
0.379673 71.640 10.7042
0.382424 71.701 10.5311
0.385196 71.762 10.3567
0.387987 71.823 10.1812
0.390798 71.885 10.0048
0.393630 71.947 9.8273
0.396483 72.010 9.6488
0.399356 72.074 9.4694
0.402250 72.137 9.2890
0.405165 72.202 9.1078
0.408101 72.266 8.9256
0.411058 72.331 8.7426
0.414037 72.397 8.5588
0.417037 72.463 8.3741
0.420059 72.530 8.1886
0.423103 72.597 8.0023
0.426169 72.664 7.8152
0.429257 72.732 7.6274
0.432367 72.801 7.4388
0.435501 72.870 7.2495
0.438656 72.939 7.0594
0.441835 73.009 6.8686
0.445037 73.080 6.6771
0.448262 73.151 6.4849
0.451510 73.222 6.2920
0.454782 73.294 6.0984
0.458077 73.367 5.9042
0.461397 73.440 5.7092
0.464740 73.514 5.5135
0.468108 73.588 5.3171
0.471500 73.663 5.1200
0.474917 73.738 4.9221
0.478358 73.814 4.7236
0.481825 73.890 4.5243
0.485316 73.967 4.3243
0.488833 74.045 4.1235
0.492375 74.123 3.9220
0.495943 74.201 3.7196
0.499537 74.280 3.5164
0.503157 74.360 3.3124
0.506803 74.440 3.1075
0.510475 74.521 2.9018
0.514174 74.603 2.6951
0.517900 74.685 2.4875
0.521653 74.767 2.2789
0.525433 74.851 2.0693
0.529241 74.935 1.8586
0.533076 75.019 1.6468
0.536939 75.104 1.4339
0.540830 75.190 1.2199
0.544749 75.276 1.0046
0.548696 75.363 0.7881
0.552673 75.451 0.5702
0.556677 75.539 0.3510
0.560711 75.628 0.1304
0.564774 75.717 -0.0917
0.568867 75.808 -0.3154
0.572989 75.898 -0.5406
0.577141 75.990 -0.7675
0.581324 76.082 -0.9961
0.585536 76.175 -1.2265
0.589779 76.268 -1.4587
0.594053 76.362 -1.6929
0.598358 76.457 -1.9291
0.602694 76.553 -2.1674
0.607061 76.649 -2.4078
0.611460 76.746 -2.6505
0.615891 76.843 -2.8955
0.620354 76.942 -3.1429
0.624849 77.041 -3.3928
0.629377 77.141 -3.6453
0.633938 77.241 -3.9005
0.638532 77.342 -4.1585
0.643159 77.444 -4.4194
0.647819 77.547 -4.6832
0.652514 77.650 -4.9502
0.657242 77.754 -5.2204
0.662005 77.859 -5.4939
0.666802 77.965 -5.7709
0.671634 78.071 -6.0514
0.676501 78.179 -6.3356
0.681403 78.287 -6.6236
0.686341 78.395 -6.9155
0.691314 78.505 -7.2116
0.696324 78.615 -7.5118
0.701369 78.727 -7.8164
0.706452 78.838 -8.1254
0.711571 78.951 -8.4391
0.716727 79.064 -8.7576
0.721921 79.178 -9.0808
0.727153 79.290 -9.4088
0.732422 79.399 -9.7411
0.737729 79.503 -10.0767
0.743075 79.602 -10.4145
0.748460 79.700 -10.7538
0.753883 79.798 -11.0943
0.759346 79.895 -11.4359
0.764849 79.992 -11.7782
0.770391 80.089 -12.1214
0.775974 80.186 -12.4652
0.781597 80.283 -12.8096
0.787261 80.379 -13.1544
0.792965 80.476 -13.4996
0.798712 80.573 -13.8452
0.804499 80.669 -14.1910
0.810329 80.766 -14.5370
0.816201 80.863 -14.8832
0.822116 80.959 -15.2295
0.828073 81.055 -15.5759
0.834073 81.152 -15.9223
0.840118 81.248 -16.2688
0.846205 81.344 -16.6153
0.852337 81.440 -16.9619
0.858514 81.536 -17.3085
0.864735 81.632 -17.6551
0.871001 81.728 -18.0018
0.877313 81.824 -18.3486
0.883670 81.920 -18.6955
0.890074 82.016 -19.0426
0.896523 82.111 -19.3899
0.903020 82.207 -19.7375
0.909564 82.303 -20.0854
0.916155 82.398 -20.4337
0.922793 82.494 -20.7825
0.929480 82.590 -21.1319
0.936216 82.686 -21.4819
0.943000 82.781 -21.8326
0.949833 82.877 -22.1842
0.956716 82.973 -22.5368
0.963649 83.069 -22.8905
0.970632 83.164 -23.2453
0.977666 83.260 -23.6015
0.984750 83.356 -23.9591
0.991886 83.452 -24.3184
0.999074 83.549 -24.6795
1.006313 83.645 -25.0424
1.013605 83.741 -25.4075
1.020950 83.838 -25.7749
1.028349 83.935 -26.1447
1.035801 84.031 -26.5171
1.043306 84.129 -26.8924
1.050867 84.226 -27.2708
1.058482 84.323 -27.6525
1.066152 84.421 -28.0376
1.073878 84.519 -28.4265
1.081659 84.618 -28.8194
1.089498 84.716 -29.2166
1.097393 84.815 -29.6184
1.105345 84.914 -30.0250
1.113355 85.013 -30.4367
1.121422 85.111 -30.8533
1.129549 85.210 -31.2746
1.137734 85.307 -31.7004
1.145978 85.405 -32.1303
1.154283 85.502 -32.5641
1.162647 85.599 -33.0016
1.171072 85.696 -33.4424
1.179558 85.792 -33.8862
1.188106 85.888 -34.3329
1.196715 85.984 -34.7821
1.205387 86.079 -35.2337
1.214122 86.174 -35.6874
1.222920 86.269 -36.1429
1.231781 86.363 -36.6000
1.240708 86.458 -37.0586
1.249698 86.552 -37.5183
1.258754 86.645 -37.9791
1.267875 86.739 -38.4408
1.277063 86.832 -38.9030
1.286317 86.925 -39.3658
1.295638 87.018 -39.8289
1.305027 87.110 -40.2921
1.314484 87.203 -40.7553
1.324009 87.295 -41.2185
1.333603 87.387 -41.6814
1.343267 87.479 -42.1439
1.353001 87.570 -42.6060
1.362805 87.662 -43.0675
1.372681 87.754 -43.5284
1.382628 87.845 -43.9886
1.392647 87.936 -44.4480
1.402739 88.028 -44.9065
1.412904 88.119 -45.3642
1.423142 88.211 -45.8209
1.433455 88.302 -46.2767
1.443842 88.394 -46.7317
1.454305 88.485 -47.1862
1.464843 88.577 -47.6407
1.475458 88.668 -48.0966
1.486150 88.759 -48.5550
1.496919 88.849 -49.0162
1.507766 88.939 -49.4804
1.518692 89.028 -49.9475
1.529697 89.117 -50.4172
1.540782 89.205 -50.8895
1.551947 89.293 -51.3640
1.563193 89.380 -51.8407
1.574521 89.467 -52.3193
1.585931 89.553 -52.7996
1.597423 89.639 -53.2815
1.608998 89.724 -53.7648
1.620658 89.809 -54.2494
1.632402 89.894 -54.7352
1.644231 89.977 -55.2219
1.656146 90.061 -55.7095
1.668147 90.144 -56.1978
1.680235 90.227 -56.6868
1.692410 90.309 -57.1763
1.704674 90.391 -57.6663
1.717027 90.473 -58.1566
1.729469 90.554 -58.6473
1.742002 90.635 -59.1381
1.754625 90.716 -59.6291
1.767340 90.796 -60.1203
1.780147 90.876 -60.6116
1.793046 90.956 -61.1030
1.806040 91.036 -61.5947
1.819127 91.116 -62.0872
1.832309 91.195 -62.5814
1.845587 91.274 -63.0793
1.858961 91.353 -63.5821
1.872431 91.430 -64.0905
1.886000 91.507 -64.6043
1.899666 91.583 -65.1231
1.913432 91.659 -65.6465
1.927298 91.734 -66.1740
1.941264 91.808 -66.7050
1.955331 91.881 -67.2391
1.969500 91.954 -67.7758
1.983772 92.026 -68.3144
1.998147 92.097 -68.8546
2.012626 92.168 -69.3959
2.027211 92.238 -69.9376
2.041901 92.308 -70.4794
2.056697 92.377 -71.0208
2.071601 92.445 -71.5612
2.086613 92.514 -72.1003
2.101733 92.581 -72.6374
2.116963 92.648 -73.1722
2.132303 92.715 -73.7042
2.147755 92.782 -74.2329
2.163318 92.848 -74.7583
2.178995 92.913 -75.2802
2.194785 92.979 -75.7997
2.210689 93.043 -76.3189
2.226709 93.107 -76.8403
2.242844 93.170 -77.3650
2.259097 93.233 -77.8933
2.275467 93.294 -78.4250
2.291956 93.354 -78.9596
2.308565 93.414 -79.4966
2.325294 93.473 -80.0355
2.342144 93.531 -80.5757
2.359116 93.588 -81.1167
2.376211 93.644 -81.6579
2.393430 93.700 -82.1986
2.410774 93.755 -82.7383
2.428243 93.810 -83.2764
2.445839 93.864 -83.8122
2.463562 93.918 -84.3451
2.481415 93.971 -84.8743
2.499396 94.023 -85.3994
2.517508 94.075 -85.9196
2.535750 94.127 -86.4347
2.554126 94.178 -86.9449
2.572634 94.229 -87.4514
2.591276 94.279 -87.9567
2.610054 94.328 -88.4621
2.628967 94.377 -88.9683
2.648018 94.424 -89.4753
2.667206 94.470 -89.9827
2.686534 94.516 -90.4903
2.706002 94.561 -90.9976
2.725610 94.605 -91.5041
2.745361 94.648 -92.0095
2.765255 94.691 -92.5132
2.785294 94.733 -93.0147
2.805477 94.775 -93.5134
2.825807 94.816 -94.0087
2.846284 94.857 -94.5000
2.866909 94.898 -94.9867
2.887684 94.938 -95.4683
2.908609 94.978 -95.9444
2.929686 95.018 -96.4153
2.950916 95.057 -96.8821
2.972299 95.096 -97.3462
2.993838 95.134 -97.8082
3.015532 95.171 -98.2684
3.037384 95.207 -98.7267
3.059394 95.243 -99.1829
3.081564 95.278 -99.6370
3.103894 95.313 -100.0886
3.126386 95.347 -100.5374
3.149041 95.381 -100.9833
3.171861 95.415 -101.4258
3.194845 95.448 -101.8646
3.217996 95.481 -102.2994
3.241315 95.515 -102.7297
3.264803 95.548 -103.1551
3.288461 95.581 -103.5755
3.312291 95.614 -103.9907
3.336293 95.647 -104.4013
3.360469 95.680 -104.8074
3.384820 95.712 -105.2094
3.409348 95.744 -105.6077
3.434054 95.776 -106.0024
3.458938 95.807 -106.3938
3.484003 95.838 -106.7822
3.509250 95.870 -107.1676
3.534679 95.901 -107.5504
3.560293 95.932 -107.9308
3.586092 95.963 -108.3088
3.612079 95.994 -108.6846
3.638253 96.026 -109.0582
3.664618 96.058 -109.4293
3.691173 96.090 -109.7974
3.717921 96.122 -110.1623
3.744862 96.154 -110.5240
3.771999 96.186 -110.8825
3.799332 96.218 -111.2383
3.826864 96.250 -111.5918
3.854595 96.282 -111.9433
3.882527 96.314 -112.2932
3.910661 96.347 -112.6419
3.938999 96.379 -112.9899
3.967543 96.412 -113.3374
3.996294 96.444 -113.6847
4.025252 96.477 -114.0318
4.054421 96.510 -114.3785
4.083801 96.543 -114.7241
4.113394 96.577 -115.0685
4.143201 96.610 -115.4119
4.173225 96.643 -115.7543
4.203466 96.677 -116.0961
4.233926 96.711 -116.4375
4.264606 96.744 -116.7788
4.295509 96.777 -117.1204
4.326636 96.811 -117.4625
4.357989 96.844 -117.8054
4.389569 96.877 -118.1494
4.421378 96.910 -118.4945
4.453417 96.943 -118.8408
4.485688 96.975 -119.1879
4.518193 97.008 -119.5358
4.550934 97.041 -119.8843
4.583912 97.073 -120.2331
4.617129 97.105 -120.5821
4.650587 97.137 -120.9311
4.684287 97.168 -121.2799
4.718231 97.199 -121.6284
4.752421 97.230 -121.9769
4.786859 97.260 -122.3256
4.821547 97.290 -122.6750
4.856485 97.319 -123.0252
4.891677 97.349 -123.3760
4.927125 97.377 -123.7268
4.962829 97.405 -124.0773
4.998791 97.433 -124.4269
5.035015 97.461 -124.7751
5.071500 97.488 -125.1214
5.108251 97.515 -125.4657
5.145267 97.541 -125.8081
5.182552 97.566 -126.1491
5.220107 97.592 -126.4891
5.257934 97.616 -126.8279
5.296035 97.641 -127.1654
5.334412 97.664 -127.5011
5.373067 97.688 -127.8346
5.412003 97.711 -128.1655
5.451221 97.734 -128.4933
5.490722 97.757 -128.8179
5.530510 97.780 -129.1393
5.570587 97.802 -129.4576
5.610953 97.824 -129.7731
5.651613 97.846 -130.0860
5.692567 97.867 -130.3962
5.733818 97.889 -130.7039
5.775367 97.910 -131.0092
5.817218 97.932 -131.3118
5.859372 97.953 -131.6118
5.901831 97.975 -131.9087
5.944598 97.997 -132.2024
5.987675 98.019 -132.4932
6.031065 98.040 -132.7815
6.074768 98.062 -133.0678
6.118788 98.084 -133.3528
6.163127 98.107 -133.6368
6.207788 98.129 -133.9202
6.252772 98.152 -134.2028
6.298082 98.175 -134.4841
6.343721 98.198 -134.7641
6.389690 98.221 -135.0432
6.435992 98.245 -135.3218
6.482630 98.268 -135.6005
6.529606 98.292 -135.8799
6.576922 98.316 -136.1603
6.624581 98.339 -136.4418
6.672585 98.363 -136.7243
6.720938 98.387 -137.0074
6.769640 98.412 -137.2914
6.818696 98.436 -137.5762
6.868107 98.460 -137.8621
6.917876 98.484 -138.1492
6.968006 98.507 -138.4378
7.018499 98.531 -138.7281
7.069358 98.554 -139.0199
7.120586 98.577 -139.3131
7.172184 98.600 -139.6071
7.224157 98.622 -139.9017
7.276506 98.644 -140.1964
7.329235 98.666 -140.4914
7.382345 98.687 -140.7867
7.435841 98.708 -141.0826
7.489724 98.728 -141.3787
7.543997 98.748 -141.6746
7.598664 98.768 -141.9698
7.653728 98.787 -142.2636
7.709189 98.806 -142.5560
7.765053 98.825 -142.8471
7.821322 98.843 -143.1370
7.877998 98.861 -143.4257
7.935086 98.879 -143.7128
7.992587 98.896 -143.9982
8.050504 98.914 -144.2814
8.108841 98.931 -144.5625
8.167601 98.948 -144.8415
8.226787 98.964 -145.1186
8.286402 98.981 -145.3941
8.346449 98.998 -145.6681
8.406931 99.015 -145.9408
8.467851 99.032 -146.2120
8.529212 99.049 -146.4818
8.591018 99.066 -146.7503
8.653272 99.083 -147.0181
8.715977 99.100 -147.2854
8.779137 99.117 -147.5529
8.842754 99.134 -147.8204
8.906833 99.151 -148.0879
8.971375 99.169 -148.3555
9.036386 99.186 -148.6235
9.101867 99.204 -148.8922
9.167823 99.221 -149.1618
9.234257 99.238 -149.4326
9.301172 99.255 -149.7043
9.368572 99.272 -149.9768
9.436460 99.289 -150.2501
9.504841 99.306 -150.5241
9.573717 99.323 -150.7990
9.643092 99.339 -151.0747
9.712970 99.355 -151.3510
9.783354 99.370 -151.6276
9.854248 99.386 -151.9042
9.925656 99.401 -152.1807
9.997581 99.415 -152.4569
10.070028 99.430 -152.7330
10.143000 99.444 -153.0086
10.216500 99.458 -153.2834
10.290533 99.472 -153.5572
10.365103 99.485 -153.8301
10.440212 99.498 -154.1020
10.515866 99.511 -154.3730
10.592069 99.524 -154.6430
10.668823 99.537 -154.9120
10.746134 99.550 -155.1800
10.824005 99.562 -155.4471
10.902440 99.575 -155.7135
10.981443 99.588 -155.9794
11.061020 99.600 -156.2449
11.141172 99.613 -156.5099
11.221906 99.625 -156.7747
11.303225 99.637 -157.0395
11.385133 99.650 -157.3044
11.467634 99.662 -157.5695
11.550734 99.674 -157.8348
11.634435 99.686 -158.1003
11.718742 99.698 -158.3661
11.803661 99.710 -158.6322
11.889195 99.721 -158.8987
11.975349 99.733 -159.1654
12.062128 99.744 -159.4323
12.149535 99.755 -159.6992
12.237576 99.766 -159.9662
12.326254 99.777 -160.2332
12.415575 99.787 -160.5000
12.505544 99.797 -160.7665
12.596164 99.807 -161.0327
12.687441 99.817 -161.2986
12.779379 99.827 -161.5640
12.871984 99.836 -161.8289
12.965260 99.845 -162.0934
13.059211 99.854 -162.3573
13.153843 99.863 -162.6208
13.249161 99.872 -162.8837
13.345170 99.881 -163.1462
13.441875 99.889 -163.4082
13.539280 99.897 -163.6698
13.637391 99.906 -163.9310
13.736214 99.914 -164.1918
13.835752 99.922 -164.4522
13.936011 99.930 -164.7124
14.036998 99.937 -164.9723
14.138716 99.945 -165.2319
14.241171 99.952 -165.4914
14.344368 99.960 -165.7506
14.448313 99.967 -166.0098
14.553011 99.974 -166.2688
14.658468 99.981 -166.5279
14.764689 99.987 -166.7870
14.871680 99.994 -167.0461
14.979446 100.001 -167.3053
15.087994 100.007 -167.5647
15.197328 100.013 -167.8243
15.307454 100.019 -168.0840
15.418378 100.025 -168.3437
15.530106 100.030 -168.6036
15.642643 100.035 -168.8635
15.755996 100.040 -169.1233
15.870171 100.045 -169.3829
15.985172 100.050 -169.6423
16.101007 100.054 -169.9014
16.217682 100.058 -170.1600
16.335201 100.062 -170.4181
16.453573 100.066 -170.6757
16.572803 100.069 -170.9326
16.692898 100.072 -171.1890
16.813862 100.075 -171.4448
16.935701 100.078 -171.7001
17.058424 100.081 -171.9549
17.182035 100.084 -172.2095
17.306543 100.087 -172.4639
17.431953 100.089 -172.7181
17.558273 100.092 -172.9724
17.685509 100.094 -173.2268
17.813665 100.096 -173.4814
17.942751 100.098 -173.7363
18.072771 100.100 -173.9914
18.203733 100.102 -174.2469
18.335646 100.103 -174.5027
18.468513 100.105 -174.7587
18.602345 100.106 -175.0151
18.737144 100.107 -175.2716
18.872921 100.108 -175.5282
19.009682 100.108 -175.7849
19.147434 100.108 -176.0417
19.286184 100.108 -176.2983
19.425940 100.108 -176.5548
19.566708 100.108 -176.8111
19.708496 100.107 -177.0671
19.851313 100.107 -177.3227
19.995163 100.106 -177.5780
20.140057 100.105 -177.8329
20.285999 100.104 -178.0874
20.433001 100.102 -178.3416
20.581066 100.101 -178.5955
20.730206 100.099 -178.8493
20.880424 100.098 -179.1031
21.031733 100.096 -179.3570
21.184137 100.094 -179.6112
21.337646 100.092 -179.8659
21.492268 100.090 179.8789
21.648010 100.088 179.6231
21.804880 100.086 179.3666
21.962887 100.083 179.1095
22.122040 100.080 178.8518
22.282345 100.077 178.5938
22.443811 100.074 178.3356
22.606449 100.070 178.0774
22.770266 100.066 177.8195
22.935268 100.061 177.5620
23.101467 100.057 177.3054
23.268869 100.051 177.0498
23.437485 100.046 176.7953
23.607323 100.041 176.5420
23.778391 100.035 176.2900
23.950699 100.029 176.0394
24.124256 100.023 175.7898
24.299070 100.017 175.5412
24.475151 100.011 175.2934
24.652508 100.005 175.0461
24.831150 99.998 174.7991
25.011087 99.992 174.5521
25.192327 99.986 174.3052
25.374882 99.979 174.0582
25.558758 99.973 173.8112
25.743967 99.966 173.5643
25.930519 99.959 173.3177
26.118422 99.952 173.0717
26.307686 99.944 172.8260
26.498322 99.937 172.5808
26.690340 99.930 172.3358
26.883749 99.922 172.0906
27.078560 99.915 171.8448
27.274782 99.907 171.5979
27.472427 99.900 171.3494
27.671503 99.892 171.0994
27.872023 99.884 170.8480
28.073996 99.875 170.5956
28.277431 99.866 170.3429
28.482342 99.857 170.0910
28.688736 99.847 169.8406
28.896626 99.837 169.5922
29.106022 99.826 169.3462
29.316936 99.816 169.1022
29.529379 99.805 168.8594
29.743361 99.795 168.6169
29.958893 99.785 168.3736
30.175987 99.775 168.1285
30.394655 99.764 167.8815
30.614908 99.754 167.6328
30.836756 99.743 167.3829
31.060211 99.731 167.1330
31.285286 99.719 166.8838
31.511992 99.707 166.6358
31.740341 99.695 166.3890
31.970345 99.682 166.1424
32.202015 99.670 165.8952
32.435364 99.658 165.6461
32.670403 99.645 165.3945
32.907146 99.632 165.1405
33.145607 99.619 164.8850
33.385796 99.605 164.6293
33.627724 99.590 164.3748
33.871403 99.575 164.1221
34.116848 99.560 163.8712
34.364071 99.545 163.6212
34.613087 99.530 163.3702
34.863907 99.515 163.1170
35.116547 99.500 162.8608
35.371017 99.485 162.6022
35.627331 99.468 162.3427
35.885502 99.451 162.0845
36.145542 99.433 161.8296
36.407467 99.414 161.5792
36.671291 99.396 161.3332
36.937027 99.377 161.0905
37.204689 99.359 160.8494
37.474289 99.341 160.6089
37.745842 99.323 160.3683
38.019363 99.305 160.1277
38.294868 99.287 159.8875
38.572369 99.269 159.6476
38.851879 99.250 159.4078
39.133415 99.232 159.1674
39.416992 99.213 158.9259
39.702625 99.193 158.6841
39.990326 99.173 158.4435
40.280113 99.153 158.2057
40.571999 99.133 157.9715
40.866001 99.112 157.7394
41.162132 99.093 157.5063
41.460411 99.074 157.2685
41.760849 99.054 157.0239
42.063465 99.034 156.7732
42.368275 99.012 156.5207
42.675293 98.989 156.2724
42.984535 98.964 156.0330
43.296021 98.940 155.8036
43.609760 98.917 155.5813
43.925774 98.895 155.3605
44.244080 98.874 155.1354
44.564690 98.854 154.9034
44.887623 98.832 154.6660
45.212898 98.810 154.4267
45.540531 98.787 154.1893
45.870537 98.763 153.9560
46.202934 98.739 153.7269
46.537739 98.715 153.5014
46.874969 98.690 153.2787
47.214645 98.666 153.0584
47.556782 98.641 152.8394
47.901398 98.617 152.6188
48.248512 98.593 152.3937
48.598141 98.568 152.1624
48.950302 98.541 151.9266
49.305016 98.513 151.6913
49.662300 98.483 151.4618
50.022175 98.451 151.2410
50.384655 98.420 151.0283
50.749763 98.389 150.8200
51.117516 98.359 150.6132
51.487934 98.328 150.4061
51.861038 98.298 150.1973
52.236843 98.268 149.9842
52.615372 98.238 149.7639
52.996643 98.207 149.5371
53.380680 98.172 149.3121
53.767498 98.135 149.1040
54.157120 98.096 148.9274
54.549564 98.059 148.7866
54.944855 98.027 148.6709
55.343006 98.002 148.5588
55.744045 97.980 148.4293
56.147991 97.962 148.2709
56.554863 97.942 148.0854
56.964684 97.920 147.8824
57.377472 97.895 147.6734
57.793251 97.868 147.4684
58.212044 97.840 147.2741
58.633873 97.811 147.0925
59.058758 97.785 146.9187
59.486721 97.760 146.7420
59.917786 97.738 146.5511
60.351974 97.716 146.3417
60.789310 97.692 146.1191
61.229816 97.668 145.8928
61.673512 97.643 145.6681
62.120422 97.618 145.4430
62.570572 97.592 145.2140
63.023983 97.566 144.9843
63.480682 97.537 144.7639
63.940689 97.507 144.5609
64.404030 97.479 144.3741
64.870728 97.451 144.1953
65.340805 97.424 144.0175
65.814293 97.398 143.8363
66.291214 97.371 143.6446
66.771591 97.343 143.4322
67.255447 97.310 143.2022
67.742805 97.269 142.9850
68.233696 97.223 142.8214
68.728142 97.181 142.7227
69.226173 97.149 142.6486
69.727814 97.129 142.5399
70.233093 97.114 142.3672
70.742035 97.099 142.1344
71.254662 97.084 141.8400
71.771004 97.064 141.4662
72.291084 97.028 141.0294
72.814934 96.970 140.6224
73.342583 96.894 140.3674
73.874054 96.821 140.3093
74.409378 96.767 140.3738
74.948578 96.733 140.4445
75.491684 96.711 140.4611
76.038727 96.693 140.4296
76.589737 96.676 140.3667
77.144737 96.662 140.2696
77.703758 96.646 140.1332
78.266830 96.629 139.9658
78.833984 96.609 139.7773
79.405251 96.587 139.5710
79.980652 96.562 139.3505
80.560226 96.536 139.1266
81.143997 96.509 138.9112
81.732002 96.485 138.7012
82.324265 96.464 138.4727
82.920822 96.444 138.1967
83.521698 96.418 137.8742
84.126930 96.381 137.5479
84.736549 96.336 137.2682
85.350586 96.289 137.0482
85.969070 96.244 136.8610
86.592041 96.202 136.6751
87.219521 96.158 136.4786
87.851547 96.113 136.2773
