* Measurement data measured by REW V5.30 beta 5
* Source: EXCL: Microphone (Realtek(R) Audio), MICROPHONE (Master Volume), L, volume: 1.000
* Format: 256k Log Swept Sine, 1 sweep at -33.0 dBFS with no timing reference
* Dated: Dec 19, 2023 12:11:07 AM
* REW Settings:
*  C-weighting compensation: Off
*  Target level: 75.0 dB
* Note: Ziigaat Cinno L
* Measurement: L Ziigaat Cinno
* Smoothing: 1/12 octave
* Frequency Step: 96 ppo
* Start Frequency: 0.36621094 Hz
*
* Freq(Hz) SPL(dB) Phase(degrees)
0.366211 100.864 -22.6982
0.368865 100.858 -22.7207
0.371538 100.850 -22.7544
0.374230 100.840 -22.7968
0.376942 100.828 -22.8457
0.379673 100.816 -22.8995
0.382424 100.803 -22.9571
0.385196 100.789 -23.0178
0.387987 100.776 -23.0814
0.390798 100.762 -23.1477
0.393630 100.748 -23.2164
0.396483 100.734 -23.2877
0.399356 100.720 -23.3614
0.402250 100.706 -23.4376
0.405165 100.692 -23.5164
0.408101 100.677 -23.5977
0.411058 100.663 -23.6815
0.414037 100.648 -23.7679
0.417037 100.633 -23.8569
0.420059 100.619 -23.9485
0.423103 100.604 -24.0428
0.426169 100.589 -24.1397
0.429257 100.574 -24.2393
0.432367 100.558 -24.3417
0.435501 100.543 -24.4467
0.438656 100.527 -24.5545
0.441835 100.512 -24.6651
0.445037 100.496 -24.7785
0.448262 100.480 -24.8947
0.451510 100.464 -25.0137
0.454782 100.448 -25.1356
0.458077 100.432 -25.2603
0.461397 100.416 -25.3879
0.464740 100.400 -25.5184
0.468108 100.383 -25.6518
0.471500 100.366 -25.7882
0.474917 100.350 -25.9275
0.478358 100.333 -26.0697
0.481825 100.316 -26.2149
0.485316 100.299 -26.3630
0.488833 100.281 -26.5141
0.492375 100.264 -26.6682
0.495943 100.247 -26.8253
0.499537 100.229 -26.9853
0.503157 100.211 -27.1484
0.506803 100.193 -27.3144
0.510475 100.175 -27.4834
0.514174 100.157 -27.6554
0.517900 100.139 -27.8303
0.521653 100.120 -28.0082
0.525433 100.102 -28.1891
0.529241 100.083 -28.3729
0.533076 100.064 -28.5596
0.536939 100.046 -28.7492
0.540830 100.026 -28.9417
0.544749 100.007 -29.1370
0.548696 99.988 -29.3352
0.552673 99.968 -29.5362
0.556677 99.949 -29.7399
0.560711 99.929 -29.9463
0.564774 99.909 -30.1554
0.568867 99.889 -30.3672
0.572989 99.869 -30.5815
0.577141 99.848 -30.7984
0.581324 99.828 -31.0178
0.585536 99.807 -31.2395
0.589779 99.786 -31.4636
0.594053 99.765 -31.6900
0.598358 99.744 -31.9185
0.602694 99.723 -32.1492
0.607061 99.702 -32.3818
0.611460 99.680 -32.6164
0.615891 99.658 -32.8528
0.620354 99.637 -33.0909
0.624849 99.614 -33.3306
0.629377 99.592 -33.5718
0.633938 99.570 -33.8143
0.638532 99.547 -34.0581
0.643159 99.525 -34.3029
0.647819 99.502 -34.5486
0.652514 99.479 -34.7950
0.657242 99.456 -35.0420
0.662005 99.432 -35.2895
0.666802 99.409 -35.5371
0.671634 99.385 -35.7847
0.676501 99.361 -36.0322
0.681403 99.337 -36.2792
0.686341 99.313 -36.5256
0.691314 99.288 -36.7711
0.696324 99.264 -37.0156
0.701369 99.239 -37.2587
0.706452 99.214 -37.5004
0.711571 99.188 -37.7404
0.716727 99.161 -37.9789
0.721921 99.134 -38.2160
0.727153 99.104 -38.4521
0.732422 99.074 -38.6879
0.737729 99.041 -38.9245
0.743075 99.006 -39.1627
0.748460 98.969 -39.4035
0.753883 98.931 -39.6476
0.759346 98.892 -39.8954
0.764849 98.853 -40.1472
0.770391 98.812 -40.4032
0.775974 98.771 -40.6635
0.781597 98.729 -40.9283
0.787261 98.687 -41.1975
0.792965 98.644 -41.4713
0.798712 98.601 -41.7495
0.804499 98.556 -42.0323
0.810329 98.512 -42.3196
0.816201 98.466 -42.6115
0.822116 98.420 -42.9079
0.828073 98.373 -43.2089
0.834073 98.326 -43.5143
0.840118 98.277 -43.8242
0.846205 98.228 -44.1386
0.852337 98.178 -44.4574
0.858514 98.128 -44.7805
0.864735 98.076 -45.1078
0.871001 98.024 -45.4394
0.877313 97.971 -45.7751
0.883670 97.917 -46.1148
0.890074 97.861 -46.4584
0.896523 97.805 -46.8057
0.903020 97.748 -47.1567
0.909564 97.690 -47.5110
0.916155 97.631 -47.8686
0.922793 97.571 -48.2293
0.929480 97.510 -48.5928
0.936216 97.447 -48.9588
0.943000 97.383 -49.3271
0.949833 97.319 -49.6974
0.956716 97.252 -50.0693
0.963649 97.185 -50.4425
0.970632 97.116 -50.8166
0.977666 97.046 -51.1911
0.984750 96.975 -51.5656
0.991886 96.902 -51.9395
0.999074 96.827 -52.3123
1.006313 96.751 -52.6835
1.013605 96.674 -53.0524
1.020950 96.594 -53.4182
1.028349 96.514 -53.7803
1.035801 96.431 -54.1379
1.043306 96.347 -54.4900
1.050867 96.260 -54.8359
1.058482 96.172 -55.1746
1.066152 96.082 -55.5052
1.073878 95.990 -55.8267
1.081659 95.896 -56.1383
1.089498 95.799 -56.4393
1.097393 95.699 -56.7292
1.105345 95.597 -57.0077
1.113355 95.491 -57.2747
1.121422 95.382 -57.5302
1.129549 95.269 -57.7743
1.137734 95.153 -58.0068
1.145978 95.033 -58.2278
1.154283 94.910 -58.4371
1.162647 94.783 -58.6346
1.171072 94.652 -58.8200
1.179558 94.518 -58.9932
1.188106 94.382 -59.1539
1.196715 94.242 -59.3018
1.205387 94.099 -59.4366
1.214122 93.953 -59.5581
1.222920 93.805 -59.6658
1.231781 93.654 -59.7595
1.240708 93.501 -59.8386
1.249698 93.346 -59.9028
1.258754 93.189 -59.9517
1.267875 93.030 -59.9848
1.277063 92.870 -60.0015
1.286317 92.709 -60.0014
1.295638 92.546 -59.9839
1.305027 92.383 -59.9484
1.314484 92.220 -59.8943
1.324009 92.056 -59.8212
1.333603 91.892 -59.7282
1.343267 91.728 -59.6149
1.353001 91.565 -59.4807
1.362805 91.403 -59.3249
1.372681 91.242 -59.1470
1.382628 91.083 -58.9465
1.392647 90.926 -58.7227
1.402739 90.771 -58.4750
1.412904 90.618 -58.2028
1.423142 90.468 -57.9052
1.433455 90.322 -57.5805
1.443842 90.178 -57.2267
1.454305 90.036 -56.8400
1.464843 89.897 -56.4156
1.475458 89.759 -55.9469
1.486150 89.621 -55.4270
1.496919 89.482 -54.8492
1.507766 89.343 -54.2074
1.518692 89.203 -53.4967
1.529697 89.062 -52.7128
1.540782 88.920 -51.8522
1.551947 88.778 -50.9119
1.563193 88.635 -49.8895
1.574521 88.494 -48.7830
1.585931 88.353 -47.5911
1.597423 88.213 -46.3134
1.608998 88.076 -44.9502
1.620658 87.941 -43.5029
1.632402 87.809 -41.9740
1.644231 87.681 -40.3675
1.656146 87.558 -38.6887
1.668147 87.440 -36.9443
1.680235 87.328 -35.1428
1.692410 87.223 -33.2941
1.704674 87.125 -31.4095
1.717027 87.035 -29.5014
1.729469 86.955 -27.5830
1.742002 86.885 -25.6683
1.754625 86.827 -23.7711
1.767340 86.780 -21.9049
1.780147 86.747 -20.0819
1.793046 86.728 -18.3129
1.806040 86.725 -16.6062
1.819127 86.739 -14.9672
1.832309 86.771 -13.3988
1.845587 86.823 -11.9018
1.858961 86.894 -10.4765
1.872431 86.986 -9.1239
1.886000 87.098 -7.8458
1.899666 87.230 -6.6442
1.913432 87.379 -5.5212
1.927298 87.546 -4.4782
1.941264 87.728 -3.5160
1.955331 87.925 -2.6345
1.969500 88.134 -1.8329
1.983772 88.354 -1.1097
1.998147 88.583 -0.4632
2.012626 88.820 0.1091
2.027211 89.062 0.6097
2.041901 89.307 1.0412
2.056697 89.554 1.4064
2.071601 89.801 1.7078
2.086613 90.045 1.9480
2.101733 90.285 2.1292
2.116963 90.518 2.2536
2.132303 90.743 2.3227
2.147755 90.958 2.3378
2.163318 91.163 2.2995
2.178995 91.357 2.2081
2.194785 91.541 2.0630
2.210689 91.715 1.8641
2.226709 91.881 1.6114
2.242844 92.040 1.3061
2.259097 92.194 0.9503
2.275467 92.344 0.5471
2.291956 92.489 0.1002
2.308565 92.631 -0.3866
2.325294 92.769 -0.9093
2.342144 92.903 -1.4639
2.359116 93.034 -2.0468
2.376211 93.161 -2.6543
2.393430 93.285 -3.2832
2.410774 93.406 -3.9305
2.428243 93.524 -4.5933
2.445839 93.639 -5.2694
2.463562 93.750 -5.9567
2.481415 93.859 -6.6539
2.499396 93.964 -7.3606
2.517508 94.067 -8.0774
2.535750 94.166 -8.8063
2.554126 94.262 -9.5508
2.572634 94.354 -10.3158
2.591276 94.442 -11.1063
2.610054 94.526 -11.9263
2.628967 94.606 -12.7775
2.648018 94.681 -13.6598
2.667206 94.752 -14.5716
2.686534 94.818 -15.5099
2.706002 94.881 -16.4714
2.725610 94.939 -17.4519
2.745361 94.994 -18.4472
2.765255 95.046 -19.4532
2.785294 95.094 -20.4653
2.805477 95.139 -21.4796
2.825807 95.182 -22.4922
2.846284 95.222 -23.5000
2.866909 95.260 -24.5007
2.887684 95.295 -25.4937
2.908609 95.328 -26.4802
2.929686 95.358 -27.4637
2.950916 95.385 -28.4492
2.972299 95.410 -29.4422
2.993838 95.430 -30.4468
3.015532 95.448 -31.4652
3.037384 95.462 -32.4982
3.059394 95.472 -33.5445
3.081564 95.479 -34.6022
3.103894 95.484 -35.6683
3.126386 95.485 -36.7392
3.149041 95.484 -37.8110
3.171861 95.480 -38.8795
3.194845 95.474 -39.9408
3.217996 95.466 -40.9909
3.241315 95.456 -42.0271
3.264803 95.445 -43.0479
3.288461 95.431 -44.0537
3.312291 95.415 -45.0467
3.336293 95.396 -46.0305
3.360469 95.375 -47.0084
3.384820 95.350 -47.9826
3.409348 95.324 -48.9542
3.434054 95.294 -49.9229
3.458938 95.263 -50.8872
3.484003 95.230 -51.8448
3.509250 95.196 -52.7924
3.534679 95.161 -53.7262
3.560293 95.126 -54.6420
3.586092 95.091 -55.5354
3.612079 95.056 -56.4020
3.638253 95.021 -57.2382
3.664618 94.986 -58.0415
3.691173 94.951 -58.8106
3.717921 94.916 -59.5460
3.744862 94.881 -60.2489
3.771999 94.845 -60.9211
3.799332 94.810 -61.5647
3.826864 94.776 -62.1819
3.854595 94.743 -62.7744
3.882527 94.713 -63.3438
3.910661 94.685 -63.8912
3.938999 94.661 -64.4168
3.967543 94.642 -64.9201
3.996294 94.628 -65.3995
4.025252 94.619 -65.8522
4.054421 94.615 -66.2753
4.083801 94.617 -66.6665
4.113394 94.624 -67.0255
4.143201 94.635 -67.3542
4.173225 94.652 -67.6566
4.203466 94.675 -67.9380
4.233926 94.702 -68.2047
4.264606 94.736 -68.4630
4.295509 94.776 -68.7188
4.326636 94.822 -68.9766
4.357989 94.874 -69.2392
4.389569 94.935 -69.5071
4.421378 95.002 -69.7790
4.453417 95.077 -70.0530
4.485688 95.159 -70.3283
4.518193 95.249 -70.6064
4.550934 95.344 -70.8903
4.583912 95.445 -71.1846
4.617129 95.551 -71.4945
4.650587 95.660 -71.8254
4.684287 95.772 -72.1819
4.718231 95.887 -72.5675
4.752421 96.004 -72.9838
4.786859 96.124 -73.4307
4.821547 96.246 -73.9064
4.856485 96.371 -74.4084
4.891677 96.498 -74.9345
4.927125 96.626 -75.4827
4.962829 96.756 -76.0518
4.998791 96.885 -76.6410
5.035015 97.013 -77.2504
5.071500 97.139 -77.8803
5.108251 97.264 -78.5317
5.145267 97.386 -79.2052
5.182552 97.506 -79.9005
5.220107 97.623 -80.6163
5.257934 97.738 -81.3494
5.296035 97.850 -82.0958
5.334412 97.960 -82.8512
5.373067 98.067 -83.6115
5.412003 98.170 -84.3734
5.451221 98.269 -85.1351
5.490722 98.364 -85.8960
5.530510 98.456 -86.6569
5.570587 98.543 -87.4180
5.610953 98.626 -88.1784
5.651613 98.706 -88.9355
5.692567 98.781 -89.6856
5.733818 98.853 -90.4245
5.775367 98.922 -91.1479
5.817218 98.988 -91.8529
5.859372 99.050 -92.5378
5.901831 99.109 -93.2023
5.944598 99.165 -93.8468
5.987675 99.218 -94.4714
6.031065 99.268 -95.0753
6.074768 99.316 -95.6571
6.118788 99.363 -96.2146
6.163127 99.409 -96.7458
6.207788 99.454 -97.2490
6.252772 99.498 -97.7232
6.298082 99.542 -98.1687
6.343721 99.586 -98.5866
6.389690 99.630 -98.9788
6.435992 99.674 -99.3473
6.482630 99.720 -99.6941
6.529606 99.767 -100.0206
6.576922 99.816 -100.3281
6.624581 99.868 -100.6171
6.672585 99.921 -100.8889
6.720938 99.977 -101.1455
6.769640 100.036 -101.3901
6.818696 100.096 -101.6267
6.868107 100.159 -101.8591
6.917876 100.224 -102.0908
6.968006 100.292 -102.3242
7.018499 100.362 -102.5606
7.069358 100.434 -102.8013
7.120586 100.508 -103.0480
7.172184 100.583 -103.3028
7.224157 100.659 -103.5680
7.276506 100.735 -103.8459
7.329235 100.811 -104.1380
7.382345 100.888 -104.4449
7.435841 100.963 -104.7664
7.489724 101.038 -105.1020
7.543997 101.112 -105.4508
7.598664 101.185 -105.8119
7.653728 101.255 -106.1847
7.709189 101.323 -106.5688
7.765053 101.388 -106.9633
7.821322 101.451 -107.3670
7.877998 101.511 -107.7779
7.935086 101.568 -108.1936
7.992587 101.622 -108.6119
8.050504 101.674 -109.0308
8.108841 101.722 -109.4491
8.167601 101.768 -109.8658
8.226787 101.810 -110.2795
8.286402 101.850 -110.6888
8.346449 101.888 -111.0918
8.406931 101.924 -111.4873
8.467851 101.958 -111.8743
8.529212 101.991 -112.2526
8.591018 102.022 -112.6222
8.653272 102.052 -112.9835
8.715977 102.081 -113.3367
8.779137 102.110 -113.6822
8.842754 102.138 -114.0205
8.906833 102.166 -114.3524
8.971375 102.195 -114.6794
9.036386 102.223 -115.0030
9.101867 102.252 -115.3250
9.167823 102.281 -115.6467
9.234257 102.311 -115.9694
9.301172 102.341 -116.2942
9.368572 102.371 -116.6226
9.436460 102.402 -116.9557
9.504841 102.432 -117.2946
9.573717 102.463 -117.6403
9.643092 102.493 -117.9932
9.712970 102.523 -118.3532
9.783354 102.552 -118.7204
9.854248 102.580 -119.0945
9.925656 102.608 -119.4754
9.997581 102.635 -119.8624
10.070028 102.661 -120.2549
10.143000 102.686 -120.6519
10.216500 102.710 -121.0525
10.290533 102.733 -121.4558
10.365103 102.755 -121.8611
10.440212 102.777 -122.2679
10.515866 102.798 -122.6755
10.592069 102.819 -123.0834
10.668823 102.839 -123.4914
10.746134 102.860 -123.8994
10.824005 102.880 -124.3077
10.902440 102.901 -124.7168
10.981443 102.922 -125.1271
11.061020 102.944 -125.5393
11.141172 102.966 -125.9539
11.221906 102.989 -126.3718
11.303225 103.012 -126.7937
11.385133 103.036 -127.2203
11.467634 103.060 -127.6519
11.550734 103.085 -128.0889
11.634435 103.109 -128.5312
11.718742 103.134 -128.9787
11.803661 103.158 -129.4311
11.889195 103.182 -129.8876
11.975349 103.206 -130.3472
12.062128 103.229 -130.8088
12.149535 103.251 -131.2710
12.237576 103.273 -131.7327
12.326254 103.294 -132.1924
12.415575 103.315 -132.6487
12.505544 103.335 -133.1003
12.596164 103.355 -133.5462
12.687441 103.374 -133.9855
12.779379 103.394 -134.4175
12.871984 103.414 -134.8419
12.965260 103.434 -135.2586
13.059211 103.455 -135.6677
13.153843 103.476 -136.0697
13.249161 103.498 -136.4651
13.345170 103.521 -136.8546
13.441875 103.545 -137.2388
13.539280 103.569 -137.6184
13.637391 103.593 -137.9941
13.736214 103.619 -138.3662
13.835752 103.644 -138.7350
13.936011 103.670 -139.1005
14.036998 103.695 -139.4626
14.138716 103.721 -139.8209
14.241171 103.746 -140.1750
14.344368 103.772 -140.5243
14.448313 103.797 -140.8682
14.553011 103.821 -141.2064
14.658468 103.846 -141.5385
14.764689 103.871 -141.8644
14.871680 103.895 -142.1845
14.979446 103.920 -142.4992
15.087994 103.945 -142.8095
15.197328 103.971 -143.1164
15.307454 103.996 -143.4213
15.418378 104.022 -143.7258
15.530106 104.049 -144.0315
15.642643 104.075 -144.3400
15.755996 104.101 -144.6527
15.870171 104.127 -144.9708
15.985172 104.152 -145.2952
16.101007 104.176 -145.6262
16.217682 104.199 -145.9640
16.335201 104.221 -146.3081
16.453573 104.240 -146.6577
16.572803 104.258 -147.0115
16.692898 104.273 -147.3681
16.813862 104.286 -147.7256
16.935701 104.296 -148.0824
17.058424 104.305 -148.4364
17.182035 104.311 -148.7861
17.306543 104.316 -149.1297
17.431953 104.319 -149.4661
17.558273 104.321 -149.7945
17.685509 104.322 -150.1143
17.813665 104.322 -150.4257
17.942751 104.323 -150.7294
18.072771 104.324 -151.0266
18.203733 104.326 -151.3189
18.335646 104.329 -151.6085
18.468513 104.333 -151.8978
18.602345 104.339 -152.1895
18.737144 104.346 -152.4861
18.872921 104.354 -152.7901
19.009682 104.363 -153.1036
19.147434 104.373 -153.4280
19.286184 104.383 -153.7639
19.425940 104.394 -154.1112
19.566708 104.403 -154.4689
19.708496 104.412 -154.8352
19.851313 104.420 -155.2074
19.995163 104.427 -155.5825
20.140057 104.432 -155.9575
20.285999 104.437 -156.3292
20.433001 104.440 -156.6949
20.581066 104.444 -157.0527
20.730206 104.448 -157.4016
20.880424 104.452 -157.7416
21.031733 104.457 -158.0737
21.184137 104.464 -158.3996
21.337646 104.472 -158.7217
21.492268 104.482 -159.0425
21.648010 104.493 -159.3641
21.804880 104.504 -159.6883
21.962887 104.516 -160.0159
22.122040 104.528 -160.3466
22.282345 104.539 -160.6795
22.443811 104.549 -161.0123
22.606449 104.557 -161.3428
22.770266 104.564 -161.6682
22.935268 104.570 -161.9863
23.101467 104.575 -162.2953
23.268869 104.580 -162.5943
23.437485 104.583 -162.8835
23.607323 104.587 -163.1637
23.778391 104.591 -163.4368
23.950699 104.594 -163.7047
24.124256 104.598 -163.9698
24.299070 104.602 -164.2339
24.475151 104.605 -164.4983
24.652508 104.607 -164.7638
24.831150 104.609 -165.0304
25.011087 104.610 -165.2977
25.192327 104.609 -165.5650
25.374882 104.608 -165.8318
25.558758 104.605 -166.0976
25.743967 104.603 -166.3628
25.930519 104.599 -166.6283
26.118422 104.596 -166.8953
26.307686 104.593 -167.1659
26.498322 104.590 -167.4417
26.690340 104.586 -167.7246
26.883749 104.583 -168.0154
27.078560 104.579 -168.3146
27.274782 104.573 -168.6212
27.472427 104.567 -168.9336
27.671503 104.560 -169.2493
27.872023 104.552 -169.5656
28.073996 104.543 -169.8797
28.277431 104.534 -170.1895
28.482342 104.524 -170.4940
28.688736 104.515 -170.7930
28.896626 104.508 -171.0880
29.106022 104.501 -171.3810
29.316936 104.496 -171.6742
29.529379 104.491 -171.9699
29.743361 104.487 -172.2691
29.958893 104.484 -172.5715
30.175987 104.479 -172.8753
30.394655 104.474 -173.1776
30.614908 104.468 -173.4746
30.836756 104.461 -173.7628
31.060211 104.453 -174.0399
31.285286 104.446 -174.3047
31.511992 104.439 -174.5584
31.740341 104.433 -174.8034
31.970345 104.428 -175.0436
32.202015 104.424 -175.2831
32.435364 104.421 -175.5254
32.670403 104.418 -175.7727
32.907146 104.414 -176.0258
33.145607 104.408 -176.2835
33.385796 104.402 -176.5438
33.627724 104.393 -176.8036
33.871403 104.384 -177.0603
34.116848 104.373 -177.3123
34.364071 104.362 -177.5589
34.613087 104.350 -177.8012
34.863907 104.340 -178.0416
35.116547 104.330 -178.2831
35.371017 104.320 -178.5291
35.627331 104.312 -178.7824
35.885502 104.303 -179.0446
36.145542 104.295 -179.3159
36.407467 104.285 -179.5949
36.671291 104.275 -179.8793
36.937027 104.263 179.8340
37.204689 104.251 179.5487
37.474289 104.237 179.2681
37.745842 104.222 178.9953
38.019363 104.206 178.7332
38.294868 104.190 178.4839
38.572369 104.173 178.2489
38.851879 104.158 178.0281
39.133415 104.143 177.8198
39.416992 104.129 177.6199
39.702625 104.117 177.4235
39.990326 104.105 177.2255
40.280113 104.094 177.0228
40.571999 104.081 176.8154
40.866001 104.066 176.6067
41.162132 104.049 176.4025
41.460411 104.031 176.2081
41.760849 104.011 176.0258
42.063465 103.993 175.8525
42.368275 103.976 175.6797
42.675293 103.961 175.4956
42.984535 103.948 175.2895
43.296021 103.934 175.0555
43.609760 103.917 174.7952
43.925774 103.897 174.5183
44.244080 103.872 174.2392
44.564690 103.843 173.9727
44.887623 103.813 173.7294
45.212898 103.784 173.5121
45.540531 103.758 173.3161
45.870537 103.736 173.1302
46.202934 103.719 172.9415
46.537739 103.706 172.7394
46.874969 103.694 172.5190
47.214645 103.683 172.2823
47.556782 103.669 172.0372
47.901398 103.653 171.7947
48.248512 103.635 171.5653
48.598141 103.616 171.3563
48.950302 103.596 171.1697
49.305016 103.577 171.0026
49.662300 103.559 170.8489
50.022175 103.542 170.7020
50.384655 103.526 170.5567
50.749763 103.510 170.4109
51.117516 103.493 170.2642
51.487934 103.476 170.1172
51.861038 103.459 169.9702
52.236843 103.443 169.8221
52.615372 103.427 169.6702
52.996643 103.412 169.5114
53.380680 103.398 169.3428
53.767498 103.384 169.1640
54.157120 103.370 168.9783
54.549564 103.355 168.7929
54.944855 103.340 168.6167
55.343006 103.324 168.4566
55.744045 103.311 168.3135
56.147991 103.299 168.1826
56.554863 103.290 168.0560
56.964684 103.282 167.9277
57.377472 103.275 167.7943
57.793251 103.266 167.6530
58.212044 103.257 167.4979
58.633873 103.246 167.3193
59.058758 103.230 167.1097
59.486721 103.206 166.8704
59.917786 103.173 166.6160
60.351974 103.130 166.3693
60.789310 103.079 166.1506
61.229816 103.026 165.9674
61.673512 102.974 165.8104
62.120422 102.927 165.6596
62.570572 102.885 165.4960
63.023983 102.847 165.3108
63.480682 102.814 165.1062
63.940689 102.785 164.8876
64.404030 102.761 164.6542
64.870728 102.743 164.3979
65.340805 102.729 164.1080
65.814293 102.715 163.7781
66.291214 102.699 163.4065
66.771591 102.675 162.9973
67.255447 102.637 162.5676
67.742805 102.581 162.1573
68.233696 102.507 161.8282
68.728142 102.420 161.6408
69.226173 102.334 161.6206
69.727814 102.264 161.7394
70.233093 102.220 161.9278
70.742035 102.207 162.1066
71.254662 102.227 162.2076
71.771004 102.278 162.1697
72.291084 102.354 161.9275
72.814934 102.442 161.4241
73.342583 102.519 160.6529
73.874054 102.560 159.6998
74.409378 102.550 158.7459
74.948578 102.488 158.0100
75.491684 102.393 157.6553
76.038727 102.295 157.7147
76.589737 102.215 158.0908
77.144737 102.159 158.6311
77.703758 102.124 159.2079
78.266830 102.100 159.7456
78.833984 102.080 160.2064
